Name: Diopside CaMgSi2O6
Type:  Mineral
Class:   Silicates 
Subclass:   Inosilicates (Chain Silicates) (Pyroxene Group)
Particle Size:  Solid (110 crystal face)
Sample No.:  diopside.1
Owner:  JHU
Wavelength Range:  IR
Origin:  Sample from St. Lawrence Co., New York via the Smithsonian 
(sample no. NMNH C2393).  
Description: Sample consisted of two green subhedral crystals 1-2 cm 
in length and width. Both crystals appeared pure in hand specimen.  
Under the petrographic microscope, the powdered sample displayed 
one small, moderately birefringent grain with parallel extinction. 
There may be minor exsolution. Very little alteration, but a trace 
amount (<< 1%) of sericite can be seen along cleavage planes.
Measurement:  Bidirectional reflectance 
First Column:  X
Second Column:  Y  
X Units:  Wavelength (micrometers)
Y Units:  Reflectance (percent)
First X Value:  25.0442
Last X Value:  2.079
Number of X Values:  2287
Additional Information:  diopsi1a.txt

25.044	36.848
24.924	37.680
24.805	37.846
24.686	37.650
24.569	37.139
24.454	36.418
24.339	35.590
24.225	34.355
24.112	32.736
24.001	31.486
23.890	31.301
23.781	31.535
23.672	31.277
23.564	31.084
23.458	31.899
23.352	33.138
23.247	34.469
23.144	35.121
23.041	35.246
22.939	35.316
22.838	35.490
22.738	36.035
22.638	36.551
22.540	37.896
22.442	40.367
22.345	43.065
22.250	45.598
22.154	47.797
22.060	49.688
21.967	50.678
21.874	51.183
21.782	52.674
21.691	53.756
21.601	55.119
21.511	56.346
21.422	57.451
21.334	58.096
21.247	58.752
21.160	59.219
21.074	59.897
20.988	59.983
20.904	60.222
20.820	60.487
20.737	60.660
20.654	60.681
20.572	60.597
20.491	60.547
20.410	60.761
20.330	60.774
20.251	61.200
20.172	61.725
20.094	62.510
20.016	63.352
19.939	64.190
19.863	65.381
19.787	66.908
19.712	68.469
19.637	70.126
19.563	71.254
19.489	71.882
19.416	71.741
19.344	71.000
19.272	69.504
19.201	67.532
19.130	64.998
19.059	62.444
18.990	59.668
18.920	57.581
18.851	55.867
18.783	54.739
18.715	54.050
18.648	53.808
18.581	53.943
18.515	54.530
18.449	55.363
18.384	56.623
18.319	58.228
18.254	60.220
18.190	62.366
18.126	64.809
18.063	66.869
18.001	68.641
17.938	70.138
17.876	71.304
17.815	71.964
17.754	72.421
17.693	72.408
17.633	72.131
17.573	71.483
17.514	70.710
17.455	69.432
17.396	67.987
17.338	65.684
17.280	62.854
17.223	59.182
17.166	55.155
17.109	50.949
17.053	46.619
16.997	42.382
16.942	38.425
16.886	34.387
16.832	30.631
16.777	27.114
16.723	23.901
16.669	21.031
16.616	18.832
16.563	17.558
16.510	17.039
16.458	16.941
16.406	17.091
16.354	17.343
16.302	17.698
16.251	18.065
16.200	18.531
16.150	18.973
16.100	19.430
16.050	19.895
16.000	20.403
15.951	20.987
15.902	21.676
15.854	22.349
15.805	23.117
15.757	23.923
15.710	24.605
15.662	24.815
15.615	24.412
15.568	23.242
15.521	21.409
15.475	19.191
15.429	17.146
15.383	15.620
15.338	14.928
15.292	15.026
15.248	15.503
15.203	16.150
15.158	16.893
15.114	17.740
15.070	18.659
15.027	19.479
14.983	20.282
14.940	21.700
14.897	22.278
14.854	22.663
14.812	22.484
14.770	21.212
14.728	19.191
14.686	17.214
14.645	16.022
14.603	15.598
14.562	15.652
14.521	15.815
14.481	16.071
14.441	16.265
14.400	16.418
14.361	16.553
14.321	16.688
14.281	16.813
14.242	16.969
14.203	17.114
14.164	17.284
14.126	17.407
14.087	17.577
14.049	17.730
14.011	17.859
13.973	18.005
13.936	18.195
13.899	18.350
13.861	18.512
13.824	18.633
13.788	18.745
13.751	18.849
13.715	18.966
13.679	19.083
13.643	19.193
13.607	19.302
13.571	19.426
13.536	19.566
13.500	19.696
13.465	19.809
13.430	19.903
13.396	19.991
13.361	20.106
13.327	20.223
13.293	20.335
13.259	20.442
13.225	20.560
13.191	20.636
13.158	20.692
13.124	20.792
13.091	20.920
13.058	21.029
13.026	21.126
12.993	21.225
12.960	21.334
12.928	21.421
12.896	21.549
12.864	21.689
12.832	21.779
12.800	21.869
12.769	21.982
12.737	22.099
12.706	22.244
12.675	22.329
12.644	22.416
12.614	22.535
12.583	22.656
12.552	22.781
12.522	22.930
12.492	23.077
12.462	23.194
12.432	23.329
12.402	23.504
12.373	23.670
12.343	23.838
12.314	24.027
12.285	24.215
12.256	24.398
12.227	24.588
12.198	24.834
12.169	25.095
12.141	25.349
12.113	25.682
12.084	26.042
12.056	26.400
12.028	26.811
12.000	27.279
11.973	27.761
11.945	28.317
11.918	29.052
11.890	29.968
11.863	31.045
11.836	32.326
11.809	33.938
11.782	36.035
11.755	38.752
11.729	41.759
11.702	44.576
11.676	46.961
11.650	48.807
11.624	50.274
11.598	51.524
11.572	52.508
11.546	53.360
11.520	54.125
11.495	54.777
11.469	55.340
11.444	55.898
11.419	56.400
11.394	56.821
11.369	57.220
11.344	57.610
11.319	57.956
11.294	58.280
11.270	58.523
11.245	58.823
11.221	59.042
11.197	59.252
11.173	59.497
11.149	59.753
11.125	60.046
11.101	60.295
11.077	60.498
11.054	60.749
11.030	61.065
11.007	61.431
10.983	61.781
10.960	62.240
10.937	62.838
10.914	63.535
10.891	64.241
10.868	64.925
10.846	65.374
10.823	65.267
10.800	64.201
10.778	61.800
10.755	57.978
10.733	53.737
10.711	51.102
10.689	51.127
10.667	52.671
10.645	54.471
10.623	56.091
10.602	57.506
10.580	58.695
10.558	59.730
10.537	60.579
10.516	61.254
10.494	61.915
10.473	62.781
10.452	63.854
10.431	64.972
10.410	65.683
10.389	65.677
10.368	64.769
10.348	63.067
10.327	60.879
10.306	58.434
10.286	55.790
10.266	53.050
10.245	50.285
10.225	47.562
10.205	44.901
10.185	42.332
10.165	39.782
10.145	37.215
10.125	34.620
10.106	32.097
10.086	29.917
10.066	28.299
10.047	27.273
10.027	26.688
10.008	26.324
9.9887	26.202
9.9695	26.508
9.9504	27.353
9.9313	28.622
9.9123	30.177
9.8934	31.879
9.8746	33.619
9.8558	35.310
9.8371	36.870
9.8185	38.220
9.7999	39.337
9.7814	40.186
9.7630	40.803
9.7447	41.216
9.7264	41.473
9.7082	41.570
9.6900	41.578
9.6719	41.535
9.6539	41.514
9.6360	41.543
9.6181	41.647
9.6003	41.860
9.5825	42.178
9.5649	42.552
9.5472	43.017
9.5297	43.580
9.5122	44.290
9.4948	45.166
9.4774	46.295
9.4601	47.733
9.4429	49.498
9.4257	51.451
9.4086	53.295
9.3916	54.695
9.3746	55.673
9.3577	56.268
9.3408	56.661
9.3240	56.930
9.3073	57.140
9.2906	57.284
9.2740	57.381
9.2574	57.449
9.2409	57.537
9.2245	57.567
9.2081	57.607
9.1918	57.633
9.1755	57.686
9.1593	57.698
9.1431	57.740
9.1270	57.752
9.1110	57.804
9.0950	57.843
9.0791	57.879
9.0632	57.862
9.0474	57.917
9.0316	57.964
9.0159	58.047
9.0003	58.195
8.9847	58.463
8.9691	58.743
8.9536	59.134
8.9382	59.611
8.9228	60.240
8.9075	61.035
8.8922	62.127
8.8770	63.468
8.8618	65.149
8.8467	67.126
8.8316	69.035
8.8166	70.369
8.8016	71.116
8.7867	71.249
8.7718	70.874
8.7570	70.042
8.7422	68.936
8.7275	67.441
8.7129	65.699
8.6982	63.697
8.6837	61.523
8.6692	59.212
8.6547	56.793
8.6403	54.127
8.6259	51.295
8.6116	48.326
8.5973	45.304
8.5830	42.135
8.5688	38.886
8.5547	35.535
8.5406	32.091
8.5266	28.592
8.5126	25.070
8.4986	21.664
8.4847	18.540
8.4708	15.771
8.4570	13.419
8.4432	11.433
8.4295	9.6587
8.4158	8.0434
8.4022	6.5928
8.3886	5.4031
8.3750	4.5566
8.3615	4.1289
8.3481	4.0620
8.3347	4.2588
8.3213	4.5727
8.3079	4.9421
8.2946	5.3074
8.2814	5.6662
8.2682	6.0066
8.2550	6.3367
8.2419	6.6443
8.2288	6.9507
8.2158	7.2392
8.2028	7.5195
8.1898	7.7756
8.1769	8.0224
8.1640	8.2593
8.1512	8.4892
8.1384	8.7143
8.1256	8.9245
8.1129	9.1186
8.1002	9.3183
8.0876	9.5158
8.0750	9.6999
8.0624	9.8689
8.0499	10.037
8.0374	10.202
8.0250	10.373
8.0126	10.514
8.0002	10.653
7.9879	10.793
7.9756	10.934
7.9634	11.060
7.9512	11.177
7.9390	11.304
7.9268	11.445
7.9147	11.565
7.9027	11.688
7.8906	11.795
7.8786	11.895
7.8667	12.003
7.8548	12.127
7.8429	12.231
7.8310	12.322
7.8192	12.420
7.8075	12.508
7.7957	12.587
7.7840	12.671
7.7723	12.752
7.7607	12.845
7.7491	12.933
7.7375	13.013
7.7260	13.087
7.7145	13.167
7.7031	13.247
7.6916	13.327
7.6802	13.393
7.6689	13.454
7.6575	13.523
7.6462	13.595
7.6350	13.666
7.6238	13.704
7.6126	13.759
7.6014	13.831
7.5903	13.876
7.5792	13.927
7.5681	14.006
7.5571	14.068
7.5461	14.125
7.5351	14.183
7.5242	14.240
7.5133	14.296
7.5024	14.354
7.4916	14.397
7.4807	14.399
7.4700	14.388
7.4592	14.511
7.4485	14.628
7.4378	14.660
7.4272	14.703
7.4165	14.744
7.4059	14.799
7.3954	14.844
7.3848	14.883
7.3743	14.941
7.3639	14.971
7.3534	14.967
7.3430	14.975
7.3326	15.100
7.3223	15.159
7.3119	15.165
7.3016	15.230
7.2914	15.225
7.2811	15.187
7.2709	15.322
7.2607	15.384
7.2506	15.403
7.2404	15.446
7.2303	15.472
7.2203	15.455
7.2102	15.445
7.2002	15.555
7.1902	15.570
7.1803	15.541
7.1703	15.549
7.1604	15.623
7.1506	15.628
7.1407	15.758
7.1309	15.778
7.1211	15.756
7.1113	15.836
7.1016	15.883
7.0919	15.894
7.0822	15.944
7.0725	15.967
7.0629	15.925
7.0533	15.856
7.0437	16.046
7.0341	16.126
7.0246	16.092
7.0151	16.197
7.0056	16.188
6.9962	16.178
6.9867	16.267
6.9773	16.296
6.9679	16.209
6.9586	16.315
6.9493	16.459
6.9400	16.444
6.9307	16.476
6.9214	16.494
6.9122	16.469
6.9030	16.542
6.8938	16.607
6.8847	16.602
6.8755	16.501
6.8664	16.337
6.8573	16.687
6.8483	16.836
6.8393	16.784
6.8302	16.726
6.8213	16.884
6.8123	16.895
6.8034	16.780
6.7944	16.624
6.7855	16.752
6.7767	16.828
6.7678	16.916
6.7590	16.903
6.7502	16.921
6.7414	16.974
6.7327	16.924
6.7239	16.839
6.7152	16.814
6.7065	17.080
6.6979	17.127
6.6892	16.990
6.6806	17.006
6.6720	17.154
6.6634	17.213
6.6549	17.174
6.6464	17.024
6.6378	16.829
6.6294	17.266
6.6209	17.307
6.6124	17.322
6.6040	17.262
6.5956	17.173
6.5872	17.308
6.5789	17.213
6.5705	17.293
6.5622	17.441
6.5539	17.392
6.5456	17.528
6.5374	17.571
6.5292	17.458
6.5209	17.484
6.5128	17.672
6.5046	17.462
6.4964	17.219
6.4883	17.399
6.4802	17.539
6.4721	17.662
6.4640	17.764
6.4560	17.674
6.4480	17.730
6.4399	17.684
6.4320	17.642
6.4240	17.500
6.4160	17.248
6.4081	18.002
6.4002	17.888
6.3923	17.814
6.3844	17.851
6.3766	17.742
6.3687	17.877
6.3609	17.976
6.3531	17.835
6.3454	17.762
6.3376	18.024
6.3299	18.033
6.3221	18.025
6.3144	18.033
6.3068	18.054
6.2991	18.053
6.2914	18.064
6.2838	18.073
6.2762	18.064
6.2686	18.072
6.2611	18.115
6.2535	18.125
6.2460	18.123
6.2385	18.129
6.2310	18.162
6.2235	18.146
6.2160	18.161
6.2086	18.210
6.2011	18.228
6.1937	18.127
6.1863	18.104
6.1790	18.325
6.1716	18.251
6.1643	18.122
6.1570	18.257
6.1496	18.292
6.1424	18.280
6.1351	18.362
6.1278	18.302
6.1206	18.159
6.1134	18.105
6.1062	18.367
6.0990	18.360
6.0918	18.358
6.0847	18.280
6.0776	18.111
6.0704	18.165
6.0633	18.367
6.0563	18.135
6.0492	17.997
6.0421	18.548
6.0351	18.471
6.0281	18.394
6.0211	18.316
6.0141	18.349
6.0071	18.493
6.0002	18.340
5.9932	18.185
5.9863	18.311
5.9794	18.369
5.9725	18.260
5.9657	18.439
5.9588	18.408
5.9520	18.281
5.9451	18.153
5.9383	18.059
5.9315	18.452
5.9247	18.340
5.9180	18.351
5.9112	18.416
5.9045	18.288
5.8978	18.166
5.8911	18.263
5.8844	18.140
5.8777	18.476
5.8711	18.396
5.8644	18.315
5.8578	18.478
5.8512	18.482
5.8446	18.471
5.8380	18.387
5.8314	18.250
5.8249	18.173
5.8184	18.487
5.8118	18.584
5.8053	18.492
5.7988	18.521
5.7923	18.551
5.7859	18.506
5.7794	18.470
5.7730	18.380
5.7666	18.390
5.7602	18.734
5.7538	18.584
5.7474	18.623
5.7410	18.688
5.7347	18.651
5.7283	18.620
5.7220	18.542
5.7157	18.577
5.7094	18.691
5.7031	18.751
5.6969	18.640
5.6906	18.650
5.6844	18.652
5.6782	18.584
5.6719	18.704
5.6657	18.702
5.6596	18.610
5.6534	18.597
5.6472	18.488
5.6411	18.596
5.6349	18.764
5.6288	18.767
5.6227	18.729
5.6166	18.710
5.6106	18.781
5.6045	18.766
5.5984	18.830
5.5924	18.801
5.5864	18.700
5.5804	18.708
5.5744	18.865
5.5684	18.823
5.5624	18.815
5.5564	18.804
5.5505	18.882
5.5445	18.937
5.5386	18.939
5.5327	18.918
5.5268	18.900
5.5209	18.911
5.5151	18.971
5.5092	18.963
5.5033	18.972
5.4975	18.989
5.4917	18.989
5.4859	18.942
5.4801	18.936
5.4743	18.995
5.4685	18.897
5.4628	18.991
5.4570	19.086
5.4513	19.035
5.4455	19.021
5.4398	19.059
5.4341	19.070
5.4284	18.954
5.4228	18.963
5.4171	19.083
5.4114	19.069
5.4058	19.094
5.4002	19.104
5.3945	19.109
5.3889	19.129
5.3833	19.126
5.3778	19.112
5.3722	19.123
5.3666	19.133
5.3611	19.064
5.3555	18.983
5.3500	19.055
5.3445	19.173
5.3390	19.160
5.3335	19.166
5.3280	19.171
5.3225	19.169
5.3171	19.169
5.3116	19.177
5.3062	19.182
5.3008	19.178
5.2954	19.133
5.2900	19.186
5.2846	19.208
5.2792	19.172
5.2738	19.208
5.2684	19.219
5.2631	19.216
5.2578	19.231
5.2524	19.228
5.2471	19.221
5.2418	19.205
5.2365	19.223
5.2312	19.263
5.2260	19.254
5.2207	19.211
5.2154	19.188
5.2102	19.273
5.2050	19.219
5.1998	19.210
5.1945	19.280
5.1893	19.271
5.1842	19.260
5.1790	19.263
5.1738	19.277
5.1686	19.274
5.1635	19.273
5.1584	19.274
5.1532	19.234
5.1481	19.224
5.1430	19.279
5.1379	19.276
5.1328	19.294
5.1277	19.287
5.1227	19.287
5.1176	19.273
5.1126	19.276
5.1075	19.278
5.1025	19.277
5.0975	19.270
5.0925	19.271
5.0875	19.229
5.0825	19.232
5.0775	19.261
5.0726	19.259
5.0676	19.254
5.0627	19.257
5.0577	19.251
5.0528	19.237
5.0479	19.239
5.0430	19.253
5.0380	19.249
5.0332	19.239
5.0283	19.233
5.0234	19.205
5.0185	19.224
5.0137	19.270
5.0088	19.258
5.0040	19.267
4.9992	19.264
4.9944	19.266
4.9896	19.266
4.9848	19.271
4.9800	19.271
4.9752	19.291
4.9704	19.292
4.9657	19.293
4.9609	19.264
4.9562	19.286
4.9514	19.295
4.9467	19.292
4.9420	19.297
4.9373	19.305
4.9326	19.307
4.9279	19.305
4.9232	19.307
4.9186	19.313
4.9139	19.317
4.9092	19.328
4.9046	19.330
4.9000	19.332
4.8953	19.333
4.8907	19.336
4.8861	19.324
4.8815	19.336
4.8769	19.346
4.8723	19.352
4.8678	19.354
4.8632	19.361
4.8586	19.352
4.8541	19.365
4.8495	19.371
4.8450	19.362
4.8405	19.376
4.8360	19.395
4.8315	19.385
4.8270	19.375
4.8225	19.376
4.8180	19.400
4.8135	19.409
4.8090	19.423
4.8046	19.414
4.8001	19.411
4.7957	19.409
4.7913	19.414
4.7868	19.410
4.7824	19.418
4.7780	19.440
4.7736	19.457
4.7692	19.452
4.7648	19.463
4.7605	19.475
4.7561	19.478
4.7517	19.475
4.7474	19.478
4.7431	19.483
4.7387	19.498
4.7344	19.492
4.7301	19.479
4.7258	19.487
4.7215	19.508
4.7172	19.513
4.7129	19.521
4.7086	19.527
4.7043	19.542
4.7000	19.533
4.6958	19.533
4.6915	19.557
4.6873	19.566
4.6831	19.559
4.6788	19.569
4.6746	19.585
4.6704	19.594
4.6662	19.591
4.6620	19.601
4.6578	19.611
4.6536	19.618
4.6495	19.628
4.6453	19.645
4.6411	19.652
4.6370	19.659
4.6328	19.659
4.6287	19.670
4.6246	19.678
4.6205	19.691
4.6163	19.701
4.6122	19.703
4.6081	19.701
4.6040	19.718
4.6000	19.734
4.5959	19.743
4.5918	19.744
4.5877	19.763
4.5837	19.765
4.5796	19.768
4.5756	19.769
4.5716	19.785
4.5675	19.812
4.5635	19.831
4.5595	19.839
4.5555	19.849
4.5515	19.857
4.5475	19.880
4.5435	19.905
4.5395	19.924
4.5356	19.933
4.5316	19.946
4.5276	19.970
4.5237	20.005
4.5197	20.023
4.5158	20.053
4.5119	20.065
4.5080	20.076
4.5040	20.091
4.5001	20.119
4.4962	20.134
4.4923	20.125
4.4884	20.130
4.4846	20.154
4.4807	20.161
4.4768	20.163
4.4730	20.175
4.4691	20.190
4.4652	20.199
4.4614	20.217
4.4576	20.216
4.4537	20.227
4.4499	20.235
4.4461	20.250
4.4423	20.252
4.4385	20.265
4.4347	20.272
4.4309	20.278
4.4271	20.281
4.4233	20.291
4.4196	20.289
4.4158	20.301
4.4120	20.304
4.4083	20.313
4.4045	20.323
4.4008	20.325
4.3971	20.312
4.3934	20.309
4.3896	20.310
4.3859	20.326
4.3822	20.340
4.3785	20.351
4.3748	20.357
4.3711	20.360
4.3674	20.363
4.3638	20.369
4.3601	20.366
4.3564	20.375
4.3528	20.388
4.3491	20.397
4.3455	20.389
4.3418	20.395
4.3382	20.420
4.3346	20.434
4.3310	20.434
4.3273	20.460
4.3237	20.459
4.3201	20.469
4.3165	20.482
4.3129	20.514
4.3094	20.549
4.3058	20.581
4.3022	20.616
4.2986	20.647
4.2951	20.649
4.2915	20.686
4.2880	20.715
4.2844	20.731
4.2809	20.733
4.2774	20.746
4.2738	20.734
4.2703	20.750
4.2668	20.777
4.2633	20.830
4.2598	20.752
4.2563	20.592
4.2528	20.562
4.2493	20.691
4.2458	20.814
4.2424	20.961
4.2389	21.051
4.2354	21.075
4.2320	21.059
4.2285	21.059
4.2251	21.030
4.2216	21.029
4.2182	20.942
4.2148	20.839
4.2113	20.729
4.2079	20.677
4.2045	20.643
4.2011	20.614
4.1977	20.567
4.1943	20.551
4.1909	20.525
4.1875	20.509
4.1841	20.507
4.1808	20.511
4.1774	20.511
4.1740	20.529
4.1707	20.536
4.1673	20.529
4.1640	20.536
4.1606	20.561
4.1573	20.562
4.1540	20.555
4.1506	20.547
4.1473	20.562
4.1440	20.559
4.1407	20.566
4.1374	20.573
4.1341	20.569
4.1308	20.577
4.1275	20.576
4.1242	20.573
4.1209	20.595
4.1177	20.593
4.1144	20.580
4.1111	20.590
4.1079	20.607
4.1046	20.606
4.1014	20.607
4.0981	20.612
4.0949	20.624
4.0917	20.622
4.0884	20.638
4.0852	20.631
4.0820	20.630
4.0788	20.627
4.0756	20.625
4.0724	20.640
4.0692	20.652
4.0660	20.652
4.0628	20.649
4.0596	20.641
4.0565	20.653
4.0533	20.659
4.0501	20.658
4.0470	20.663
4.0438	20.668
4.0406	20.668
4.0375	20.669
4.0344	20.664
4.0312	20.678
4.0281	20.669
4.0250	20.682
4.0218	20.703
4.0187	20.694
4.0156	20.690
4.0125	20.708
4.0094	20.718
4.0063	20.721
4.0032	20.722
4.0001	20.730
3.9970	20.723
3.9940	20.714
3.9909	20.728
3.9878	20.734
3.9847	20.734
3.9817	20.741
3.9786	20.740
3.9756	20.758
3.9725	20.763
3.9695	20.766
3.9665	20.765
3.9634	20.758
3.9604	20.756
3.9574	20.769
3.9544	20.778
3.9513	20.794
3.9483	20.788
3.9453	20.781
3.9423	20.795
3.9393	20.807
3.9363	20.795
3.9333	20.788
3.9304	20.792
3.9274	20.794
3.9244	20.797
3.9214	20.801
3.9185	20.797
3.9155	20.795
3.9126	20.800
3.9096	20.799
3.9067	20.796
3.9037	20.813
3.9008	20.811
3.8979	20.812
3.8949	20.816
3.8920	20.833
3.8891	20.827
3.8862	20.826
3.8833	20.830
3.8804	20.824
3.8775	20.822
3.8746	20.833
3.8717	20.828
3.8688	20.828
3.8659	20.824
3.8630	20.831
3.8601	20.821
3.8573	20.811
3.8544	20.802
3.8515	20.794
3.8487	20.795
3.8458	20.812
3.8430	20.817
3.8401	20.811
3.8373	20.813
3.8344	20.824
3.8316	20.817
3.8288	20.814
3.8259	20.818
3.8231	20.806
3.8203	20.802
3.8175	20.809
3.8147	20.805
3.8119	20.801
3.8091	20.806
3.8063	20.815
3.8035	20.794
3.8007	20.792
3.7979	20.796
3.7951	20.816
3.7924	20.805
3.7896	20.798
3.7868	20.788
3.7841	20.782
3.7813	20.785
3.7785	20.778
3.7758	20.774
3.7730	20.782
3.7703	20.775
3.7676	20.766
3.7648	20.765
3.7621	20.774
3.7594	20.772
3.7566	20.766
3.7539	20.762
3.7512	20.765
3.7485	20.751
3.7458	20.742
3.7431	20.749
3.7404	20.749
3.7377	20.737
3.7350	20.747
3.7323	20.741
3.7296	20.735
3.7269	20.734
3.7242	20.736
3.7216	20.733
3.7189	20.740
3.7162	20.738
3.7136	20.734
3.7109	20.730
3.7083	20.739
3.7056	20.728
3.7030	20.721
3.7003	20.724
3.6977	20.730
3.6950	20.729
3.6924	20.732
3.6898	20.712
3.6872	20.708
3.6845	20.734
3.6819	20.739
3.6793	20.729
3.6767	20.721
3.6741	20.709
3.6715	20.722
3.6689	20.720
3.6663	20.726
3.6637	20.733
3.6611	20.725
3.6585	20.721
3.6560	20.726
3.6534	20.723
3.6508	20.722
3.6482	20.708
3.6457	20.713
3.6431	20.718
3.6406	20.723
3.6380	20.717
3.6355	20.724
3.6329	20.726
3.6304	20.724
3.6278	20.726
3.6253	20.729
3.6227	20.728
3.6202	20.729
3.6177	20.726
3.6152	20.720
3.6127	20.717
3.6101	20.730
3.6076	20.711
3.6051	20.705
3.6026	20.712
3.6001	20.717
3.5976	20.711
3.5951	20.708
3.5926	20.718
3.5901	20.720
3.5876	20.721
3.5852	20.726
3.5827	20.729
3.5802	20.734
3.5777	20.734
3.5753	20.736
3.5728	20.746
3.5704	20.760
3.5679	20.747
3.5654	20.749
3.5630	20.759
3.5605	20.742
3.5581	20.723
3.5557	20.742
3.5532	20.746
3.5508	20.738
3.5484	20.739
3.5459	20.768
3.5435	20.769
3.5411	20.771
3.5387	20.779
3.5363	20.771
3.5338	20.760
3.5314	20.767
3.5290	20.762
3.5266	20.768
3.5242	20.771
3.5218	20.789
