Name: Ferruginous Sandstone
Type:  Rocks
Class:  Sedimentary
Subclass: Sandstone 
Particle Size:  500 - 1500 Micrometers
Sample No.:  sandstone.4
Owner:  JHU
Wavelength Range:  All
Origin:  Sample No. 452,  The Hunt and Salisbury Collection at the U.S. 
Geological Survey, Denver, Co.
Description: Poorly sorted, low porosity sandstone containing 
medium-grained, well-rounded to subrounded quartz grains coated 
with ferruginous material (clay) and some carbonate. Sample 
displays quartz redeposition and pressure solution of the quartz, 
recrystallization of carbonate as scattered large anhedra, and silica 
recrystallization; also, some microcline and carbonaceous material.
Measurement:  Directional (10 Degree) Hemispherical Reflectance
First Column:  X
Second Column:  Y  
X Units:  Wavelength (micrometers)
Y Units:  Reflectance (percent)
First X Value: 14.0112
Last X Value:  0.4
Number of X Values: 2844
Additional Information:  None

14.0112	2.3785
13.9734	2.3665
13.9359	2.3579
13.8985	2.3691
13.8614	2.4103
13.8244	2.4811
13.7876	2.5727
13.7511	2.6721
13.7147	2.7697
13.6785	2.858
13.6425	2.9337
13.6067	2.9974
13.5711	3.0507
13.5356	3.0957
13.5004	3.1335
13.4653	3.1659
13.4304	3.1976
13.3957	3.2328
13.3612	3.2735
13.3269	3.3199
13.2927	3.3716
13.2587	3.4288
13.2249	3.4917
13.1912	3.5608
13.1577	3.641
13.1244	3.7369
13.0913	3.8566
13.0583	4.0116
13.0255	4.2183
12.9929	4.4928
12.9604	4.8419
12.9281	5.2514
12.8959	5.6793
12.8639	6.0561
12.8321	6.3035
12.8004	6.3597
12.7688	6.2073
12.7375	5.8857
12.7063	5.4864
12.6752	5.123
12.6443	4.8947
12.6135	4.8502
12.5829	4.9689
12.5524	5.167
12.5221	5.3278
12.4919	5.3354
12.4619	5.1156
12.432	4.659
12.4023	4.0241
12.3727	3.3158
12.3432	2.651
12.3139	2.1232
12.2847	1.7822
12.2557	1.6236
12.2268	1.6043
12.198	1.6674
12.1694	1.7643
12.1409	1.8629
12.1125	1.9502
12.0843	2.0256
12.0562	2.0938
12.0282	2.1569
12.0003	2.2155
11.9726	2.2684
11.945	2.3139
11.9176	2.3504
11.8903	2.3775
11.8631	2.3971
11.836	2.4148
11.809	2.4376
11.7822	2.472
11.7555	2.522
11.7289	2.5868
11.7024	2.6598
11.676	2.7335
11.6498	2.8029
11.6237	2.8685
11.5977	2.9352
11.5718	3.0152
11.546	3.1214
11.5203	3.262
11.4948	3.4388
11.4694	3.6481
11.444	3.8832
11.4188	4.1308
11.3937	4.3725
11.3688	4.5866
11.3439	4.7485
11.3191	4.8296
11.2944	4.81
11.2699	4.6904
11.2455	4.4945
11.2211	4.2606
11.1969	4.0324
11.1727	3.8475
11.1487	3.7257
11.1248	3.6642
11.101	3.6458
11.0773	3.6523
11.0536	3.6685
11.0301	3.6843
11.0067	3.6956
10.9834	3.702
10.9602	3.7061
10.937	3.7082
10.914	3.7109
10.8911	3.7168
10.8682	3.7283
10.8455	3.7444
10.8229	3.763
10.8003	3.7822
10.7779	3.7999
10.7555	3.8166
10.7332	3.8339
10.7111	3.8544
10.689	3.8786
10.667	3.9049
10.6451	3.9308
10.6233	3.9544
10.6015	3.9763
10.5799	3.999
10.5584	4.0272
10.5369	4.0636
10.5155	4.1081
10.4942	4.158
10.473	4.2093
10.4519	4.2571
10.4309	4.3001
10.4099	4.3391
10.3891	4.378
10.3683	4.4196
10.3476	4.4664
10.327	4.5191
10.3065	4.5748
10.286	4.6306
10.2656	4.6837
10.2454	4.7344
10.2251	4.7856
10.205	4.8397
10.185	4.8983
10.165	4.9612
10.1451	5.027
10.1253	5.0921
10.1056	5.1531
10.0859	5.2098
10.0663	5.2647
10.0468	5.3203
10.0274	5.3804
10.008	5.4479
9.9887	5.5254
9.9695	5.6123
9.9504	5.7049
9.9313	5.7998
9.9123	5.8946
9.8934	5.9879
9.8746	6.0802
9.8558	6.1753
9.8371	6.2769
9.8185	6.3874
9.7999	6.5071
9.7814	6.6348
9.763	6.7693
9.7447	6.9112
9.7264	7.061
9.7082	7.2201
9.69	7.3892
9.6719	7.5677
9.6539	7.7532
9.636	7.9429
9.6181	8.1388
9.6003	8.347
9.5825	8.575
9.5649	8.8308
9.5472	9.12
9.5297	9.4478
9.5122	9.8189
9.4948	10.2435
9.4774	10.7415
9.4601	11.3391
9.4429	12.0643
9.4257	12.9349
9.4086	13.9466
9.3916	15.0658
9.3746	16.2329
9.3577	17.3706
9.3408	18.4013
9.324	19.2626
9.3073	19.922
9.2906	20.3812
9.274	20.668
9.2574	20.828
9.2409	20.9097
9.2245	20.953
9.2081	20.9826
9.1918	21.007
9.1755	21.0252
9.1593	21.0327
9.1431	21.0271
9.127	21.0104
9.111	20.99
9.095	20.9728
9.0791	20.964
9.0632	20.9651
9.0474	20.9743
9.0316	20.9869
9.0159	20.9987
9.0003	21.0058
8.9847	21.0065
8.9691	20.9996
8.9536	20.9842
8.9382	20.9595
8.9228	20.9211
8.9075	20.8644
8.8922	20.7845
8.877	20.678
8.8618	20.5438
8.8467	20.3847
8.8316	20.2067
8.8166	20.015
8.8016	19.816
8.7867	19.6179
8.7718	19.4284
8.757	19.2445
8.7422	19.041
8.7275	18.7666
8.7129	18.3544
8.6982	17.7469
8.6837	16.9397
8.6692	16.0145
8.6547	15.1378
8.6403	14.5136
8.6259	14.3081
8.6116	14.5842
8.5973	15.2763
8.583	16.2142
8.5688	17.1894
8.5547	18.0314
8.5406	18.6544
8.5266	19.0609
8.5126	19.3066
8.4986	19.4631
8.4847	19.5882
8.4708	19.7141
8.457	19.8519
8.4432	20
8.4295	20.1562
8.4158	20.3191
8.4022	20.4881
8.3886	20.6639
8.375	20.847
8.3615	21.0386
8.3481	21.2395
8.3347	21.447
8.3213	21.6578
8.3079	21.8691
8.2946	22.077
8.2814	22.2796
8.2682	22.4722
8.255	22.6476
8.2419	22.7922
8.2288	22.8845
8.2158	22.8989
8.2028	22.8048
8.1898	22.5742
8.1769	22.1873
8.164	21.6374
8.1512	20.9352
8.1384	20.1076
8.1256	19.1935
8.1129	18.2374
8.1002	17.2818
8.0876	16.3604
8.075	15.4963
8.0624	14.7002
8.0499	13.9731
8.0374	13.3087
8.025	12.6952
8.0126	12.1184
8.0002	11.5635
7.9879	11.019
7.9756	10.4761
7.9634	9.9335
7.9512	9.3954
7.939	8.871
7.9268	8.3714
7.9147	7.9072
7.9027	7.4856
7.8906	7.1095
7.8786	6.777
7.8667	6.4832
7.8548	6.2226
7.8429	5.9907
7.831	5.7862
7.8192	5.6089
7.8075	5.4587
7.7957	5.3337
7.784	5.2282
7.7723	5.134
7.7607	5.0416
7.7491	4.9447
7.7375	4.8399
7.726	4.728
7.7145	4.6127
7.7031	4.4978
7.6916	4.3853
7.6802	4.2755
7.6689	4.1672
7.6575	4.0609
7.6462	3.9583
7.635	3.8614
7.6238	3.7736
7.6126	3.6977
7.6014	3.6343
7.5903	3.5819
7.5792	3.5374
7.5681	3.4982
7.5571	3.4616
7.5461	3.4267
7.5351	3.3933
7.5242	3.3635
7.5133	3.3377
7.5024	3.3151
7.4916	3.2951
7.4807	3.2759
7.47	3.2567
7.4592	3.2374
7.4485	3.2204
7.4378	3.207
7.4272	3.1972
7.4165	3.1903
7.4059	3.1847
7.3954	3.178
7.3848	3.1687
7.3743	3.1565
7.3639	3.1424
7.3534	3.1269
7.343	3.1098
7.3326	3.0922
7.3223	3.0735
7.3119	3.0541
7.3016	3.0355
7.2914	3.019
7.2811	3.0056
7.2709	2.9967
7.2607	2.9933
7.2506	2.9946
7.2404	3.0008
7.2303	3.0127
7.2203	3.0314
7.2102	3.0582
7.2002	3.0936
7.1902	3.1381
7.1803	3.1922
7.1703	3.2551
7.1604	3.3271
7.1506	3.4111
7.1407	3.5099
7.1309	3.6237
7.1211	3.7489
7.1113	3.8774
7.1016	3.9987
7.0919	4.1016
7.0822	4.1786
7.0725	4.2291
7.0629	4.259
7.0533	4.2762
7.0437	4.288
7.0341	4.2988
7.0246	4.3107
7.0151	4.3224
7.0056	4.332
6.9962	4.3387
6.9867	4.3435
6.9773	4.3478
6.9679	4.3524
6.9586	4.3592
6.9493	4.3705
6.94	4.3868
6.9307	4.4072
6.9214	4.4308
6.9122	4.4552
6.903	4.4774
6.8938	4.4947
6.8847	4.5069
6.8755	4.5155
6.8664	4.5232
6.8573	4.532
6.8483	4.5428
6.8393	4.5562
6.8302	4.5703
6.8213	4.5835
6.8123	4.5949
6.8034	4.6059
6.7944	4.6183
6.7855	4.6334
6.7767	4.6517
6.7678	4.6734
6.759	4.6985
6.7502	4.7262
6.7414	4.7569
6.7327	4.7909
6.7239	4.8289
6.7152	4.871
6.7065	4.917
6.6979	4.9665
6.6892	5.0187
6.6806	5.0723
6.672	5.1254
6.6634	5.1768
6.6549	5.2263
6.6464	5.2742
6.6378	5.3218
6.6294	5.3711
6.6209	5.4225
6.6124	5.4757
6.604	5.5278
6.5956	5.5747
6.5872	5.6137
6.5789	5.6431
6.5705	5.6637
6.5622	5.6778
6.5539	5.6888
6.5456	5.6979
6.5374	5.7046
6.5292	5.707
6.5209	5.7046
6.5128	5.6991
6.5046	5.6926
6.4964	5.6874
6.4883	5.6818
6.4802	5.6682
6.4721	5.6328
6.464	5.5606
6.456	5.4405
6.448	5.2687
6.4399	5.0509
6.432	4.8016
6.424	4.538
6.416	4.2767
6.4081	4.0294
6.4002	3.802
6.3923	3.595
6.3844	3.4053
6.3766	3.2285
6.3687	3.0599
6.3609	2.8969
6.3531	2.7415
6.3454	2.5952
6.3376	2.4615
6.3299	2.3426
6.3221	2.2404
6.3144	2.1542
6.3068	2.0818
6.2991	2.0229
6.2914	1.9765
6.2838	1.9404
6.2762	1.9105
6.2686	1.8832
6.2611	1.8549
6.2535	1.8229
6.246	1.7882
6.2385	1.7542
6.231	1.7255
6.2235	1.7035
6.216	1.6882
6.2086	1.6775
6.2011	1.6677
6.1937	1.6559
6.1863	1.6423
6.179	1.6287
6.1716	1.6181
6.1643	1.6126
6.157	1.6128
6.1496	1.6179
6.1424	1.6236
6.1351	1.6277
6.1278	1.6289
6.1206	1.6279
6.1134	1.6277
6.1062	1.6312
6.099	1.6406
6.0918	1.6542
6.0847	1.669
6.0776	1.6818
6.0704	1.6899
6.0633	1.6932
6.0563	1.6934
6.0492	1.6939
6.0421	1.6968
6.0351	1.703
6.0281	1.7114
6.0211	1.7208
6.0141	1.7291
6.0071	1.7344
6.0002	1.7349
5.9932	1.7306
5.9863	1.722
5.9794	1.7107
5.9725	1.6989
5.9657	1.6896
5.9588	1.6836
5.952	1.6818
5.9451	1.6834
5.9383	1.6889
5.9315	1.6982
5.9247	1.7117
5.918	1.7281
5.9112	1.7464
5.9045	1.7638
5.8978	1.7794
5.8911	1.792
5.8844	1.8023
5.8777	1.8103
5.8711	1.8171
5.8644	1.8239
5.8578	1.8308
5.8512	1.839
5.8446	1.8488
5.838	1.8607
5.8314	1.8745
5.8249	1.8894
5.8184	1.9049
5.8118	1.9205
5.8053	1.9361
5.7988	1.9514
5.7923	1.9653
5.7859	1.977
5.7794	1.9864
5.773	1.9927
5.7666	1.997
5.7602	2.0018
5.7538	2.0095
5.7474	2.0214
5.741	2.0375
5.7347	2.0566
5.7283	2.077
5.722	2.0954
5.7157	2.1086
5.7094	2.115
5.7031	2.1152
5.6969	2.1102
5.6906	2.1002
5.6844	2.0873
5.6782	2.0732
5.6719	2.0581
5.6657	2.0415
5.6596	2.0239
5.6534	2.0068
5.6472	1.9899
5.6411	1.9726
5.6349	1.9547
5.6288	1.9363
5.6227	1.9165
5.6166	1.8944
5.6106	1.8712
5.6045	1.8466
5.5984	1.8207
5.5924	1.7932
5.5864	1.766
5.5804	1.7414
5.5744	1.7224
5.5684	1.7133
5.5624	1.7181
5.5564	1.7372
5.5505	1.77
5.5445	1.8128
5.5386	1.8624
5.5327	1.9135
5.5268	1.9628
5.5209	2.0083
5.5151	2.05
5.5092	2.0878
5.5033	2.1232
5.4975	2.1577
5.4917	2.1914
5.4859	2.2234
5.4801	2.2533
5.4743	2.2799
5.4685	2.3033
5.4628	2.3239
5.457	2.3428
5.4513	2.3605
5.4455	2.3763
5.4398	2.3883
5.4341	2.3937
5.4284	2.3931
5.4228	2.3878
5.4171	2.3803
5.4114	2.374
5.4058	2.3703
5.4002	2.3698
5.3945	2.3703
5.3889	2.3691
5.3833	2.3653
5.3778	2.36
5.3722	2.3547
5.3666	2.3524
5.3611	2.355
5.3555	2.3637
5.35	2.3768
5.3445	2.3919
5.339	2.4057
5.3335	2.4168
5.328	2.4244
5.3225	2.4296
5.3171	2.4364
5.3116	2.4472
5.3062	2.4634
5.3008	2.4837
5.2954	2.5053
5.29	2.5247
5.2846	2.5397
5.2792	2.5496
5.2738	2.5577
5.2684	2.567
5.2631	2.5803
5.2578	2.6007
5.2524	2.6285
5.2471	2.662
5.2418	2.699
5.2365	2.7371
5.2312	2.7747
5.226	2.8101
5.2207	2.8424
5.2154	2.8713
5.2102	2.8972
5.205	2.9189
5.1998	2.9359
5.1945	2.9488
5.1893	2.9586
5.1842	2.9663
5.179	2.9732
5.1738	2.9807
5.1686	2.9888
5.1635	2.9964
5.1584	3.0024
5.1532	3.0062
5.1481	3.0082
5.143	3.0084
5.1379	3.007
5.1328	3.0029
5.1277	2.995
5.1227	2.9817
5.1176	2.9622
5.1126	2.9388
5.1075	2.9161
5.1025	2.8993
5.0975	2.8924
5.0925	2.8965
5.0875	2.9108
5.0825	2.9316
5.0775	2.9539
5.0726	2.9727
5.0676	2.9865
5.0627	2.9938
5.0577	2.9955
5.0528	2.9931
5.0479	2.989
5.043	2.985
5.038	2.9818
5.0332	2.9795
5.0283	2.9773
5.0234	2.9759
5.0185	2.9749
5.0137	2.9759
5.0088	2.979
5.004	2.9845
4.9992	2.9919
4.9944	3.0008
4.9896	3.011
4.9848	3.0247
4.98	3.0441
4.9752	3.0706
4.9704	3.1039
4.9657	3.141
4.9609	3.1785
4.9562	3.213
4.9514	3.2434
4.9467	3.2702
4.942	3.2965
4.9373	3.3249
4.9326	3.3582
4.9279	3.3993
4.9232	3.4518
4.9186	3.52
4.9139	3.6089
4.9092	3.7236
4.9046	3.8664
4.9	4.0382
4.8953	4.236
4.8907	4.4555
4.8861	4.6904
4.8815	4.9335
4.8769	5.1787
4.8723	5.4216
4.8678	5.6584
4.8632	5.8874
4.8586	6.1076
4.8541	6.319
4.8495	6.5212
4.845	6.7136
4.8405	6.8968
4.836	7.0732
4.8315	7.2438
4.827	7.4093
4.8225	7.5698
4.818	7.7248
4.8135	7.8732
4.809	8.0151
4.8046	8.1522
4.8001	8.2872
4.7957	8.4216
4.7913	8.5549
4.7868	8.6852
4.7824	8.8109
4.778	8.9291
4.7736	9.0377
4.7692	9.1365
4.7648	9.2257
4.7605	9.3045
4.7561	9.3714
4.7517	9.4253
4.7474	9.4645
4.7431	9.4856
4.7387	9.4858
4.7344	9.4614
4.7301	9.4078
4.7258	9.3193
4.7215	9.1894
4.7172	9.0145
4.7129	8.7931
4.7086	8.529
4.7043	8.2321
4.7	7.9204
4.6958	7.6182
4.6915	7.3538
4.6873	7.1535
4.6831	7.0375
4.6788	7.0143
4.6746	7.0796
4.6704	7.2186
4.6662	7.4119
4.662	7.6435
4.6578	7.9026
4.6536	8.1843
4.6495	8.4869
4.6453	8.8085
4.6411	9.1413
4.637	9.4739
4.6328	9.793
4.6287	10.0897
4.6246	10.3584
4.6205	10.5974
4.6163	10.8079
4.6122	10.9915
4.6081	11.1484
4.604	11.2793
4.6	11.3846
4.5959	11.4674
4.5918	11.5315
4.5877	11.5808
4.5837	11.6166
4.5796	11.6389
4.5756	11.6451
4.5716	11.6324
4.5675	11.597
4.5635	11.5365
4.5595	11.4485
4.5555	11.3312
4.5515	11.1845
4.5475	11.0094
4.5435	10.8087
4.5395	10.5857
4.5356	10.3438
4.5316	10.0849
4.5276	9.8093
4.5237	9.517
4.5197	9.2102
4.5158	8.897
4.5119	8.5891
4.508	8.3008
4.504	8.0467
4.5001	7.8362
4.4962	7.6717
4.4923	7.5488
4.4884	7.4579
4.4846	7.3897
4.4807	7.3364
4.4768	7.2961
4.473	7.2743
4.4691	7.2791
4.4652	7.3175
4.4614	7.3923
4.4576	7.5004
4.4537	7.6311
4.4499	7.7696
4.4461	7.9041
4.4423	8.0281
4.4385	8.1416
4.4347	8.2498
4.4309	8.3601
4.4271	8.4783
4.4233	8.6056
4.4196	8.7403
4.4158	8.8801
4.412	9.0235
4.4083	9.1726
4.4045	9.3296
4.4008	9.4986
4.3971	9.6815
4.3934	9.8782
4.3896	10.0859
4.3859	10.3008
4.3822	10.5184
4.3785	10.7345
4.3748	10.9448
4.3711	11.1463
4.3674	11.3372
4.3638	11.515
4.3601	11.6779
4.3564	11.8258
4.3528	11.9581
4.3491	12.0749
4.3455	12.1755
4.3418	12.261
4.3382	12.3313
4.3346	12.3858
4.331	12.4235
4.3273	12.4421
4.3237	12.4419
4.3201	12.4222
4.3165	12.3842
4.3129	12.3318
4.3094	12.2701
4.3058	12.205
4.3022	12.1411
4.2986	12.083
4.2951	12.0344
4.2915	11.9966
4.288	11.969
4.2844	11.9526
4.2809	11.9494
4.2774	11.9627
4.2738	11.9966
4.2703	12.0547
4.2668	12.1356
4.2633	12.2313
4.2598	12.3292
4.2563	12.4145
4.2528	12.4768
4.2493	12.5103
4.2458	12.5189
4.2424	12.5121
4.2389	12.5017
4.2354	12.499
4.232	12.5113
4.2285	12.54
4.2251	12.5828
4.2216	12.634
4.2182	12.6869
4.2148	12.7342
4.2113	12.7713
4.2079	12.7966
4.2045	12.812
4.2011	12.8209
4.1977	12.8287
4.1943	12.8416
4.1909	12.8637
4.1875	12.8967
4.1841	12.9387
4.1808	12.9855
4.1774	13.0318
4.174	13.0737
4.1707	13.1094
4.1673	13.1393
4.164	13.1653
4.1606	13.1895
4.1573	13.2116
4.154	13.2305
4.1506	13.2455
4.1473	13.2558
4.144	13.2613
4.1407	13.2618
4.1374	13.2584
4.1341	13.2515
4.1308	13.2415
4.1275	13.2302
4.1242	13.2199
4.1209	13.2116
4.1177	13.2046
4.1144	13.1983
4.1111	13.1924
4.1079	13.1857
4.1046	13.179
4.1014	13.1723
4.0981	13.1644
4.0949	13.1517
4.0917	13.129
4.0884	13.0931
4.0852	13.0419
4.082	12.9761
4.0788	12.8981
4.0756	12.8112
4.0724	12.7181
4.0692	12.6194
4.066	12.5134
4.0628	12.3969
4.0596	12.265
4.0565	12.1121
4.0533	11.9341
4.0501	11.731
4.047	11.5069
4.0438	11.2687
4.0406	11.0274
4.0375	10.7929
4.0344	10.5742
4.0312	10.3758
4.0281	10.2002
4.025	10.0469
4.0218	9.9129
4.0187	9.7945
4.0156	9.6866
4.0125	9.5839
4.0094	9.4818
4.0063	9.3769
4.0032	9.2685
4.0001	9.159
3.997	9.0532
3.994	8.9571
3.9909	8.8764
3.9878	8.8159
3.9847	8.7772
3.9817	8.7589
3.9786	8.7587
3.9756	8.7745
3.9725	8.8042
3.9695	8.8472
3.9665	8.9035
3.9634	8.9734
3.9604	9.0569
3.9574	9.1545
3.9544	9.2647
3.9513	9.388
3.9483	9.5225
3.9453	9.6648
3.9423	9.807
3.9393	9.9383
3.9363	10.0493
3.9333	10.134
3.9304	10.1916
3.9274	10.2289
3.9244	10.2565
3.9214	10.2827
3.9185	10.3115
3.9155	10.3415
3.9126	10.3675
3.9096	10.3859
3.9067	10.3933
3.9037	10.3919
3.9008	10.3855
3.8979	10.378
3.8949	10.3727
3.892	10.3702
3.8891	10.3692
3.8862	10.368
3.8833	10.3642
3.8804	10.3564
3.8775	10.3455
3.8746	10.3325
3.8717	10.3204
3.8688	10.3115
3.8659	10.3072
3.863	10.3076
3.8601	10.3124
3.8573	10.3209
3.8544	10.3325
3.8515	10.3486
3.8487	10.3702
3.8458	10.3998
3.843	10.4399
3.8401	10.4933
3.8373	10.5622
3.8344	10.6484
3.8316	10.7513
3.8288	10.8675
3.8259	10.9946
3.8231	11.1291
3.8203	11.2697
3.8175	11.4176
3.8147	11.5767
3.8119	11.7532
3.8091	11.9519
3.8063	12.1763
3.8035	12.4285
3.8007	12.7048
3.7979	12.997
3.7951	13.2914
3.7924	13.5743
3.7896	13.8305
3.7868	14.0494
3.7841	14.2263
3.7813	14.3626
3.7785	14.464
3.7758	14.5382
3.773	14.5918
3.7703	14.631
3.7676	14.659
3.7648	14.677
3.7621	14.6871
3.7594	14.6909
3.7566	14.6909
3.7539	14.6902
3.7512	14.6927
3.7485	14.7024
3.7458	14.721
3.7431	14.7488
3.7404	14.7854
3.7377	14.8287
3.735	14.8768
3.7323	14.9273
3.7296	14.978
3.7269	15.0277
3.7242	15.0753
3.7216	15.1213
3.7189	15.167
3.7162	15.2141
3.7136	15.2637
3.7109	15.3163
3.7083	15.3706
3.7056	15.4244
3.703	15.4762
3.7003	15.5263
3.6977	15.5756
3.695	15.6252
3.6924	15.6757
3.6898	15.7273
3.6872	15.7788
3.6845	15.8266
3.6819	15.8694
3.6793	15.9068
3.6767	15.9386
3.6741	15.9652
3.6715	15.9886
3.6689	16.0099
3.6663	16.0288
3.6637	16.0441
3.6611	16.0556
3.6585	16.0625
3.656	16.064
3.6534	16.0603
3.6508	16.0522
3.6482	16.0398
3.6457	16.0235
3.6431	16.0042
3.6406	15.9828
3.638	15.9592
3.6355	15.9328
3.6329	15.9041
3.6304	15.8726
3.6278	15.8389
3.6253	15.8044
3.6227	15.7707
3.6202	15.7386
3.6177	15.7068
3.6152	15.6726
3.6127	15.6329
3.6101	15.5843
3.6076	15.5273
3.6051	15.4637
3.6026	15.3965
3.6001	15.3275
3.5976	15.2584
3.5951	15.1857
3.5926	15.1034
3.5901	15.0058
3.5876	14.8889
3.5852	14.754
3.5827	14.6059
3.5802	14.454
3.5777	14.3106
3.5753	14.1856
3.5728	14.0841
3.5704	14.0075
3.5679	13.9516
3.5654	13.9073
3.563	13.8643
3.5605	13.8133
3.5581	13.7494
3.5557	13.6699
3.5532	13.575
3.5508	13.4669
3.5484	13.3462
3.5459	13.2121
3.5435	13.062
3.5411	12.8962
3.5387	12.7156
3.5363	12.5211
3.5338	12.3158
3.5314	12.1018
3.529	11.8815
3.5266	11.6586
3.5242	11.4396
3.5218	11.2345
3.5195	11.0513
3.5171	10.896
3.5147	10.7707
3.5123	10.6721
3.5099	10.5948
3.5075	10.5321
3.5052	10.4797
3.5028	10.4349
3.5004	10.3943
3.4981	10.3551
3.4957	10.3144
3.4934	10.2701
3.491	10.2206
3.4887	10.1663
3.4863	10.1093
3.484	10.0543
3.4816	10.0077
3.4793	9.9773
3.477	9.9701
3.4746	9.9914
3.4723	10.0426
3.47	10.1189
3.4677	10.2105
3.4653	10.3058
3.463	10.3948
3.4607	10.4699
3.4584	10.5295
3.4561	10.5762
3.4538	10.6137
3.4515	10.6453
3.4492	10.6726
3.4469	10.6945
3.4446	10.7103
3.4423	10.7192
3.44	10.7223
3.4378	10.7216
3.4355	10.7183
3.4332	10.7141
3.4309	10.7091
3.4287	10.7027
3.4264	10.6931
3.4241	10.6802
3.4219	10.6642
3.4196	10.6451
3.4174	10.6233
3.4151	10.6006
3.4129	10.5773
3.4106	10.5534
3.4084	10.5285
3.4061	10.5015
3.4039	10.4708
3.4017	10.4366
3.3994	10.3993
3.3972	10.361
3.395	10.3235
3.3928	10.288
3.3906	10.256
3.3883	10.2268
3.3861	10.1991
3.3839	10.1715
3.3817	10.145
3.3795	10.1199
3.3773	10.0976
3.3751	10.0792
3.3729	10.0646
3.3707	10.0502
3.3685	10.0306
3.3663	10.001
3.3641	9.9595
3.362	9.9076
3.3598	9.8502
3.3576	9.794
3.3554	9.7476
3.3533	9.7179
3.3511	9.7136
3.3489	9.7444
3.3468	9.8203
3.3446	9.9488
3.3425	10.129
3.3403	10.3531
3.3382	10.6056
3.336	10.8663
3.3339	11.1163
3.3317	11.3401
3.3296	11.5296
3.3274	11.6817
3.3253	11.7995
3.3232	11.8875
3.321	11.9552
3.3189	12.0102
3.3168	12.0573
3.3147	12.0988
3.3126	12.1344
3.3104	12.1645
3.3083	12.1883
3.3062	12.2067
3.3041	12.2231
3.302	12.2394
3.2999	12.254
3.2978	12.265
3.2957	12.2703
3.2936	12.2679
3.2915	12.2576
3.2894	12.2404
3.2874	12.2201
3.2853	12.2002
3.2832	12.183
3.2811	12.1695
3.279	12.16
3.277	12.1533
3.2749	12.1459
3.2728	12.1356
3.2708	12.1212
3.2687	12.1028
3.2666	12.0796
3.2646	12.0518
3.2625	12.02
3.2605	11.9856
3.2584	11.9499
3.2564	11.915
3.2543	11.8815
3.2523	11.849
3.2503	11.8148
3.2482	11.7768
3.2462	11.7343
3.2442	11.6901
3.2421	11.6473
3.2401	11.6085
3.2381	11.5753
3.2361	11.5454
3.234	11.5162
3.232	11.4843
3.23	11.4487
3.228	11.4101
3.226	11.369
3.224	11.3255
3.222	11.2803
3.22	11.2336
3.218	11.1855
3.216	11.1379
3.214	11.0927
