Name: Chlorite Schist 
Type:  Rocks
Class:  Metamorphic 
Subclass: Schist 
Particle Size:  0-75 Micrometer
Sample No.:   schist7.doc
Owner:  JHU
Wavelength Range:  All
Origin:  Sample No. 395, The Hunt and Salisbury Collection at the U.S. 
Geological Survey, Denver, Co.
Description: This is a coarse-grained greenish schistose rock containing red 
garnet porphyroblasts.  Microscopically there are granulated grains of actinolite 
and tremolite with somewhat lesser amounts of chlorite.  This latter mineral is 
apparently secondary to the amphiboles and their granulation.  It often occurs as 
an alteration around the garnet crystals in addition to its association with the 
amphiboles.  
Measurement:  Directional (10 Degree) Hemispherical Reflectance
First Column:  X
Second Column:  Y  
X Units:  Wavelength (micrometers)
Y Units:  Reflectance (percent)
First X Value: 14.0112	
Last X Value:  0.4
Number of X Values: 2844
Additional Information:  schist7a.txt

14.983	1.4157
14.940	1.3463
14.897	1.3271
14.854	1.3465
14.812	1.3880
14.770	1.4394
14.728	1.4955
14.686	1.5571
14.645	1.6257
14.603	1.7013
14.562	1.7792
14.521	1.8517
14.481	1.9111
14.441	1.9509
14.400	1.9684
14.361	1.9646
14.321	1.9457
14.281	1.9194
14.242	1.8955
14.203	1.8822
14.164	1.8843
14.126	1.9038
14.087	1.9379
14.049	1.9814
14.011	2.0281
13.973	2.0717
13.936	2.1074
13.899	2.1335
13.861	2.1508
13.824	2.1626
13.788	2.1744
13.751	2.1913
13.715	2.2178
13.679	2.2564
13.643	2.3073
13.607	2.3691
13.571	2.4387
13.536	2.5131
13.500	2.5896
13.465	2.6658
13.430	2.7402
13.396	2.8115
13.361	2.8790
13.327	2.9417
13.293	2.9988
13.259	3.0502
13.225	3.0954
13.191	3.1352
13.158	3.1703
13.124	3.2025
13.091	3.2335
13.058	3.2645
13.026	3.2955
12.993	3.3263
12.960	3.3547
12.928	3.3789
12.896	3.3969
12.864	3.4087
12.832	3.4154
12.800	3.4187
12.769	3.4215
12.737	3.4267
12.706	3.4352
12.675	3.4476
12.644	3.4618
12.614	3.4760
12.583	3.4873
12.552	3.4940
12.522	3.4959
12.492	3.4935
12.462	3.4892
12.432	3.4847
12.402	3.4817
12.373	3.4810
12.343	3.4828
12.314	3.4864
12.285	3.4916
12.256	3.4975
12.227	3.5037
12.198	3.5098
12.169	3.5158
12.141	3.5219
12.113	3.5281
12.084	3.5352
12.056	3.5435
12.028	3.5537
12.000	3.5657
11.973	3.5797
11.945	3.5951
11.918	3.6107
11.890	3.6256
11.863	3.6389
11.836	3.6505
11.809	3.6598
11.782	3.6673
11.755	3.6737
11.729	3.6792
11.702	3.6841
11.676	3.6886
11.650	3.6915
11.624	3.6924
11.598	3.6912
11.572	3.6879
11.546	3.6832
11.520	3.6789
11.495	3.6768
11.469	3.6782
11.444	3.6834
11.419	3.6924
11.394	3.7040
11.369	3.7173
11.344	3.7306
11.319	3.7426
11.294	3.7531
11.270	3.7609
11.245	3.7651
11.221	3.7647
11.197	3.7587
11.173	3.7474
11.149	3.7313
11.125	3.7121
11.101	3.6927
11.077	3.6751
11.054	3.6621
11.030	3.6550
11.007	3.6541
10.983	3.6593
10.960	3.6692
10.937	3.6834
10.914	3.7014
10.891	3.7235
10.868	3.7507
10.846	3.7841
10.823	3.8248
10.800	3.8738
10.778	3.9304
10.755	3.9937
10.733	4.0612
10.711	4.1310
10.689	4.2011
10.667	4.2703
10.645	4.3378
10.623	4.4041
10.602	4.4685
10.580	4.5305
10.558	4.5888
10.537	4.6414
10.516	4.6854
10.494	4.7195
10.473	4.7422
10.452	4.7534
10.431	4.7534
10.410	4.7432
10.389	4.7242
10.368	4.6972
10.348	4.6643
10.327	4.6271
10.306	4.5888
10.286	4.5530
10.266	4.5229
10.245	4.5014
10.225	4.4898
10.205	4.4879
10.185	4.4938
10.165	4.5045
10.145	4.5170
10.125	4.5286
10.106	4.5379
10.086	4.5443
10.066	4.5485
10.047	4.5509
10.027	4.5509
10.008	4.5476
9.9887	4.5400
9.9695	4.5270
9.9504	4.5085
9.9313	4.4865
9.9123	4.4635
9.8934	4.4431
9.8746	4.4287
9.8558	4.4225
9.8371	4.4259
9.8185	4.4379
9.7999	4.4569
9.7814	4.4801
9.7630	4.5045
9.7447	4.5279
9.7264	4.5480
9.7082	4.5642
9.6900	4.5762
9.6719	4.5855
9.6539	4.5928
9.6360	4.6004
9.6181	4.6108
9.6003	4.6257
9.5825	4.6477
9.5649	4.6781
9.5472	4.7167
9.5297	4.7619
9.5122	4.8102
9.4948	4.8566
9.4774	4.8952
9.4601	4.9203
9.4429	4.9262
9.4257	4.9097
9.4086	4.8689
9.3916	4.8043
9.3746	4.7195
9.3577	4.6200
9.3408	4.5135
9.3240	4.4083
9.3073	4.3134
9.2906	4.2355
9.2740	4.1793
9.2574	4.1469
9.2409	4.1367
9.2245	4.1452
9.2081	4.1672
9.1918	4.1973
9.1755	4.2307
9.1593	4.2641
9.1431	4.2954
9.1270	4.3240
9.1110	4.3503
9.0950	4.3749
9.0791	4.3984
9.0632	4.4211
9.0474	4.4429
9.0316	4.4630
9.0159	4.4798
9.0003	4.4910
8.9847	4.4938
8.9691	4.4858
8.9536	4.4642
8.9382	4.4282
8.9228	4.3773
8.9075	4.3124
8.8922	4.2359
8.8770	4.1511
8.8618	4.0616
8.8467	3.9714
8.8316	3.8833
8.8166	3.7997
8.8016	3.7199
8.7867	3.6422
8.7718	3.5634
8.7570	3.4805
8.7422	3.3926
8.7275	3.3024
8.7129	3.2152
8.6982	3.1380
8.6837	3.0769
8.6692	3.0338
8.6547	3.0054
8.6403	2.9836
8.6259	2.9578
8.6116	2.9180
8.5973	2.8584
8.5830	2.7790
8.5688	2.6850
8.5547	2.5848
8.5406	2.4863
8.5266	2.3961
8.5126	2.3161
8.4986	2.2460
8.4847	2.1827
8.4708	2.1240
8.4570	2.0681
8.4432	2.0153
8.4295	1.9672
8.4158	1.9260
8.4022	1.8936
8.3886	1.8720
8.3750	1.8616
8.3615	1.8623
8.3481	1.8734
8.3347	1.8936
8.3213	1.9215
8.3079	1.9563
8.2946	1.9973
8.2814	2.0447
8.2682	2.0984
8.2550	2.1583
8.2419	2.2242
8.2288	2.2950
8.2158	2.3705
8.2028	2.4496
8.1898	2.5320
8.1769	2.6178
8.1640	2.7068
8.1512	2.7992
8.1384	2.8948
8.1256	2.9929
8.1129	3.0931
8.1002	3.1956
8.0876	3.3005
8.0750	3.4083
8.0624	3.5196
8.0499	3.6344
8.0374	3.7523
8.0250	3.8729
8.0126	3.9956
8.0002	4.1196
7.9879	4.2456
7.9756	4.3735
7.9634	4.5031
7.9512	4.6340
7.9390	4.7654
7.9268	4.8969
7.9147	5.0276
7.9027	5.1586
7.8906	5.2900
7.8786	5.4231
7.8667	5.5578
7.8548	5.6940
7.8429	5.8309
7.8310	5.9680
7.8192	6.1051
7.8075	6.2425
7.7957	6.3812
7.7840	6.5212
7.7723	6.6623
7.7607	6.8032
7.7491	6.9425
7.7375	7.0784
7.7260	7.2103
7.7145	7.3387
7.7031	7.4644
7.6916	7.5895
7.6802	7.7145
7.6689	7.8400
7.6575	7.9658
7.6462	8.0906
7.6350	8.2135
7.6238	8.3345
7.6126	8.4541
7.6014	8.5730
7.5903	8.6926
7.5792	8.8138
7.5681	8.9377
7.5571	9.0634
7.5461	9.1903
7.5351	9.3175
7.5242	9.4433
7.5133	9.5666
7.5024	9.6874
7.4916	9.8054
7.4807	9.9209
7.4700	10.035
7.4592	10.149
7.4485	10.262
7.4378	10.376
7.4272	10.489
7.4165	10.604
7.4059	10.719
7.3954	10.835
7.3848	10.954
7.3743	11.076
7.3639	11.200
7.3534	11.325
7.3430	11.450
7.3326	11.572
7.3222	11.691
7.3119	11.806
7.3016	11.917
7.2914	12.025
7.2811	12.131
7.2709	12.237
7.2607	12.343
7.2506	12.448
7.2404	12.552
7.2303	12.653
7.2203	12.752
7.2102	12.846
7.2002	12.936
7.1902	13.024
7.1803	13.109
7.1703	13.195
7.1604	13.282
7.1506	13.372
7.1407	13.466
7.1309	13.562
7.1211	13.660
7.1113	13.756
7.1016	13.850
7.0919	13.940
7.0822	14.026
7.0725	14.112
7.0629	14.199
7.0533	14.291
7.0437	14.389
7.0341	14.493
7.0246	14.599
7.0151	14.706
7.0056	14.809
6.9962	14.908
6.9867	15.004
6.9773	15.101
6.9679	15.200
6.9586	15.306
6.9493	15.418
6.9400	15.533
6.9307	15.646
6.9214	15.755
6.9122	15.855
6.9030	15.946
6.8938	16.030
6.8847	16.112
6.8755	16.197
6.8664	16.288
6.8573	16.385
6.8483	16.490
6.8393	16.596
6.8302	16.700
6.8213	16.799
6.8123	16.891
6.8034	16.978
6.7944	17.064
6.7855	17.151
6.7767	17.241
6.7678	17.331
6.7590	17.418
6.7502	17.498
6.7414	17.568
6.7327	17.628
6.7239	17.679
6.7152	17.723
6.7065	17.761
6.6979	17.794
6.6892	17.818
6.6806	17.831
6.6720	17.828
6.6634	17.811
6.6549	17.782
6.6464	17.745
6.6378	17.706
6.6294	17.667
6.6209	17.629
6.6124	17.587
6.6040	17.538
6.5956	17.480
6.5872	17.414
6.5789	17.346
6.5705	17.280
6.5622	17.218
6.5539	17.158
6.5456	17.095
6.5374	17.021
6.5292	16.931
6.5209	16.824
6.5128	16.708
6.5046	16.592
6.4964	16.487
6.4883	16.401
6.4802	16.334
6.4721	16.279
6.4640	16.225
6.4560	16.160
6.4480	16.078
6.4399	15.978
6.4320	15.868
6.4240	15.760
6.4160	15.665
6.4081	15.588
6.4002	15.530
6.3923	15.484
6.3844	15.444
6.3766	15.402
6.3687	15.357
6.3609	15.313
6.3531	15.275
6.3454	15.249
6.3376	15.239
6.3299	15.245
6.3221	15.264
6.3144	15.290
6.3068	15.318
6.2991	15.346
6.2914	15.371
6.2838	15.394
6.2762	15.417
6.2686	15.439
6.2611	15.463
6.2535	15.487
6.2460	15.509
6.2385	15.531
6.2310	15.548
6.2235	15.559
6.2160	15.564
6.2086	15.563
6.2011	15.557
6.1937	15.549
6.1863	15.540
6.1790	15.534
6.1716	15.531
6.1643	15.530
6.1570	15.527
6.1496	15.520
6.1424	15.509
6.1351	15.494
6.1278	15.479
6.1206	15.469
6.1134	15.466
6.1062	15.472
6.0990	15.483
6.0918	15.494
6.0847	15.500
6.0776	15.502
6.0704	15.500
6.0633	15.505
6.0563	15.522
6.0492	15.558
6.0421	15.614
6.0351	15.683
6.0281	15.756
6.0211	15.822
6.0141	15.874
6.0071	15.909
6.0002	15.927
5.9932	15.934
5.9863	15.935
5.9794	15.933
5.9725	15.931
5.9657	15.931
5.9588	15.934
5.9520	15.944
5.9451	15.962
5.9383	15.990
5.9315	16.024
5.9247	16.060
5.9180	16.092
5.9112	16.117
5.9045	16.137
5.8978	16.157
5.8911	16.186
5.8844	16.232
5.8777	16.297
5.8711	16.379
5.8644	16.468
5.8578	16.553
5.8512	16.627
5.8446	16.685
5.8380	16.730
5.8314	16.768
5.8249	16.809
5.8184	16.855
5.8118	16.909
5.8053	16.967
5.7988	17.024
5.7923	17.074
5.7859	17.119
5.7794	17.160
5.7730	17.204
5.7666	17.257
5.7602	17.322
5.7538	17.398
5.7474	17.483
5.7410	17.570
5.7347	17.656
5.7283	17.739
5.7220	17.820
5.7157	17.900
5.7094	17.981
5.7031	18.065
5.6969	18.149
5.6906	18.230
5.6844	18.305
5.6782	18.372
5.6719	18.430
5.6657	18.483
5.6596	18.536
5.6534	18.593
5.6472	18.660
5.6411	18.739
5.6349	18.829
5.6288	18.928
5.6227	19.031
5.6166	19.133
5.6106	19.231
5.6045	19.325
5.5984	19.416
5.5924	19.508
5.5864	19.605
5.5804	19.710
5.5744	19.825
5.5684	19.949
5.5624	20.081
5.5564	20.220
5.5505	20.362
5.5445	20.507
5.5386	20.653
5.5327	20.799
5.5268	20.945
5.5209	21.087
5.5151	21.227
5.5092	21.362
5.5033	21.493
5.4975	21.619
5.4917	21.743
5.4859	21.866
5.4801	21.990
5.4743	22.117
5.4685	22.247
5.4628	22.375
5.4570	22.500
5.4513	22.614
5.4455	22.714
5.4398	22.799
5.4341	22.869
5.4284	22.927
5.4228	22.975
5.4171	23.017
5.4114	23.052
5.4058	23.082
5.4002	23.105
5.3945	23.118
5.3889	23.120
5.3833	23.111
5.3778	23.090
5.3722	23.059
5.3666	23.021
5.3611	22.980
5.3555	22.940
5.3500	22.905
5.3445	22.879
5.3390	22.863
5.3335	22.856
5.3280	22.855
5.3225	22.857
5.3171	22.860
5.3116	22.861
5.3062	22.861
5.3008	22.860
5.2954	22.859
5.2900	22.859
5.2846	22.861
5.2792	22.866
5.2738	22.872
5.2684	22.879
5.2631	22.887
5.2578	22.897
5.2524	22.909
5.2471	22.923
5.2418	22.941
5.2365	22.962
5.2312	22.988
5.2260	23.019
5.2207	23.057
5.2154	23.103
5.2102	23.159
5.2050	23.225
5.1998	23.302
5.1945	23.388
5.1893	23.481
5.1842	23.579
5.1790	23.681
5.1738	23.787
5.1686	23.895
5.1635	24.007
5.1584	24.123
5.1532	24.243
5.1481	24.367
5.1430	24.492
5.1379	24.617
5.1328	24.739
5.1277	24.856
5.1227	24.966
5.1176	25.068
5.1126	25.161
5.1075	25.247
5.1025	25.325
5.0975	25.396
5.0925	25.462
5.0875	25.522
5.0825	25.579
5.0775	25.633
5.0726	25.686
5.0676	25.737
5.0627	25.787
5.0577	25.836
5.0528	25.881
5.0479	25.922
5.0430	25.959
5.0380	25.992
5.0332	26.023
5.0283	26.054
5.0234	26.086
5.0185	26.120
5.0137	26.156
5.0088	26.192
5.0040	26.225
4.9992	26.252
4.9944	26.272
4.9896	26.282
4.9848	26.282
4.9800	26.272
4.9752	26.254
4.9704	26.231
4.9657	26.205
4.9609	26.182
4.9562	26.165
4.9514	26.158
4.9467	26.166
4.9420	26.191
4.9373	26.234
4.9326	26.297
4.9279	26.379
4.9232	26.480
4.9186	26.597
4.9139	26.728
4.9092	26.868
4.9046	27.014
4.9000	27.164
4.8953	27.312
4.8907	27.459
4.8861	27.603
4.8815	27.744
4.8769	27.887
4.8723	28.034
4.8678	28.191
4.8632	28.362
4.8586	28.552
4.8541	28.762
4.8495	28.990
4.8450	29.234
4.8405	29.487
4.8360	29.743
4.8315	29.997
4.8270	30.244
4.8225	30.481
4.8180	30.708
4.8135	30.926
4.8090	31.136
4.8046	31.341
4.8001	31.544
4.7957	31.748
4.7913	31.956
4.7868	32.172
4.7824	32.399
4.7780	32.641
4.7736	32.899
4.7692	33.175
4.7648	33.467
4.7605	33.776
4.7561	34.097
4.7517	34.425
4.7474	34.757
4.7431	35.089
4.7387	35.417
4.7344	35.737
4.7301	36.048
4.7258	36.349
4.7215	36.637
4.7172	36.913
4.7129	37.178
4.7086	37.430
4.7043	37.673
4.7000	37.906
4.6958	38.130
4.6915	38.348
4.6873	38.560
4.6831	38.766
4.6788	38.965
4.6746	39.159
4.6704	39.346
4.6662	39.525
4.6620	39.695
4.6578	39.858
4.6536	40.013
4.6495	40.161
4.6453	40.306
4.6411	40.449
4.6370	40.593
4.6328	40.740
4.6287	40.895
4.6246	41.059
4.6205	41.236
4.6163	41.429
4.6122	41.639
4.6081	41.868
4.6040	42.116
4.6000	42.382
4.5959	42.664
4.5918	42.960
4.5877	43.266
4.5837	43.579
4.5796	43.896
4.5756	44.212
4.5716	44.524
4.5675	44.831
4.5635	45.132
4.5595	45.427
4.5555	45.718
4.5515	46.003
4.5475	46.284
4.5435	46.560
4.5395	46.830
4.5356	47.093
4.5316	47.349
4.5276	47.599
4.5237	47.842
4.5197	48.082
4.5158	48.319
4.5119	48.552
4.5080	48.783
4.5040	49.008
4.5001	49.227
4.4962	49.440
4.4923	49.645
4.4884	49.844
4.4846	50.037
4.4807	50.226
4.4768	50.411
4.4730	50.594
4.4691	50.775
4.4652	50.954
4.4614	51.129
4.4576	51.300
4.4537	51.467
4.4499	51.627
4.4461	51.781
4.4423	51.929
4.4385	52.071
4.4347	52.206
4.4309	52.336
4.4271	52.461
4.4233	52.581
4.4196	52.696
4.4158	52.807
4.4120	52.913
4.4083	53.016
4.4045	53.115
4.4008	53.211
4.3971	53.305
4.3934	53.397
4.3896	53.486
4.3859	53.575
4.3822	53.661
4.3785	53.745
4.3748	53.827
4.3711	53.908
4.3674	53.987
4.3638	54.065
4.3601	54.141
4.3564	54.218
4.3528	54.293
4.3491	54.368
4.3455	54.441
4.3418	54.512
4.3382	54.581
4.3346	54.648
4.3310	54.713
4.3273	54.777
4.3237	54.839
4.3201	54.900
4.3165	54.960
4.3129	55.019
4.3094	55.076
4.3058	55.133
4.3022	55.189
4.2986	55.244
4.2951	55.298
4.2915	55.350
4.2880	55.402
4.2844	55.454
4.2809	55.507
4.2774	55.562
4.2738	55.617
4.2703	55.674
4.2668	55.731
4.2633	55.786
4.2598	55.839
4.2563	55.890
4.2528	55.939
4.2493	55.987
4.2458	56.034
4.2424	56.083
4.2389	56.133
4.2354	56.185
4.2320	56.238
4.2285	56.290
4.2251	56.342
4.2216	56.393
4.2182	56.441
4.2148	56.489
4.2113	56.537
4.2079	56.586
4.2045	56.636
4.2011	56.688
4.1977	56.739
4.1943	56.790
4.1909	56.838
4.1875	56.884
4.1841	56.928
4.1808	56.970
4.1774	57.012
4.1740	57.054
4.1707	57.098
4.1673	57.143
4.1640	57.189
4.1606	57.236
4.1573	57.282
4.1540	57.328
4.1506	57.372
4.1473	57.415
4.1440	57.456
4.1407	57.494
4.1374	57.530
4.1341	57.564
4.1308	57.598
4.1275	57.631
4.1242	57.664
4.1209	57.698
4.1177	57.732
4.1144	57.765
4.1111	57.797
4.1079	57.829
4.1046	57.860
4.1014	57.891
4.0981	57.922
4.0949	57.953
4.0917	57.982
4.0884	58.009
4.0852	58.033
4.0820	58.052
4.0788	58.069
4.0756	58.083
4.0724	58.096
4.0692	58.109
4.0660	58.122
4.0628	58.135
4.0596	58.149
4.0565	58.161
4.0533	58.174
4.0501	58.185
4.0470	58.194
4.0438	58.200
4.0406	58.201
4.0375	58.198
4.0344	58.190
4.0312	58.177
4.0281	58.160
4.0250	58.143
4.0218	58.127
4.0187	58.115
4.0156	58.108
4.0125	58.107
4.0094	58.111
4.0063	58.121
4.0032	58.135
4.0001	58.151
3.9970	58.169
3.9940	58.188
3.9909	58.207
3.9878	58.225
3.9847	58.243
3.9817	58.259
3.9786	58.273
3.9756	58.288
3.9725	58.304
3.9695	58.320
3.9665	58.338
3.9634	58.357
3.9604	58.374
3.9574	58.389
3.9544	58.402
3.9513	58.411
3.9483	58.418
3.9453	58.423
3.9423	58.427
3.9393	58.430
3.9363	58.431
3.9333	58.429
3.9304	58.425
3.9274	58.418
3.9244	58.410
3.9214	58.401
3.9185	58.394
3.9155	58.388
3.9126	58.384
3.9096	58.379
3.9067	58.374
3.9037	58.368
3.9008	58.361
3.8979	58.351
3.8949	58.339
3.8920	58.324
3.8891	58.306
3.8862	58.286
3.8833	58.265
3.8804	58.243
3.8775	58.222
3.8746	58.202
3.8717	58.183
3.8688	58.163
3.8659	58.140
3.8630	58.115
3.8601	58.085
3.8573	58.053
3.8544	58.019
3.8515	57.984
3.8487	57.950
3.8458	57.919
3.8430	57.891
3.8401	57.865
3.8373	57.841
3.8344	57.817
3.8316	57.793
3.8288	57.769
3.8259	57.743
3.8231	57.717
3.8203	57.689
3.8175	57.659
3.8147	57.626
3.8119	57.591
3.8091	57.554
3.8063	57.516
3.8035	57.478
3.8007	57.441
3.7979	57.406
3.7951	57.372
3.7924	57.340
3.7896	57.307
3.7868	57.273
3.7841	57.236
3.7813	57.196
3.7785	57.153
3.7758	57.107
3.7730	57.059
3.7703	57.012
3.7676	56.965
3.7648	56.920
3.7621	56.876
3.7594	56.833
3.7566	56.791
3.7539	56.746
3.7512	56.700
3.7485	56.650
3.7458	56.597
3.7431	56.541
3.7404	56.481
3.7377	56.421
3.7350	56.360
3.7323	56.300
3.7296	56.242
3.7269	56.186
3.7242	56.133
3.7216	56.082
3.7189	56.032
3.7162	55.983
3.7136	55.934
3.7109	55.885
3.7083	55.834
3.7056	55.782
3.7030	55.728
3.7003	55.673
3.6977	55.618
3.6950	55.563
3.6924	55.510
3.6898	55.460
3.6872	55.413
3.6845	55.368
3.6819	55.324
3.6793	55.279
3.6767	55.231
3.6741	55.180
3.6715	55.123
3.6689	55.062
3.6663	54.996
3.6637	54.927
3.6611	54.857
3.6585	54.786
3.6560	54.717
3.6534	54.648
3.6508	54.581
3.6482	54.512
3.6457	54.442
3.6431	54.369
3.6406	54.293
3.6380	54.213
3.6355	54.130
3.6329	54.046
3.6304	53.960
3.6278	53.875
3.6253	53.790
3.6227	53.708
3.6202	53.628
3.6177	53.551
3.6152	53.475
3.6127	53.400
3.6101	53.325
3.6076	53.247
3.6051	53.167
3.6026	53.083
3.6001	52.995
3.5976	52.903
3.5951	52.805
3.5926	52.702
3.5901	52.593
3.5876	52.480
3.5852	52.363
3.5827	52.243
3.5802	52.121
3.5777	51.999
3.5753	51.877
3.5728	51.756
3.5704	51.638
3.5679	51.524
3.5654	51.416
3.5630	51.316
3.5605	51.223
3.5581	51.137
3.5557	51.056
3.5532	50.975
3.5508	50.892
3.5484	50.805
3.5459	50.712
3.5435	50.614
3.5411	50.513
3.5387	50.409
3.5363	50.302
3.5338	50.191
3.5314	50.075
3.5290	49.955
3.5266	49.831
3.5242	49.707
3.5218	49.584
3.5195	49.465
3.5171	49.348
3.5147	49.231
3.5123	49.111
3.5099	48.988
3.5075	48.862
3.5052	48.736
3.5028	48.616
3.5004	48.507
3.4981	48.414
3.4957	48.337
3.4934	48.276
3.4910	48.225
3.4887	48.180
3.4863	48.136
3.4840	48.088
3.4816	48.033
3.4793	47.971
3.4770	47.901
3.4746	47.822
3.4723	47.737
3.4700	47.645
3.4677	47.549
3.4653	47.450
3.4630	47.349
3.4607	47.247
3.4584	47.145
3.4561	47.041
3.4538	46.935
3.4515	46.826
3.4492	46.715
3.4469	46.606
3.4446	46.499
3.4423	46.398
3.4400	46.305
3.4378	46.217
3.4355	46.133
3.4332	46.047
3.4309	45.956
3.4287	45.856
3.4264	45.745
3.4241	45.625
3.4219	45.498
3.4196	45.369
3.4174	45.243
3.4151	45.124
3.4129	45.015
3.4106	44.919
3.4084	44.835
3.4061	44.759
3.4039	44.686
3.4017	44.611
3.3994	44.529
3.3972	44.435
3.3950	44.327
3.3928	44.207
3.3906	44.079
3.3883	43.946
3.3861	43.812
3.3839	43.682
3.3817	43.556
3.3795	43.434
3.3773	43.315
3.3751	43.198
3.3729	43.081
3.3707	42.964
3.3685	42.849
3.3663	42.736
3.3641	42.626
3.3620	42.520
3.3598	42.418
3.3576	42.317
3.3554	42.215
3.3533	42.110
3.3511	42.000
3.3489	41.885
3.3468	41.765
3.3446	41.641
3.3425	41.517
3.3403	41.392
3.3382	41.266
3.3360	41.139
3.3339	41.008
3.3317	40.873
3.3296	40.732
3.3274	40.586
3.3253	40.438
3.3232	40.287
3.3210	40.136
3.3189	39.984
3.3168	39.832
3.3147	39.679
3.3126	39.523
3.3104	39.364
3.3083	39.202
3.3062	39.037
3.3041	38.869
3.3020	38.699
3.2999	38.527
3.2978	38.357
3.2957	38.188
3.2936	38.023
3.2915	37.861
3.2894	37.701
3.2874	37.543
3.2853	37.386
3.2832	37.228
3.2811	37.069
3.2790	36.911
3.2770	36.756
3.2749	36.602
3.2728	36.450
3.2708	36.299
3.2687	36.147
3.2666	35.993
3.2646	35.837
3.2625	35.678
3.2605	35.518
3.2584	35.357
3.2564	35.197
3.2543	35.037
3.2523	34.877
3.2503	34.715
3.2482	34.551
3.2462	34.386
3.2442	34.218
3.2421	34.048
3.2401	33.874
3.2381	33.697
3.2361	33.513
3.2340	33.323
3.2320	33.125
3.2300	32.921
3.2280	32.713
3.2260	32.503
3.2240	32.295
3.2220	32.088
3.2200	31.883
3.2180	31.678
3.2160	31.471
