Name: Gray Quartzite
Type:  Rocks
Class:  Metamorphic 
Subclass: Quartzite
Particle Size:  0-75 Micrometer
Sample No.:   qrtzit5.doc
Owner:  JHU
Wavelength Range:  All
Origin:  Sample No. 382, The Hunt and Salisbury Collection at the U.S. 
Geological Survey, Denver, Co.
Description: This is a sample much like the previous one in composition.  It is a 
fine-grained slightly metamorphosed well-compacted sandstone with some 
secondary quartz deposition, and much more silica/chalcedony deposition.  The 
quartz grains, unlike the previous rock, show evidence of only weak strain and 
fewer fluid inclusions.  In addition there are scattered detrital green and brown 
tourmaline and zircon.   
Measurement:  Directional (10 Degree) Hemispherical Reflectance
First Column:  X
Second Column:  Y  
X Units:  Wavelength (micrometers)
Y Units:  Reflectance (percent)
First X Value: 14.9831
Last X Value:  0.4
Number of X Values: 2868
Additional Information:  qrtzit5a.txt

14.983	8.5301
14.940	8.1711
14.897	7.9061
14.854	7.7311
14.812	7.5947
14.770	7.4332
14.728	7.1909
14.686	6.8250
14.645	6.3348
14.603	5.7456
14.562	5.0906
14.521	4.4007
14.481	3.7145
14.441	3.0966
14.400	2.6256
14.361	2.3689
14.321	2.3708
14.281	2.6414
14.242	3.1525
14.203	3.8338
14.164	4.5949
14.126	5.3554
14.087	6.0530
14.049	6.6491
14.011	7.1322
13.973	7.5142
13.936	7.8154
13.899	8.0536
13.861	8.2443
13.824	8.4018
13.788	8.5294
13.751	8.6218
13.715	8.6743
13.679	8.6862
13.643	8.6585
13.607	8.5993
13.571	8.5225
13.536	8.4422
13.500	8.3622
13.465	8.2765
13.430	8.1746
13.396	8.0444
13.361	7.8737
13.327	7.6555
13.293	7.3901
13.259	7.0817
13.225	6.7376
13.191	6.3663
13.158	5.9803
13.124	5.5941
13.091	5.2246
13.058	4.8945
13.026	4.6271
12.993	4.4448
12.960	4.3595
12.928	4.3655
12.896	4.4348
12.864	4.5196
12.832	4.5637
12.800	4.5208
12.769	4.3733
12.737	4.1400
12.706	3.8736
12.675	3.6403
12.644	3.4982
12.614	3.4717
12.583	3.5413
12.552	3.6484
12.522	3.7145
12.492	3.6647
12.462	3.4544
12.432	3.0848
12.402	2.6052
12.373	2.0970
12.343	1.6518
12.314	1.3451
12.285	1.2215
12.256	1.2873
12.227	1.5185
12.198	1.8737
12.169	2.3104
12.141	2.7937
12.113	3.2984
12.084	3.8078
12.056	4.3119
12.028	4.8043
12.000	5.2791
11.973	5.7319
11.945	6.1608
11.918	6.5645
11.890	6.9444
11.863	7.3020
11.836	7.6394
11.809	7.9580
11.782	8.2578
11.755	8.5384
11.729	8.7984
11.702	9.0338
11.676	9.2417
11.650	9.4210
11.624	9.5721
11.598	9.6981
11.572	9.8056
11.546	9.9051
11.520	10.005
11.495	10.113
11.469	10.230
11.444	10.357
11.419	10.486
11.394	10.609
11.369	10.715
11.344	10.800
11.319	10.859
11.294	10.893
11.270	10.906
11.245	10.908
11.221	10.906
11.197	10.908
11.173	10.919
11.149	10.942
11.125	10.974
11.101	11.014
11.077	11.057
11.054	11.099
11.030	11.137
11.007	11.168
10.983	11.187
10.960	11.192
10.937	11.181
10.914	11.154
10.891	11.111
10.868	11.054
10.846	10.985
10.823	10.907
10.800	10.822
10.778	10.733
10.755	10.642
10.733	10.547
10.711	10.444
10.689	10.330
10.667	10.200
10.645	10.059
10.623	9.9138
10.602	9.7803
10.580	9.6694
10.558	9.5868
10.537	9.5278
10.516	9.4807
10.494	9.4312
10.473	9.3680
10.452	9.2886
10.431	9.1977
10.410	9.1015
10.389	9.0071
10.368	8.9178
10.348	8.8339
10.327	8.7529
10.306	8.6708
10.286	8.5853
10.266	8.4943
10.245	8.3956
10.225	8.2881
10.205	8.1728
10.185	8.0498
10.165	7.9201
10.145	7.7846
10.125	7.6461
10.106	7.5085
10.086	7.3768
10.066	7.2563
10.047	7.1535
10.027	7.0735
10.008	7.0187
9.9887	6.9891
9.9695	6.9816
9.9504	6.9908
9.9313	7.0081
9.9123	7.0225
9.8934	7.0237
9.8746	7.0048
9.8558	6.9640
9.8371	6.9039
9.8185	6.8317
9.7999	6.7566
9.7814	6.6855
9.7630	6.6221
9.7447	6.5655
9.7264	6.5141
9.7082	6.4655
9.6900	6.4194
9.6719	6.3777
9.6539	6.3455
9.6360	6.3303
9.6181	6.3412
9.6003	6.3857
9.5825	6.4677
9.5649	6.5870
9.5472	6.7384
9.5297	6.9179
9.5122	7.1270
9.4948	7.3787
9.4774	7.6994
9.4601	8.1223
9.4429	8.6781
9.4257	9.3817
9.4086	10.219
9.3916	11.148
9.3746	12.097
9.3577	12.990
9.3408	13.754
9.3240	14.343
9.3073	14.743
9.2906	14.968
9.2740	15.057
9.2574	15.053
9.2409	14.998
9.2245	14.922
9.2081	14.845
9.1918	14.774
9.1755	14.711
9.1593	14.656
9.1431	14.607
9.1270	14.562
9.1110	14.521
9.0950	14.484
9.0791	14.448
9.0632	14.412
9.0474	14.374
9.0316	14.335
9.0159	14.292
9.0003	14.245
8.9847	14.194
8.9691	14.140
8.9536	14.080
8.9382	14.014
8.9228	13.942
8.9075	13.863
8.8922	13.778
8.8770	13.685
8.8618	13.585
8.8467	13.473
8.8316	13.348
8.8166	13.209
8.8016	13.056
8.7867	12.897
8.7718	12.740
8.7570	12.586
8.7422	12.417
8.7275	12.197
8.7129	11.877
8.6982	11.415
8.6837	10.814
8.6692	10.138
8.6547	9.5105
8.6403	9.0783
8.6259	8.9559
8.6116	9.1821
8.5973	9.7021
8.5830	10.389
8.5688	11.089
8.5547	11.681
8.5406	12.102
8.5266	12.350
8.5126	12.463
8.4986	12.491
8.4847	12.475
8.4708	12.441
8.4570	12.400
8.4432	12.358
8.4295	12.321
8.4158	12.292
8.4022	12.277
8.3886	12.279
8.3750	12.302
8.3615	12.345
8.3481	12.412
8.3347	12.505
8.3213	12.630
8.3079	12.789
8.2946	12.987
8.2814	13.224
8.2682	13.498
8.2550	13.802
8.2419	14.122
8.2288	14.440
8.2158	14.731
8.2028	14.962
8.1898	15.099
8.1769	15.110
8.1640	14.973
8.1512	14.682
8.1384	14.252
8.1256	13.711
8.1129	13.100
8.1002	12.460
8.0876	11.826
8.0750	11.221
8.0624	10.657
8.0499	10.140
8.0374	9.6654
8.0250	9.2244
8.0126	8.8058
8.0002	8.3965
7.9879	7.9838
7.9756	7.5589
7.9634	7.1201
7.9512	6.6723
7.9390	6.2242
7.9268	5.7864
7.9147	5.3686
7.9027	4.9776
7.8906	4.6170
7.8786	4.2871
7.8667	3.9887
7.8548	3.7213
7.8429	3.4845
7.8310	3.2778
7.8192	3.0992
7.8075	2.9467
7.7957	2.8162
7.7840	2.7030
7.7723	2.6024
7.7607	2.5076
7.7491	2.4134
7.7375	2.3153
7.7260	2.2104
7.7145	2.0980
7.7031	1.9788
7.6916	1.8559
7.6802	1.7323
7.6689	1.6099
7.6575	1.4919
7.6462	1.3811
7.6350	1.2798
7.6238	1.1900
7.6126	1.1116
7.6014	1.0436
7.5903	0.98350
7.5792	0.92830
7.5681	0.87460
7.5571	0.82130
7.5461	0.76890
7.5351	0.71990
7.5242	0.67590
7.5133	0.63750
7.5024	0.60580
7.4916	0.57900
7.4807	0.55560
7.4700	0.53450
7.4592	0.51720
7.4485	0.50580
7.4378	0.50040
7.4272	0.50060
7.4165	0.50490
7.4059	0.51080
7.3954	0.51600
7.3848	0.52000
7.3743	0.52450
7.3639	0.53090
7.3534	0.53990
7.3430	0.55060
7.3326	0.56270
7.3223	0.57640
7.3119	0.59270
7.3016	0.61260
7.2914	0.63730
7.2811	0.66730
7.2709	0.70310
7.2607	0.74240
7.2506	0.78410
7.2404	0.82740
7.2303	0.87240
7.2203	0.91880
7.2102	0.96670
7.2002	1.0169
7.1902	1.0706
7.1803	1.1270
7.1703	1.1862
7.1604	1.2494
7.1506	1.3169
7.1407	1.3885
7.1309	1.4640
7.1211	1.5429
7.1113	1.6236
7.1016	1.7032
7.0919	1.7787
7.0822	1.8495
7.0725	1.9154
7.0629	1.9791
7.0533	2.0442
7.0437	2.1148
7.0341	2.1936
7.0246	2.2798
7.0151	2.3717
7.0056	2.4671
6.9962	2.5640
6.9867	2.6618
6.9773	2.7613
6.9679	2.8633
6.9586	2.9675
6.9493	3.0732
6.9400	3.1783
6.9307	3.2804
6.9214	3.3751
6.9122	3.4585
6.9030	3.5262
6.8938	3.5750
6.8847	3.6050
6.8755	3.6209
6.8664	3.6297
6.8573	3.6382
6.8483	3.6519
6.8393	3.6718
6.8302	3.6953
6.8213	3.7159
6.8123	3.7284
6.8034	3.7298
6.7944	3.7175
6.7855	3.6912
6.7767	3.6519
6.7678	3.6032
6.7590	3.5484
6.7502	3.4921
6.7414	3.4405
6.7327	3.3997
6.7239	3.3760
6.7152	3.3760
6.7065	3.4045
6.6979	3.4641
6.6892	3.5539
6.6806	3.6666
6.6720	3.7902
6.6634	3.9098
6.6549	4.0138
6.6464	4.0936
6.6378	4.1464
6.6294	4.1744
6.6209	4.1819
6.6124	4.1722
6.6040	4.1455
6.5956	4.1021
6.5872	4.0455
6.5789	3.9837
6.5705	3.9314
6.5622	3.9103
6.5539	3.9439
6.5456	4.0533
6.5374	4.2513
6.5292	4.5407
6.5209	4.9127
6.5128	5.3501
6.5046	5.8314
6.4964	6.3339
6.4883	6.8383
6.4802	7.3257
6.4721	7.7796
6.4640	8.1839
6.4560	8.5232
6.4480	8.7871
6.4399	8.9692
6.4320	9.0696
6.4240	9.0956
6.4160	9.0539
6.4081	8.9493
6.4002	8.7854
6.3923	8.5654
6.3844	8.2968
6.3766	7.9909
6.3687	7.6629
6.3609	7.3306
6.3531	7.0064
6.3454	6.6945
6.3376	6.3921
6.3299	6.0945
6.3221	5.7984
6.3144	5.5034
6.3068	5.2118
6.2991	4.9291
6.2914	4.6591
6.2838	4.4036
6.2762	4.1646
6.2686	3.9444
6.2611	3.7462
6.2535	3.5738
6.2460	3.4291
6.2385	3.3102
6.2310	3.2150
6.2235	3.1416
6.2160	3.0909
6.2086	3.0668
6.2011	3.0769
6.1937	3.1317
6.1863	3.2389
6.1790	3.4042
6.1716	3.6294
6.1643	3.9110
6.1570	4.2395
6.1496	4.6013
6.1424	4.9814
6.1351	5.3651
6.1278	5.7409
6.1206	6.1044
6.1134	6.4539
6.1062	6.7881
6.0990	7.1009
6.0918	7.3830
6.0847	7.6236
6.0776	7.8144
6.0704	7.9542
6.0633	8.0534
6.0563	8.1278
6.0492	8.1915
6.0421	8.2504
6.0351	8.3006
6.0281	8.3307
6.0211	8.3238
6.0141	8.2656
6.0071	8.1517
6.0002	7.9859
5.9932	7.7777
5.9863	7.5402
5.9794	7.2897
5.9725	7.0420
5.9657	6.8130
5.9588	6.6178
5.9520	6.4743
5.9451	6.3990
5.9383	6.4047
5.9315	6.4980
5.9247	6.6782
5.9180	6.9378
5.9112	7.2641
5.9045	7.6420
5.8978	8.0603
5.8911	8.5109
5.8844	8.9874
5.8777	9.4833
5.8711	9.9905
5.8644	10.498
5.8578	10.996
5.8512	11.474
5.8446	11.931
5.8380	12.371
5.8314	12.805
5.8249	13.244
5.8184	13.693
5.8118	14.148
5.8053	14.599
5.7988	15.033
5.7923	15.439
5.7859	15.815
5.7794	16.168
5.7730	16.511
5.7666	16.852
5.7602	17.194
5.7538	17.534
5.7474	17.863
5.7410	18.165
5.7347	18.428
5.7283	18.640
5.7220	18.794
5.7157	18.877
5.7094	18.875
5.7031	18.774
5.6969	18.555
5.6906	18.205
5.6844	17.716
5.6782	17.090
5.6719	16.339
5.6657	15.489
5.6596	14.577
5.6534	13.648
5.6472	12.748
5.6411	11.919
5.6349	11.191
5.6288	10.580
5.6227	10.084
5.6166	9.6919
5.6106	9.3860
5.6045	9.1477
5.5984	8.9630
5.5924	8.8238
5.5864	8.7293
5.5804	8.6817
5.5744	8.6840
5.5684	8.7390
5.5624	8.8463
5.5564	9.0023
5.5505	9.2029
5.5445	9.4437
5.5386	9.7232
5.5327	10.040
5.5268	10.392
5.5209	10.776
5.5151	11.185
5.5092	11.612
5.5033	12.045
5.4975	12.474
5.4917	12.892
5.4859	13.292
5.4801	13.667
5.4743	14.005
5.4685	14.292
5.4628	14.506
5.4570	14.621
5.4513	14.612
5.4455	14.459
5.4398	14.149
5.4341	13.684
5.4284	13.078
5.4228	12.354
5.4171	11.540
5.4114	10.671
5.4058	9.7800
5.4002	8.8993
5.3945	8.0610
5.3889	7.2949
5.3833	6.6249
5.3778	6.0651
5.3722	5.6206
5.3666	5.2869
5.3611	5.0522
5.3555	4.9000
5.3500	4.8147
5.3445	4.7820
5.3390	4.7889
5.3335	4.8230
5.3280	4.8746
5.3225	4.9378
5.3171	5.0091
5.3116	5.0894
5.3062	5.1844
5.3008	5.3023
5.2954	5.4515
5.2900	5.6379
5.2846	5.8664
5.2792	6.1409
5.2738	6.4632
5.2684	6.8366
5.2631	7.2669
5.2578	7.7619
5.2524	8.3288
5.2471	8.9708
5.2418	9.6843
5.2365	10.456
5.2312	11.258
5.2260	12.056
5.2207	12.810
5.2154	13.481
5.2102	14.038
5.2050	14.459
5.1998	14.743
5.1945	14.900
5.1893	14.955
5.1842	14.935
5.1790	14.869
5.1738	14.780
5.1686	14.681
5.1635	14.575
5.1584	14.466
5.1532	14.353
5.1481	14.242
5.1430	14.142
5.1379	14.063
5.1328	14.011
5.1277	13.983
5.1227	13.967
5.1176	13.942
5.1126	13.884
5.1075	13.774
5.1025	13.599
5.0975	13.364
5.0925	13.082
5.0875	12.778
5.0825	12.480
5.0775	12.213
5.0726	11.993
5.0676	11.828
5.0627	11.714
5.0577	11.640
5.0528	11.595
5.0479	11.564
5.0430	11.535
5.0380	11.502
5.0332	11.462
5.0283	11.420
5.0234	11.382
5.0185	11.360
5.0137	11.365
5.0088	11.405
5.0040	11.489
4.9992	11.625
4.9944	11.825
4.9896	12.108
4.9848	12.488
4.9800	12.978
4.9752	13.573
4.9704	14.253
4.9657	14.979
4.9609	15.702
4.9562	16.374
4.9514	16.964
4.9467	17.463
4.9420	17.888
4.9373	18.281
4.9326	18.702
4.9279	19.219
4.9232	19.894
4.9186	20.776
4.9139	21.889
4.9092	23.230
4.9046	24.766
4.9000	26.438
4.8953	28.178
4.8907	29.913
4.8861	31.581
4.8815	33.139
4.8769	34.563
4.8723	35.849
4.8678	37.003
4.8632	38.040
4.8586	38.976
4.8541	39.828
4.8495	40.608
4.8450	41.326
4.8405	41.991
4.8360	42.608
4.8315	43.183
4.8270	43.720
4.8225	44.226
4.8180	44.705
4.8135	45.161
4.8090	45.599
4.8046	46.021
4.8001	46.428
4.7957	46.819
4.7913	47.193
4.7868	47.548
4.7824	47.883
4.7780	48.198
4.7736	48.493
4.7692	48.771
4.7648	49.030
4.7605	49.273
4.7561	49.496
4.7517	49.698
4.7474	49.877
4.7431	50.032
4.7387	50.161
4.7344	50.264
4.7301	50.335
4.7258	50.363
4.7215	50.331
4.7172	50.216
4.7129	49.994
4.7086	49.650
4.7043	49.189
4.7000	48.640
4.6958	48.066
4.6915	47.546
4.6873	47.166
4.6831	46.994
4.6788	47.062
4.6746	47.360
4.6704	47.840
4.6662	48.437
4.6620	49.083
4.6578	49.730
4.6536	50.348
4.6495	50.931
4.6453	51.482
4.6411	52.005
4.6370	52.501
4.6328	52.964
4.6287	53.387
4.6246	53.763
4.6205	54.087
4.6163	54.361
4.6122	54.589
4.6081	54.778
4.6040	54.935
4.6000	55.065
4.5959	55.174
4.5918	55.263
4.5877	55.332
4.5837	55.376
4.5796	55.393
4.5756	55.377
4.5716	55.323
4.5675	55.226
4.5635	55.083
4.5595	54.889
4.5555	54.638
4.5515	54.330
4.5475	53.962
4.5435	53.538
4.5395	53.060
4.5356	52.530
4.5316	51.946
4.5276	51.306
4.5237	50.605
4.5197	49.847
4.5158	49.044
4.5119	48.221
4.5080	47.415
4.5040	46.664
4.5001	46.002
4.4962	45.446
4.4923	44.996
4.4884	44.636
4.4846	44.341
4.4807	44.096
4.4768	43.899
4.4730	43.765
4.4691	43.721
4.4652	43.786
4.4614	43.968
4.4576	44.248
4.4537	44.591
4.4499	44.954
4.4461	45.302
4.4423	45.621
4.4385	45.911
4.4347	46.188
4.4309	46.468
4.4271	46.765
4.4233	47.083
4.4196	47.421
4.4158	47.775
4.4120	48.143
4.4083	48.525
4.4045	48.924
4.4008	49.342
4.3971	49.783
4.3934	50.244
4.3896	50.721
4.3859	51.209
4.3822	51.701
4.3785	52.190
4.3748	52.670
4.3711	53.137
4.3674	53.587
4.3638	54.015
4.3601	54.418
4.3564	54.791
4.3528	55.134
4.3491	55.442
4.3455	55.717
4.3418	55.959
4.3382	56.169
4.3346	56.346
4.3310	56.490
4.3273	56.597
4.3237	56.667
4.3201	56.699
4.3165	56.699
4.3129	56.673
4.3094	56.634
4.3058	56.590
4.3022	56.551
4.2986	56.524
4.2951	56.516
4.2915	56.532
4.2880	56.578
4.2844	56.657
4.2809	56.773
4.2774	56.923
4.2738	57.102
4.2703	57.297
4.2668	57.495
4.2633	57.682
4.2598	57.842
4.2563	57.967
4.2528	58.054
4.2493	58.104
4.2458	58.124
4.2424	58.125
4.2389	58.123
4.2354	58.127
4.2320	58.146
4.2285	58.183
4.2251	58.235
4.2216	58.293
4.2182	58.349
4.2148	58.394
4.2113	58.427
4.2079	58.450
4.2045	58.471
4.2011	58.498
4.1977	58.540
4.1943	58.605
4.1909	58.697
4.1875	58.814
4.1841	58.954
4.1808	59.110
4.1774	59.273
4.1740	59.435
4.1707	59.591
4.1673	59.736
4.1640	59.871
4.1606	60.000
4.1573	60.125
4.1540	60.248
4.1506	60.373
4.1473	60.499
4.1440	60.628
4.1407	60.759
4.1374	60.893
4.1341	61.030
4.1308	61.170
4.1275	61.313
4.1242	61.461
4.1209	61.613
4.1177	61.769
4.1144	61.929
4.1111	62.089
4.1079	62.246
4.1046	62.399
4.1014	62.546
4.0981	62.688
4.0949	62.825
4.0917	62.959
4.0884	63.090
4.0852	63.217
4.0820	63.338
4.0788	63.449
4.0756	63.547
4.0724	63.630
4.0692	63.696
4.0660	63.745
4.0628	63.782
4.0596	63.807
4.0565	63.824
4.0533	63.833
4.0501	63.835
4.0470	63.828
4.0438	63.810
4.0406	63.784
4.0375	63.751
4.0344	63.714
4.0312	63.676
4.0281	63.639
4.0250	63.600
4.0218	63.561
4.0187	63.519
4.0156	63.479
4.0125	63.443
4.0094	63.412
4.0063	63.388
4.0032	63.372
4.0001	63.363
3.9970	63.358
3.9940	63.359
3.9909	63.368
3.9878	63.389
3.9847	63.422
3.9817	63.468
3.9786	63.525
3.9756	63.589
3.9725	63.657
3.9695	63.730
3.9665	63.810
3.9634	63.898
3.9604	63.995
3.9574	64.098
3.9544	64.203
3.9513	64.306
3.9483	64.402
3.9453	64.491
3.9423	64.572
3.9393	64.643
3.9363	64.703
3.9333	64.751
3.9304	64.785
3.9274	64.804
3.9244	64.810
3.9214	64.803
3.9185	64.788
3.9155	64.766
3.9126	64.737
3.9096	64.704
3.9067	64.665
3.9037	64.620
3.9008	64.566
3.8979	64.502
3.8949	64.426
3.8920	64.340
3.8891	64.249
3.8862	64.157
3.8833	64.068
3.8804	63.983
3.8775	63.902
3.8746	63.824
3.8717	63.748
3.8688	63.672
3.8659	63.600
3.8630	63.533
3.8601	63.472
3.8573	63.421
3.8544	63.379
3.8515	63.346
3.8487	63.320
3.8458	63.298
3.8430	63.280
3.8401	63.264
3.8373	63.249
3.8344	63.239
3.8316	63.236
3.8288	63.236
3.8259	63.240
3.8231	63.244
3.8203	63.246
3.8175	63.242
3.8147	63.233
3.8119	63.219
3.8091	63.199
3.8063	63.172
3.8035	63.138
3.8007	63.095
3.7979	63.044
3.7951	62.986
3.7924	62.921
3.7896	62.848
3.7868	62.769
3.7841	62.682
3.7813	62.589
3.7785	62.488
3.7758	62.382
3.7730	62.272
3.7703	62.160
3.7676	62.049
3.7648	61.941
3.7621	61.839
3.7594	61.742
3.7566	61.651
3.7539	61.562
3.7512	61.476
3.7485	61.396
3.7458	61.322
3.7431	61.259
3.7404	61.207
3.7377	61.165
3.7350	61.130
3.7323	61.098
3.7296	61.069
3.7269	61.044
3.7242	61.027
3.7216	61.021
3.7189	61.026
3.7162	61.038
3.7136	61.054
3.7109	61.070
3.7083	61.083
3.7056	61.093
3.7030	61.101
3.7003	61.111
3.6977	61.123
3.6950	61.139
3.6924	61.155
3.6898	61.172
3.6872	61.186
3.6845	61.194
3.6819	61.193
3.6793	61.183
3.6767	61.163
3.6741	61.134
3.6715	61.100
3.6689	61.064
3.6663	61.028
3.6637	60.991
3.6611	60.953
3.6585	60.909
3.6560	60.858
3.6534	60.797
3.6508	60.726
3.6482	60.650
3.6457	60.569
3.6431	60.487
3.6406	60.404
3.6380	60.321
3.6355	60.236
3.6329	60.148
3.6304	60.058
3.6278	59.967
3.6253	59.875
3.6227	59.783
3.6202	59.690
3.6177	59.595
3.6152	59.497
3.6127	59.396
3.6101	59.296
3.6076	59.196
3.6051	59.099
3.6026	59.004
3.6001	58.911
3.5976	58.818
3.5951	58.722
3.5926	58.627
3.5901	58.530
3.5876	58.433
3.5852	58.333
3.5827	58.229
3.5802	58.119
3.5777	58.002
3.5753	57.881
3.5728	57.760
3.5704	57.642
3.5679	57.528
3.5654	57.416
3.5630	57.302
3.5605	57.179
3.5581	57.045
3.5557	56.903
3.5532	56.757
3.5508	56.610
3.5484	56.465
3.5459	56.319
3.5435	56.173
3.5411	56.021
3.5387	55.864
3.5363	55.704
3.5338	55.542
3.5314	55.378
3.5290	55.216
3.5266	55.055
3.5242	54.896
3.5218	54.735
3.5195	54.572
3.5171	54.403
3.5147	54.227
3.5123	54.044
3.5099	53.863
3.5075	53.692
3.5052	53.540
3.5028	53.417
3.5004	53.328
3.4981	53.271
3.4957	53.238
3.4934	53.217
3.4910	53.199
3.4887	53.173
3.4863	53.132
3.4840	53.075
3.4816	53.001
3.4793	52.914
3.4770	52.815
3.4746	52.710
3.4723	52.602
3.4700	52.496
3.4677	52.392
3.4653	52.289
3.4630	52.184
3.4607	52.075
3.4584	51.961
3.4561	51.843
3.4538	51.726
3.4515	51.613
3.4492	51.505
3.4469	51.403
3.4446	51.305
3.4423	51.210
3.4400	51.111
3.4378	51.006
3.4355	50.889
3.4332	50.756
3.4309	50.603
3.4287	50.430
3.4264	50.239
3.4241	50.041
3.4219	49.844
3.4196	49.663
3.4174	49.509
3.4151	49.392
3.4129	49.311
3.4106	49.261
3.4084	49.235
3.4061	49.223
3.4039	49.215
3.4017	49.203
3.3994	49.180
3.3972	49.140
3.3950	49.076
3.3928	48.986
3.3906	48.871
3.3883	48.739
3.3861	48.597
3.3839	48.455
3.3817	48.320
3.3795	48.195
3.3773	48.084
3.3751	47.990
3.3729	47.914
3.3707	47.855
3.3685	47.808
3.3663	47.768
3.3641	47.727
3.3620	47.678
3.3598	47.620
3.3576	47.556
3.3554	47.490
3.3533	47.426
3.3511	47.367
3.3489	47.312
3.3468	47.256
3.3446	47.193
3.3425	47.120
3.3403	47.031
3.3382	46.927
3.3360	46.812
3.3339	46.690
3.3317	46.568
3.3296	46.450
3.3274	46.338
3.3253	46.229
3.3232	46.118
3.3210	45.998
3.3189	45.868
3.3168	45.727
3.3147	45.579
3.3126	45.431
3.3104	45.287
3.3083	45.148
3.3062	45.013
3.3041	44.879
3.3020	44.741
3.2999	44.599
3.2978	44.453
3.2957	44.305
3.2936	44.159
3.2915	44.016
3.2894	43.876
3.2874	43.735
3.2853	43.593
3.2832	43.445
3.2811	43.293
3.2790	43.139
3.2770	42.985
3.2749	42.836
3.2728	42.693
3.2708	42.554
3.2687	42.419
3.2666	42.288
3.2646	42.156
3.2625	42.024
3.2605	41.890
3.2584	41.754
3.2564	41.617
3.2543	41.478
3.2523	41.340
3.2503	41.203
3.2482	41.069
3.2462	40.936
3.2442	40.807
3.2421	40.684
3.2401	40.565
3.2381	40.450
3.2361	40.335
3.2340	40.215
3.2320	40.086
3.2300	39.947
3.2280	39.803
3.2260	39.656
3.2240	39.511
3.2220	39.367
