Name: Green Quartzite 
Type:  Rocks
Class:  Metamorphic 
Subclass: Quartzite
Particle Size:  0-75 Micrometer
Sample No.:   qtzite2.doc
Owner:  JHU
Wavelength Range:  All
Origin:  Sample No. 376, The Hunt and Salisbury Collection at the U.S. 
Geological Survey, Denver, Co.
Description:  This medium to fine-grained rock contains aligned quartz grains 
showing strain, pressure solution effects, recrystallization and scattered fluid 
inclusions.  Green bands or lenses contain cores of larger grains surrounded by 
smaller ones produced by mechanical breakage (cataclasis).  These grains are 
colorless to very pale green and appear to be tremolite.   Modes for this sample 
were 77.5% quartz and 22.5% amphibole. 
Measurement:  Directional (10 Degree) Hemispherical Reflectance
First Column:  X
Second Column:  Y  
X Units:  Wavelength (micrometers)
Y Units:  Reflectance (percent)
First X Value: 14.9831	
Last X Value:  0.4
Number of X Values: 2868
Additional Information:  None

14.983	8.6071
14.940	8.5725
14.897	8.4422
14.854	8.3437
14.812	8.2031
14.770	7.8855
14.728	7.4947
14.686	6.9754
14.645	6.3464
14.603	5.6428
14.562	4.9007
14.521	4.0654
14.481	3.2588
14.441	2.5837
14.400	2.0937
14.361	1.8898
14.321	2.0653
14.281	2.5562
14.242	3.2685
14.203	4.1225
14.164	4.9708
14.126	5.7272
14.087	6.3616
14.049	6.8906
14.011	7.3671
13.973	7.7576
13.936	8.0648
13.899	8.3298
13.861	8.5391
13.824	8.6670
13.788	8.7354
13.751	8.7721
13.715	8.7965
13.679	8.7814
13.643	8.7371
13.607	8.6973
13.571	8.6627
13.536	8.6161
13.500	8.5675
13.465	8.5086
13.430	8.4231
13.396	8.2841
13.361	8.1027
13.327	7.8725
13.293	7.5826
13.259	7.2565
13.225	6.9200
13.191	6.5427
13.158	6.1307
13.124	5.6949
13.091	5.2519
13.058	4.8244
13.026	4.4242
12.993	4.0787
12.960	3.8203
12.928	3.6344
12.896	3.5165
12.864	3.4405
12.832	3.3775
12.800	3.3135
12.769	3.2077
12.737	3.0488
12.706	2.8695
12.675	2.7125
12.644	2.6066
12.614	2.5583
12.583	2.5590
12.552	2.5773
12.522	2.5690
12.492	2.4982
12.462	2.3492
12.432	2.1252
12.402	1.8555
12.373	1.5973
12.343	1.4036
12.314	1.3112
12.285	1.3712
12.256	1.5909
12.227	1.9367
12.198	2.3677
12.169	2.8617
12.141	3.4094
12.113	3.9714
12.084	4.4995
12.056	4.9942
12.028	5.4588
12.000	5.9112
11.973	6.3760
11.945	6.8826
11.918	7.4374
11.890	7.9942
11.863	8.5104
11.836	8.9628
11.809	9.3270
11.782	9.6140
11.755	9.8480
11.729	10.067
11.702	10.277
11.676	10.464
11.650	10.623
11.624	10.743
11.598	10.800
11.572	10.797
11.546	10.740
11.520	10.627
11.495	10.451
11.469	10.224
11.444	9.9704
11.419	9.7327
11.394	9.5579
11.369	9.4878
11.344	9.5330
11.319	9.6616
11.294	9.8264
11.270	9.9879
11.245	10.107
11.221	10.167
11.197	10.162
11.173	10.107
11.149	10.027
11.125	9.9294
11.101	9.8155
11.077	9.6912
11.054	9.5648
11.030	9.4336
11.007	9.3080
10.983	9.1993
10.960	9.1096
10.937	9.0317
10.914	8.9516
10.891	8.8657
10.868	8.7698
10.846	8.6535
10.823	8.5225
10.800	8.3797
10.778	8.2301
10.755	8.0738
10.733	7.9075
10.711	7.7472
10.689	7.5890
10.667	7.4289
10.645	7.2681
10.623	7.1064
10.602	6.9491
10.580	6.7973
10.558	6.6649
10.537	6.5790
10.516	6.5411
10.494	6.5418
10.473	6.5633
10.452	6.5825
10.431	6.5847
10.410	6.5527
10.389	6.4923
10.368	6.4163
10.348	6.3308
10.327	6.2337
10.306	6.1314
10.286	6.0364
10.266	5.9502
10.245	5.8607
10.225	5.7714
10.205	5.6743
10.185	5.5680
10.165	5.4577
10.145	5.3433
10.125	5.2372
10.106	5.1458
10.086	5.0660
10.066	4.9959
10.047	4.9336
10.027	4.8853
10.008	4.8564
9.9887	4.8363
9.9695	4.8284
9.9504	4.8346
9.9313	4.8479
9.9123	4.8599
9.8934	4.8713
9.8746	4.8746
9.8558	4.8666
9.8371	4.8429
9.8185	4.7993
9.7999	4.7439
9.7814	4.6802
9.7630	4.6189
9.7447	4.5660
9.7264	4.5170
9.7082	4.4718
9.6900	4.4237
9.6719	4.3681
9.6539	4.3100
9.6360	4.2553
9.6181	4.2217
9.6003	4.2130
9.5825	4.2340
9.5649	4.2809
9.5472	4.3387
9.5297	4.4064
9.5122	4.4948
9.4948	4.6087
9.4774	4.7614
9.4601	4.9679
9.4429	5.2618
9.4257	5.6500
9.4086	6.1226
9.3916	6.6614
9.3746	7.2328
9.3577	7.7811
9.3408	8.2447
9.3240	8.5924
9.3073	8.8245
9.2906	8.9566
9.2740	9.0113
9.2574	9.0063
9.2409	8.9715
9.2245	8.9313
9.2081	8.8894
9.1918	8.8529
9.1755	8.8226
9.1593	8.8084
9.1431	8.7949
9.1270	8.7664
9.1110	8.7364
9.0950	8.7051
9.0791	8.6701
9.0632	8.6336
9.0474	8.5936
9.0316	8.5493
9.0159	8.4932
9.0003	8.4176
8.9847	8.3276
8.9691	8.2291
8.9536	8.1382
8.9382	8.0693
8.9228	8.0269
8.9075	8.0041
8.8922	7.9918
8.8770	7.9679
8.8618	7.9227
8.8467	7.8613
8.8316	7.7822
8.8166	7.6844
8.8016	7.5833
8.7867	7.4772
8.7718	7.3647
8.7570	7.2515
8.7422	7.1393
8.7275	7.0187
8.7129	6.8679
8.6982	6.6465
8.6837	6.3119
8.6692	5.8671
8.6547	5.4060
8.6403	5.0700
8.6259	4.9710
8.6116	5.1387
8.5973	5.5268
8.5830	6.0139
8.5688	6.4457
8.5547	6.7412
8.5406	6.9041
8.5266	6.9801
8.5126	7.0055
8.4986	6.9944
8.4847	6.9565
8.4708	6.9020
8.4570	6.8355
8.4432	6.7734
8.4295	6.7251
8.4158	6.6969
8.4022	6.6903
8.3886	6.7047
8.3750	6.7443
8.3615	6.8092
8.3481	6.8958
8.3347	7.0067
8.3213	7.1402
8.3079	7.3029
8.2946	7.4997
8.2814	7.7356
8.2682	8.0103
8.2550	8.3217
8.2419	8.6622
8.2288	9.0179
8.2158	9.3680
8.2028	9.6848
8.1898	9.9474
8.1769	10.126
8.1640	10.178
8.1512	10.103
8.1384	9.9115
8.1256	9.6301
8.1129	9.2903
8.1002	8.9287
8.0876	8.5798
8.0750	8.2473
8.0624	7.9194
8.0499	7.6122
8.0374	7.3344
8.0250	7.0843
8.0126	6.8504
8.0002	6.6263
7.9879	6.3954
7.9756	6.1423
7.9634	5.8555
7.9512	5.5469
7.9390	5.2360
7.9268	4.9333
7.9147	4.6425
7.9027	4.3700
7.8906	4.1168
7.8786	3.8828
7.8667	3.6690
7.8548	3.4767
7.8429	3.3102
7.8310	3.1738
7.8192	3.0677
7.8075	2.9931
7.7957	2.9460
7.7840	2.9199
7.7723	2.9043
7.7607	2.8851
7.7491	2.8562
7.7375	2.8169
7.7260	2.7686
7.7145	2.7175
7.7031	2.6684
7.6916	2.6237
7.6802	2.5775
7.6689	2.5247
7.6575	2.4688
7.6462	2.4049
7.6350	2.3324
7.6238	2.2635
7.6126	2.2057
7.6014	2.1645
7.5903	2.1446
7.5792	2.1444
7.5681	2.1576
7.5571	2.1721
7.5461	2.1806
7.5351	2.1825
7.5242	2.1766
7.5133	2.1707
7.5024	2.1697
7.4916	2.1683
7.4807	2.1730
7.4700	2.1863
7.4592	2.2029
7.4485	2.2280
7.4378	2.2640
7.4272	2.3104
7.4165	2.3599
7.4059	2.4077
7.3954	2.4577
7.3848	2.5024
7.3743	2.5375
7.3639	2.5706
7.3534	2.6043
7.3430	2.6445
7.3326	2.6919
7.3223	2.7449
7.3119	2.8051
7.3016	2.8678
7.2914	2.9351
7.2811	3.0085
7.2709	3.0890
7.2607	3.1807
7.2506	3.2749
7.2404	3.3590
7.2303	3.4355
7.2203	3.5013
7.2102	3.5468
7.2002	3.5643
7.1902	3.5551
7.1803	3.5342
7.1703	3.5108
7.1604	3.4916
7.1506	3.4937
7.1407	3.5236
7.1309	3.5629
7.1211	3.5956
7.1113	3.6145
7.1016	3.6219
7.0919	3.6178
7.0822	3.5963
7.0725	3.5650
7.0629	3.5364
7.0533	3.5110
7.0437	3.4902
7.0341	3.4765
7.0246	3.4660
7.0151	3.4542
7.0056	3.4331
6.9962	3.4090
6.9867	3.3869
6.9773	3.3663
6.9679	3.3474
6.9586	3.3367
6.9493	3.3282
6.9400	3.3202
6.9307	3.3173
6.9214	3.3190
6.9122	3.3140
6.9030	3.2979
6.8938	3.2695
6.8847	3.2396
6.8755	3.2100
6.8664	3.1826
6.8573	3.1646
6.8483	3.1610
6.8393	3.1684
6.8302	3.1811
6.8213	3.1916
6.8123	3.1991
6.8034	3.2032
6.7944	3.2077
6.7855	3.2126
6.7767	3.2167
6.7678	3.2197
6.7590	3.2280
6.7502	3.2389
6.7414	3.2489
6.7327	3.2636
6.7239	3.2915
6.7152	3.3282
6.7065	3.3737
6.6979	3.4350
6.6892	3.5243
6.6806	3.6422
6.6720	3.7789
6.6634	3.9167
6.6549	4.0453
6.6464	4.1561
6.6378	4.2534
6.6294	4.3430
6.6209	4.4244
6.6124	4.5068
6.6040	4.5850
6.5956	4.6492
6.5872	4.7020
6.5789	4.7479
6.5705	4.7979
6.5622	4.8644
6.5539	4.9686
6.5456	5.1403
6.5374	5.4077
6.5292	5.7842
6.5209	6.2567
6.5128	6.8082
6.5046	7.4093
6.4964	8.0337
6.4883	8.6658
6.4802	9.2858
6.4721	9.8861
6.4640	10.451
6.4560	10.960
6.4480	11.410
6.4399	11.771
6.4320	12.044
6.4240	12.250
6.4160	12.377
6.4081	12.417
6.4002	12.365
6.3923	12.217
6.3844	11.995
6.3766	11.700
6.3687	11.357
6.3609	11.015
6.3531	10.692
6.3454	10.379
6.3376	10.046
6.3299	9.6855
6.3221	9.3161
6.3144	8.9351
6.3068	8.5391
6.2991	8.1531
6.2914	7.7948
6.2838	7.4507
6.2762	7.1121
6.2686	6.7945
6.2611	6.5131
6.2535	6.2669
6.2460	6.0563
6.2385	5.8839
6.2310	5.7492
6.2235	5.6473
6.2160	5.5829
6.2086	5.5647
6.2011	5.6142
6.1937	5.7508
6.1863	5.9836
6.1790	6.3171
6.1716	6.7509
6.1643	7.2785
6.1570	7.8727
6.1496	8.5097
6.1424	9.1650
6.1351	9.8106
6.1278	10.430
6.1206	11.011
6.1134	11.564
6.1062	12.097
6.0990	12.598
6.0918	13.051
6.0847	13.443
6.0776	13.747
6.0704	13.936
6.0633	14.034
6.0563	14.093
6.0492	14.142
6.0421	14.180
6.0351	14.201
6.0281	14.203
6.0211	14.155
6.0141	14.005
6.0071	13.774
6.0002	13.484
5.9932	13.130
5.9863	12.726
5.9794	12.297
5.9725	11.870
5.9657	11.474
5.9588	11.115
5.9520	10.838
5.9451	10.678
5.9383	10.639
5.9315	10.741
5.9247	10.986
5.9180	11.342
5.9112	11.793
5.9045	12.302
5.8978	12.857
5.8911	13.452
5.8844	14.067
5.8777	14.696
5.8711	15.321
5.8644	15.928
5.8578	16.523
5.8512	17.098
5.8446	17.637
5.8380	18.152
5.8314	18.662
5.8249	19.166
5.8184	19.654
5.8118	20.138
5.8053	20.617
5.7988	21.087
5.7923	21.522
5.7859	21.903
5.7794	22.270
5.7730	22.632
5.7666	22.979
5.7602	23.324
5.7538	23.670
5.7474	24.008
5.7410	24.319
5.7347	24.573
5.7283	24.771
5.7220	24.920
5.7157	24.999
5.7094	24.985
5.7031	24.864
5.6969	24.615
5.6906	24.224
5.6844	23.679
5.6782	22.972
5.6719	22.127
5.6657	21.163
5.6596	20.097
5.6534	18.993
5.6472	17.914
5.6411	16.913
5.6349	16.029
5.6288	15.285
5.6227	14.680
5.6166	14.193
5.6106	13.797
5.6045	13.476
5.5984	13.206
5.5924	12.983
5.5864	12.810
5.5804	12.702
5.5744	12.660
5.5684	12.692
5.5624	12.813
5.5564	13.014
5.5505	13.280
5.5445	13.608
5.5386	13.991
5.5327	14.420
5.5268	14.879
5.5209	15.357
5.5151	15.852
5.5092	16.354
5.5033	16.857
5.4975	17.345
5.4917	17.819
5.4859	18.279
5.4801	18.716
5.4743	19.128
5.4685	19.490
5.4628	19.775
5.4570	19.951
5.4513	19.988
5.4455	19.861
5.4398	19.541
5.4341	19.031
5.4284	18.360
5.4228	17.540
5.4171	16.589
5.4114	15.540
5.4058	14.433
5.4002	13.304
5.3945	12.195
5.3889	11.160
5.3833	10.250
5.3778	9.4852
5.3722	8.8666
5.3666	8.3894
5.3611	8.0425
5.3555	7.8107
5.3500	7.6780
5.3445	7.6217
5.3390	7.6328
5.3335	7.6923
5.3280	7.7799
5.3225	7.8862
5.3171	8.0046
5.3116	8.1375
5.3062	8.2931
5.3008	8.4735
5.2954	8.6916
5.2900	8.9687
5.2846	9.3140
5.2792	9.7248
5.2738	10.194
5.2684	10.723
5.2631	11.318
5.2578	11.976
5.2524	12.709
5.2471	13.535
5.2418	14.454
5.2365	15.446
5.2312	16.471
5.2260	17.483
5.2207	18.430
5.2154	19.257
5.2102	19.926
5.2050	20.420
5.1998	20.743
5.1945	20.912
5.1893	20.958
5.1842	20.926
5.1790	20.852
5.1738	20.759
5.1686	20.661
5.1635	20.566
5.1584	20.463
5.1532	20.348
5.1481	20.228
5.1430	20.115
5.1379	20.024
5.1328	19.967
5.1277	19.953
5.1227	19.974
5.1176	19.990
5.1126	19.963
5.1075	19.868
5.1025	19.685
5.0975	19.409
5.0925	19.060
5.0875	18.674
5.0825	18.294
5.0775	17.952
5.0726	17.677
5.0676	17.485
5.0627	17.363
5.0577	17.295
5.0528	17.260
5.0479	17.239
5.0430	17.216
5.0380	17.186
5.0332	17.143
5.0283	17.083
5.0234	17.019
5.0185	16.975
5.0137	16.973
5.0088	17.023
5.0040	17.130
4.9992	17.306
4.9944	17.556
4.9896	17.895
4.9848	18.357
4.9800	18.970
4.9752	19.736
4.9704	20.617
4.9657	21.555
4.9609	22.477
4.9562	23.310
4.9514	24.008
4.9467	24.570
4.9420	25.027
4.9373	25.438
4.9326	25.873
4.9279	26.416
4.9232	27.141
4.9186	28.101
4.9139	29.330
4.9092	30.821
4.9046	32.524
4.9000	34.362
4.8953	36.248
4.8907	38.098
4.8861	39.841
4.8815	41.432
4.8769	42.863
4.8723	44.148
4.8678	45.300
4.8632	46.329
4.8586	47.263
4.8541	48.115
4.8495	48.886
4.8450	49.586
4.8405	50.236
4.8360	50.848
4.8315	51.421
4.8270	51.951
4.8225	52.448
4.8180	52.923
4.8135	53.376
4.8090	53.815
4.8046	54.238
4.8001	54.654
4.7957	55.055
4.7913	55.434
4.7868	55.797
4.7824	56.153
4.7780	56.497
4.7736	56.824
4.7692	57.130
4.7648	57.424
4.7605	57.699
4.7561	57.951
4.7517	58.187
4.7474	58.400
4.7431	58.587
4.7387	58.749
4.7344	58.877
4.7301	58.969
4.7258	59.020
4.7215	59.014
4.7172	58.929
4.7129	58.744
4.7086	58.444
4.7043	58.014
4.7000	57.459
4.6958	56.838
4.6915	56.254
4.6873	55.813
4.6831	55.608
4.6788	55.692
4.6746	56.056
4.6704	56.626
4.6662	57.303
4.6620	58.000
4.6578	58.670
4.6536	59.300
4.6495	59.896
4.6453	60.473
4.6411	61.042
4.6370	61.600
4.6328	62.134
4.6287	62.622
4.6246	63.045
4.6205	63.401
4.6163	63.701
4.6122	63.955
4.6081	64.176
4.6040	64.373
4.6000	64.550
4.5959	64.703
4.5918	64.822
4.5877	64.909
4.5837	64.971
4.5796	65.002
4.5756	65.001
4.5716	64.969
4.5675	64.896
4.5635	64.774
4.5595	64.602
4.5555	64.371
4.5515	64.071
4.5475	63.698
4.5435	63.256
4.5395	62.751
4.5356	62.187
4.5316	61.571
4.5276	60.912
4.5237	60.194
4.5197	59.411
4.5158	58.568
4.5119	57.686
4.5080	56.814
4.5040	56.006
4.5001	55.312
4.4962	54.761
4.4923	54.338
4.4884	54.014
4.4846	53.740
4.4807	53.487
4.4768	53.258
4.4730	53.083
4.4691	53.001
4.4652	53.058
4.4614	53.265
4.4576	53.604
4.4537	54.017
4.4499	54.435
4.4461	54.804
4.4423	55.114
4.4385	55.383
4.4347	55.644
4.4309	55.921
4.4271	56.229
4.4233	56.566
4.4196	56.915
4.4158	57.266
4.4120	57.627
4.4083	58.011
4.4045	58.423
4.4008	58.853
4.3971	59.300
4.3934	59.768
4.3896	60.250
4.3859	60.742
4.3822	61.240
4.3785	61.734
4.3748	62.221
4.3711	62.689
4.3674	63.134
4.3638	63.559
4.3601	63.961
4.3564	64.329
4.3528	64.660
4.3491	64.948
4.3455	65.200
4.3418	65.423
4.3382	65.606
4.3346	65.753
4.3310	65.863
4.3273	65.928
4.3237	65.948
4.3201	65.919
4.3165	65.860
4.3129	65.775
4.3094	65.668
4.3058	65.549
4.3022	65.434
4.2986	65.335
4.2951	65.257
4.2915	65.205
4.2880	65.190
4.2844	65.208
4.2809	65.253
4.2774	65.328
4.2738	65.439
4.2703	65.587
4.2668	65.769
4.2633	65.971
4.2598	66.166
4.2563	66.329
4.2528	66.441
4.2493	66.495
4.2458	66.498
4.2424	66.472
4.2389	66.445
4.2354	66.432
4.2320	66.452
4.2285	66.508
4.2251	66.593
4.2216	66.688
4.2182	66.772
4.2148	66.832
4.2113	66.866
4.2079	66.875
4.2045	66.877
4.2011	66.888
4.1977	66.921
4.1943	66.981
4.1909	67.070
4.1875	67.185
4.1841	67.318
4.1808	67.459
4.1774	67.600
4.1740	67.741
4.1707	67.876
4.1673	67.998
4.1640	68.116
4.1606	68.221
4.1573	68.313
4.1540	68.401
4.1506	68.488
4.1473	68.584
4.1440	68.691
4.1407	68.797
4.1374	68.907
4.1341	69.019
4.1308	69.132
4.1275	69.246
4.1242	69.364
4.1209	69.492
4.1177	69.625
4.1144	69.756
4.1111	69.890
4.1079	70.026
4.1046	70.160
4.1014	70.288
4.0981	70.411
4.0949	70.530
4.0917	70.642
4.0884	70.743
4.0852	70.835
4.0820	70.912
4.0788	70.973
4.0756	71.025
4.0724	71.071
4.0692	71.099
4.0660	71.107
4.0628	71.100
4.0596	71.079
4.0565	71.043
4.0533	70.987
4.0501	70.916
4.0470	70.833
4.0438	70.727
4.0406	70.598
4.0375	70.453
4.0344	70.291
4.0312	70.109
4.0281	69.908
4.0250	69.699
4.0218	69.485
4.0187	69.257
4.0156	69.012
4.0125	68.744
4.0094	68.449
4.0063	68.120
4.0032	67.764
4.0001	67.392
3.9970	67.009
3.9940	66.625
3.9909	66.260
3.9878	65.937
3.9847	65.677
3.9817	65.493
3.9786	65.389
3.9756	65.365
3.9725	65.405
3.9695	65.500
3.9665	65.653
3.9634	65.862
3.9604	66.128
3.9574	66.440
3.9544	66.789
3.9513	67.166
3.9483	67.557
3.9453	67.944
3.9423	68.309
3.9393	68.634
3.9363	68.908
3.9333	69.118
3.9304	69.279
3.9274	69.411
3.9244	69.526
3.9214	69.634
3.9185	69.741
3.9155	69.841
3.9126	69.926
3.9096	69.999
3.9067	70.066
3.9037	70.123
3.9008	70.160
3.8979	70.175
3.8949	70.178
3.8920	70.166
3.8891	70.140
3.8862	70.106
3.8833	70.075
3.8804	70.047
3.8775	70.012
3.8746	69.976
3.8717	69.948
3.8688	69.932
3.8659	69.918
3.8630	69.913
3.8601	69.925
3.8573	69.947
3.8544	69.973
3.8515	70.014
3.8487	70.067
3.8458	70.124
3.8430	70.184
3.8401	70.251
3.8373	70.323
3.8344	70.395
3.8316	70.462
3.8288	70.534
3.8259	70.608
3.8231	70.677
3.8203	70.745
3.8175	70.808
3.8147	70.865
3.8119	70.913
3.8091	70.956
3.8063	71.008
3.8035	71.062
3.8007	71.119
3.7979	71.183
3.7951	71.240
3.7924	71.282
3.7896	71.306
3.7868	71.311
3.7841	71.301
3.7813	71.278
3.7785	71.247
3.7758	71.212
3.7730	71.174
3.7703	71.124
3.7676	71.072
3.7648	71.023
3.7621	70.967
3.7594	70.909
3.7566	70.852
3.7539	70.802
3.7512	70.760
3.7485	70.718
3.7458	70.684
3.7431	70.659
3.7404	70.633
3.7377	70.610
3.7350	70.599
3.7323	70.599
3.7296	70.606
3.7269	70.622
3.7242	70.643
3.7216	70.672
3.7189	70.705
3.7162	70.742
3.7136	70.789
3.7109	70.839
3.7083	70.888
3.7056	70.940
3.7030	71.001
3.7003	71.062
3.6977	71.113
3.6950	71.162
3.6924	71.218
3.6898	71.274
3.6872	71.327
3.6845	71.385
3.6819	71.449
3.6793	71.494
3.6767	71.524
3.6741	71.559
3.6715	71.602
3.6689	71.639
3.6663	71.668
3.6637	71.690
3.6611	71.702
3.6585	71.706
3.6560	71.714
3.6534	71.729
3.6508	71.741
3.6482	71.738
3.6457	71.722
3.6431	71.690
3.6406	71.646
3.6380	71.616
3.6355	71.598
3.6329	71.584
3.6304	71.566
3.6278	71.538
3.6253	71.498
3.6227	71.451
3.6202	71.404
3.6177	71.368
3.6152	71.339
3.6127	71.304
3.6101	71.268
3.6076	71.230
3.6051	71.191
3.6026	71.157
3.6001	71.123
3.5976	71.088
3.5951	71.055
3.5926	71.017
3.5901	70.980
3.5876	70.951
3.5852	70.924
3.5827	70.896
3.5802	70.866
3.5777	70.839
3.5753	70.811
3.5728	70.772
3.5704	70.729
3.5679	70.692
3.5654	70.648
3.5630	70.597
3.5605	70.550
3.5581	70.519
3.5557	70.482
3.5532	70.429
3.5508	70.379
3.5484	70.336
3.5459	70.276
3.5435	70.204
3.5411	70.129
3.5387	70.058
3.5363	69.971
3.5338	69.855
3.5314	69.731
3.5290	69.609
3.5266	69.467
3.5242	69.317
3.5218	69.171
3.5195	69.023
3.5171	68.869
3.5147	68.703
3.5123	68.524
3.5099	68.340
3.5075	68.153
3.5052	67.977
3.5028	67.829
3.5004	67.700
3.4981	67.590
3.4957	67.496
3.4934	67.399
3.4910	67.298
3.4887	67.198
3.4863	67.092
3.4840	66.985
3.4816	66.888
3.4793	66.812
3.4770	66.772
3.4746	66.777
3.4723	66.818
3.4700	66.880
3.4677	66.949
3.4653	67.020
3.4630	67.091
3.4607	67.147
3.4584	67.187
3.4561	67.207
3.4538	67.201
3.4515	67.170
3.4492	67.117
3.4469	67.055
3.4446	67.008
3.4423	66.973
3.4400	66.936
3.4378	66.900
3.4355	66.862
3.4332	66.810
3.4309	66.729
3.4287	66.630
3.4264	66.529
3.4241	66.423
3.4219	66.310
3.4196	66.212
3.4174	66.141
3.4151	66.087
3.4129	66.044
3.4106	66.017
3.4084	66.000
3.4061	65.988
3.4039	65.975
3.4017	65.970
3.3994	65.969
3.3972	65.961
3.3950	65.942
3.3928	65.912
3.3906	65.870
3.3883	65.822
3.3861	65.767
3.3839	65.716
3.3817	65.665
3.3795	65.620
3.3773	65.581
3.3751	65.546
3.3729	65.504
3.3707	65.457
3.3685	65.398
3.3663	65.331
3.3641	65.262
3.3620	65.183
3.3598	65.092
3.3576	65.002
3.3554	64.921
3.3533	64.853
3.3511	64.801
3.3489	64.783
3.3468	64.805
3.3446	64.847
3.3425	64.899
3.3403	64.958
3.3382	65.014
3.3360	65.056
3.3339	65.080
3.3317	65.097
3.3296	65.104
3.3274	65.100
3.3253	65.081
3.3232	65.048
3.3210	65.001
3.3189	64.948
3.3168	64.899
3.3147	64.856
3.3126	64.813
3.3104	64.774
3.3083	64.740
3.3062	64.702
3.3041	64.660
3.3020	64.617
3.2999	64.581
3.2978	64.548
3.2957	64.517
3.2936	64.495
3.2915	64.482
3.2894	64.455
3.2874	64.410
3.2853	64.354
3.2832	64.297
3.2811	64.241
3.2790	64.193
3.2770	64.148
3.2749	64.108
3.2728	64.059
3.2708	63.996
3.2687	63.929
3.2666	63.870
3.2646	63.819
3.2625	63.768
3.2605	63.710
3.2584	63.655
3.2564	63.602
3.2543	63.545
3.2523	63.487
3.2503	63.426
3.2482	63.367
3.2462	63.304
3.2442	63.233
3.2421	63.162
3.2401	63.098
3.2381	63.042
3.2361	62.981
3.2340	62.921
3.2320	62.862
3.2300	62.803
3.2280	62.740
3.2260	62.678
3.2240	62.627
3.2220	62.583
3.2200	62.527
3.2180	62.462
