Name: Green Slate
Type:  Rocks
Class:  Metamorphic 
Subclass: Slate
Particle Size:  0-75 Micrometer
Sample No.:   slate2.doc
Owner:  JHU
Wavelength Range:  All
Origin:  Sample No. 461, The Hunt and Salisbury Collection at the U.S. 
Geological Survey, Denver, Co.
Description: This is a medium-grained sample dissected by thin veins.  
Microscopically it consists of about equal amounts of actinolite and recrystallized 
albite lathes.  The groundmass also consists of some chlorite, and carbonate, 
which is especially prominent in the veins, along with scattered pyrite.  Modes 
were 59.3% amphibole, 25.7% albite, 10.8% chlorite, 3% calcite and 1% pyrite.

Measurement:  Directional (10 Degree) Hemispherical Reflectance
First Column:  X
Second Column:  Y  
X Units:  Wavelength (micrometers)
Y Units:  Reflectance (percent)
First X Value: 14.0112	
Last X Value:  0.4
Number of X Values: 2844
Additional Information:  None

14.983	1.4005
14.940	1.4657
14.897	1.5931
14.854	1.7231
14.812	1.8197
14.770	1.8564
14.728	1.8370
14.686	1.7877
14.645	1.7472
14.603	1.7299
14.562	1.7342
14.521	1.7584
14.481	1.7991
14.441	1.8367
14.400	1.8630
14.361	1.8813
14.321	1.9028
14.281	1.9334
14.242	1.9743
14.203	2.0229
14.164	2.0717
14.126	2.1060
14.087	2.1176
14.049	2.1070
14.011	2.0840
13.973	2.0563
13.936	2.0276
13.899	2.0004
13.861	1.9774
13.824	1.9575
13.788	1.9409
13.751	1.9296
13.715	1.9258
13.679	1.9265
13.643	1.9251
13.607	1.9182
13.571	1.9061
13.536	1.8891
13.500	1.8699
13.465	1.8500
13.430	1.8294
13.396	1.8057
13.361	1.7764
13.327	1.7413
13.293	1.7034
13.259	1.6674
13.225	1.6378
13.191	1.6182
13.158	1.6115
13.124	1.6205
13.091	1.6471
13.058	1.6899
13.026	1.7458
12.993	1.8088
12.960	1.8711
12.928	1.9251
12.896	1.9663
12.864	1.9935
12.832	2.0087
12.800	2.0151
12.769	2.0184
12.737	2.0269
12.706	2.0492
12.675	2.0946
12.644	2.1704
12.614	2.2775
12.583	2.4122
12.552	2.5650
12.522	2.7265
12.492	2.8889
12.462	3.0478
12.432	3.2020
12.402	3.3498
12.373	3.4878
12.343	3.6114
12.314	3.7159
12.285	3.8009
12.256	3.8684
12.227	3.9240
12.198	3.9738
12.169	4.0195
12.141	4.0585
12.113	4.0860
12.084	4.0983
12.056	4.0943
12.028	4.0754
12.000	4.0474
11.973	4.0152
11.945	3.9816
11.918	3.9463
11.890	3.9086
11.863	3.8679
11.836	3.8229
11.809	3.7746
11.782	3.7246
11.755	3.6740
11.729	3.6238
11.702	3.5759
11.676	3.5316
11.650	3.4916
11.624	3.4570
11.598	3.4284
11.572	3.4061
11.546	3.3886
11.520	3.3758
11.495	3.3675
11.469	3.3640
11.444	3.3640
11.419	3.3663
11.394	3.3697
11.369	3.3711
11.344	3.3678
11.319	3.3578
11.294	3.3401
11.270	3.3164
11.245	3.2889
11.221	3.2593
11.197	3.2290
11.173	3.1982
11.149	3.1658
11.125	3.1283
11.101	3.0843
11.077	3.0341
11.054	2.9787
11.030	2.9197
11.007	2.8605
10.983	2.8044
10.960	2.7537
10.937	2.7094
10.914	2.6732
10.891	2.6462
10.868	2.6277
10.846	2.6166
10.823	2.6111
10.800	2.6107
10.778	2.6135
10.755	2.6189
10.733	2.6272
10.711	2.6391
10.689	2.6526
10.667	2.6675
10.645	2.6841
10.623	2.7023
10.602	2.7210
10.580	2.7411
10.558	2.7632
10.537	2.7866
10.516	2.8096
10.494	2.8304
10.473	2.8482
10.452	2.8605
10.431	2.8657
10.410	2.8662
10.389	2.8655
10.368	2.8659
10.348	2.8697
10.327	2.8787
10.306	2.8939
10.286	2.9133
10.266	2.9351
10.245	2.9583
10.225	2.9820
10.205	3.0054
10.185	3.0270
10.165	3.0457
10.145	3.0599
10.125	3.0675
10.106	3.0663
10.086	3.0566
10.066	3.0400
10.047	3.0187
10.027	2.9945
10.008	2.9680
9.9887	2.9391
9.9695	2.9067
9.9504	2.8707
9.9313	2.8316
9.9123	2.7918
9.8934	2.7532
9.8746	2.7165
9.8558	2.6822
9.8371	2.6497
9.8185	2.6201
9.7999	2.5950
9.7814	2.5766
9.7630	2.5661
9.7447	2.5647
9.7264	2.5728
9.7082	2.5889
9.6900	2.6104
9.6719	2.6336
9.6539	2.6545
9.6360	2.6675
9.6181	2.6677
9.6003	2.6530
9.5825	2.6251
9.5649	2.5872
9.5472	2.5432
9.5297	2.4977
9.5122	2.4551
9.4948	2.4181
9.4774	2.3869
9.4601	2.3622
9.4429	2.3450
9.4257	2.3341
9.4086	2.3267
9.3916	2.3222
9.3746	2.3194
9.3577	2.3168
9.3408	2.3132
9.3240	2.3075
9.3073	2.2995
9.2906	2.2886
9.2740	2.2737
9.2574	2.2557
9.2409	2.2348
9.2245	2.2119
9.2081	2.1865
9.1918	2.1590
9.1755	2.1313
9.1593	2.1051
9.1431	2.0818
9.1270	2.0629
9.1110	2.0482
9.0950	2.0376
9.0791	2.0295
9.0632	2.0234
9.0474	2.0203
9.0316	2.0217
9.0159	2.0283
9.0003	2.0380
8.9847	2.0473
8.9691	2.0527
8.9536	2.0527
8.9382	2.0482
8.9228	2.0442
8.9075	2.0468
8.8922	2.0598
8.8770	2.0837
8.8618	2.1159
8.8467	2.1522
8.8316	2.1875
8.8166	2.2187
8.8016	2.2450
8.7867	2.2668
8.7718	2.2850
8.7570	2.3011
8.7422	2.3156
8.7275	2.3274
8.7129	2.3338
8.6982	2.3326
8.6837	2.3234
8.6692	2.3087
8.6547	2.2917
8.6403	2.2772
8.6259	2.2682
8.6116	2.2649
8.5973	2.2649
8.5830	2.2649
8.5688	2.2637
8.5547	2.2623
8.5406	2.2623
8.5266	2.2661
8.5126	2.2756
8.4986	2.2907
8.4847	2.3108
8.4708	2.3348
8.4570	2.3627
8.4432	2.3947
8.4295	2.4304
8.4158	2.4705
8.4022	2.5145
8.3886	2.5612
8.3750	2.6092
8.3615	2.6583
8.3481	2.7075
8.3347	2.7575
8.3213	2.8077
8.3079	2.8586
8.2946	2.9102
8.2814	2.9607
8.2682	3.0069
8.2550	3.0476
8.2419	3.0836
8.2288	3.1148
8.2158	3.1421
8.2028	3.1665
8.1898	3.1890
8.1769	3.2086
8.1640	3.2240
8.1512	3.2351
8.1384	3.2434
8.1256	3.2503
8.1129	3.2572
8.1002	3.2666
8.0876	3.2825
8.0750	3.3067
8.0624	3.3405
8.0499	3.3853
8.0374	3.4407
8.0250	3.5056
8.0126	3.5762
8.0002	3.6500
7.9879	3.7265
7.9756	3.8044
7.9634	3.8838
7.9512	3.9655
7.9390	4.0498
7.9268	4.1369
7.9147	4.2253
7.9027	4.3162
7.8906	4.4100
7.8786	4.5073
7.8667	4.6096
7.8548	4.7167
7.8429	4.8291
7.8310	4.9466
7.8192	5.0695
7.8075	5.1998
7.7957	5.3369
7.7840	5.4799
7.7723	5.6272
7.7607	5.7766
7.7491	5.9263
7.7375	6.0748
7.7260	6.2221
7.7145	6.3685
7.7031	6.5136
7.6916	6.6569
7.6802	6.7987
7.6689	6.9404
7.6575	7.0813
7.6462	7.2212
7.6350	7.3598
7.6238	7.4971
7.6126	7.6319
7.6014	7.7642
7.5903	7.8959
7.5792	8.0278
7.5681	8.1595
7.5571	8.2902
7.5461	8.4190
7.5351	8.5462
7.5242	8.6705
7.5133	8.7925
7.5024	8.9114
7.4916	9.0260
7.4807	9.1342
7.4700	9.2353
7.4592	9.3310
7.4485	9.4253
7.4378	9.5221
7.4272	9.6254
7.4165	9.7350
7.4059	9.8485
7.3954	9.9602
7.3848	10.067
7.3743	10.167
7.3639	10.262
7.3534	10.355
7.3430	10.448
7.3326	10.540
7.3223	10.631
7.3119	10.718
7.3016	10.800
7.2914	10.880
7.2811	10.956
7.2709	11.029
7.2607	11.100
7.2506	11.167
7.2404	11.228
7.2303	11.281
7.2203	11.325
7.2102	11.358
7.2002	11.383
7.1902	11.402
7.1803	11.424
7.1703	11.455
7.1604	11.504
7.1506	11.574
7.1407	11.664
7.1309	11.769
7.1211	11.879
7.1113	11.984
7.1016	12.076
7.0919	12.149
7.0822	12.205
7.0725	12.249
7.0629	12.288
7.0533	12.330
7.0437	12.377
7.0341	12.426
7.0246	12.474
7.0151	12.517
7.0056	12.552
6.9962	12.583
6.9867	12.614
6.9773	12.649
6.9679	12.691
6.9586	12.736
6.9493	12.782
6.9400	12.825
6.9307	12.864
6.9214	12.898
6.9122	12.934
6.9030	12.971
6.8938	13.014
6.8847	13.066
6.8755	13.131
6.8664	13.208
6.8573	13.295
6.8483	13.389
6.8393	13.486
6.8302	13.578
6.8213	13.662
6.8123	13.739
6.8034	13.814
6.7944	13.892
6.7855	13.978
6.7767	14.075
6.7678	14.183
6.7590	14.299
6.7502	14.421
6.7414	14.546
6.7327	14.670
6.7239	14.795
6.7152	14.922
6.7065	15.051
6.6979	15.183
6.6892	15.317
6.6806	15.451
6.6720	15.579
6.6634	15.698
6.6549	15.809
6.6464	15.913
6.6378	16.014
6.6294	16.115
6.6209	16.218
6.6124	16.323
6.6040	16.426
6.5956	16.525
6.5872	16.619
6.5789	16.709
6.5705	16.795
6.5622	16.879
6.5539	16.964
6.5456	17.047
6.5374	17.127
6.5292	17.199
6.5209	17.261
6.5128	17.313
6.5046	17.361
6.4964	17.413
6.4883	17.479
6.4802	17.559
6.4721	17.651
6.4640	17.740
6.4560	17.814
6.4480	17.860
6.4399	17.874
6.4320	17.861
6.4240	17.831
6.4160	17.794
6.4081	17.755
6.4002	17.712
6.3923	17.659
6.3844	17.591
6.3766	17.506
6.3687	17.407
6.3609	17.302
6.3531	17.197
6.3454	17.097
6.3376	17.002
6.3299	16.910
6.3221	16.821
6.3144	16.734
6.3068	16.648
6.2991	16.567
6.2914	16.491
6.2838	16.421
6.2762	16.358
6.2686	16.302
6.2611	16.254
6.2535	16.216
6.2460	16.188
6.2385	16.170
6.2310	16.159
6.2235	16.156
6.2160	16.162
6.2086	16.176
6.2011	16.201
6.1937	16.242
6.1863	16.300
6.1790	16.373
6.1716	16.462
6.1643	16.563
6.1570	16.669
6.1496	16.775
6.1424	16.878
6.1351	16.978
6.1278	17.075
6.1206	17.172
6.1134	17.271
6.1062	17.372
6.0990	17.469
6.0918	17.558
6.0847	17.635
6.0776	17.698
6.0704	17.747
6.0633	17.789
6.0563	17.829
6.0492	17.872
6.0421	17.918
6.0351	17.962
6.0281	17.999
6.0211	18.021
6.0141	18.026
6.0071	18.015
6.0002	17.996
5.9932	17.976
5.9863	17.960
5.9794	17.951
5.9725	17.946
5.9657	17.943
5.9588	17.938
5.9520	17.935
5.9451	17.945
5.9383	17.974
5.9315	18.026
5.9247	18.099
5.9180	18.186
5.9112	18.277
5.9045	18.368
5.8978	18.458
5.8911	18.554
5.8844	18.662
5.8777	18.784
5.8711	18.915
5.8644	19.047
5.8578	19.169
5.8512	19.276
5.8446	19.366
5.8380	19.444
5.8314	19.518
5.8249	19.594
5.8184	19.673
5.8118	19.751
5.8053	19.823
5.7988	19.883
5.7923	19.927
5.7859	19.957
5.7794	19.980
5.7730	20.002
5.7666	20.026
5.7602	20.052
5.7538	20.080
5.7474	20.107
5.7410	20.128
5.7347	20.144
5.7283	20.158
5.7220	20.173
5.7157	20.194
5.7094	20.221
5.7031	20.258
5.6969	20.305
5.6906	20.357
5.6844	20.413
5.6782	20.472
5.6719	20.535
5.6657	20.602
5.6596	20.674
5.6534	20.756
5.6472	20.847
5.6411	20.946
5.6349	21.050
5.6288	21.154
5.6227	21.250
5.6166	21.331
5.6106	21.389
5.6045	21.420
5.5984	21.425
5.5924	21.411
5.5864	21.397
5.5804	21.404
5.5744	21.455
5.5684	21.565
5.5624	21.740
5.5564	21.972
5.5505	22.242
5.5445	22.528
5.5386	22.809
5.5327	23.069
5.5268	23.300
5.5209	23.505
5.5151	23.689
5.5092	23.856
5.5033	24.013
5.4975	24.164
5.4917	24.311
5.4859	24.454
5.4801	24.597
5.4743	24.741
5.4685	24.886
5.4628	25.032
5.4570	25.175
5.4513	25.312
5.4455	25.439
5.4398	25.551
5.4341	25.650
5.4284	25.737
5.4228	25.817
5.4171	25.890
5.4114	25.959
5.4058	26.020
5.4002	26.069
5.3945	26.106
5.3889	26.128
5.3833	26.140
5.3778	26.147
5.3722	26.155
5.3666	26.171
5.3611	26.200
5.3555	26.244
5.3500	26.305
5.3445	26.378
5.3390	26.461
5.3335	26.549
5.3280	26.641
5.3225	26.732
5.3171	26.821
5.3116	26.906
5.3062	26.987
5.3008	27.063
5.2954	27.139
5.2900	27.222
5.2846	27.318
5.2792	27.431
5.2738	27.562
5.2684	27.710
5.2631	27.867
5.2578	28.025
5.2524	28.179
5.2471	28.327
5.2418	28.467
5.2365	28.597
5.2312	28.718
5.2260	28.830
5.2207	28.934
5.2154	29.028
5.2102	29.113
5.2050	29.191
5.1998	29.264
5.1945	29.335
5.1893	29.406
5.1842	29.481
5.1790	29.561
5.1738	29.647
5.1686	29.737
5.1635	29.831
5.1584	29.930
5.1532	30.032
5.1481	30.137
5.1430	30.245
5.1379	30.356
5.1328	30.469
5.1277	30.583
5.1227	30.699
5.1176	30.817
5.1126	30.935
5.1075	31.055
5.1025	31.174
5.0975	31.293
5.0925	31.412
5.0875	31.531
5.0825	31.649
5.0775	31.763
5.0726	31.873
5.0676	31.977
5.0627	32.075
5.0577	32.167
5.0528	32.255
5.0479	32.340
5.0430	32.423
5.0380	32.507
5.0332	32.590
5.0283	32.675
5.0234	32.763
5.0185	32.855
5.0137	32.953
5.0088	33.054
5.0040	33.157
4.9992	33.259
4.9944	33.359
4.9896	33.458
4.9848	33.558
4.9800	33.662
4.9752	33.772
4.9704	33.891
4.9657	34.020
4.9609	34.157
4.9562	34.301
4.9514	34.450
4.9467	34.600
4.9420	34.750
4.9373	34.895
4.9326	35.035
4.9279	35.171
4.9232	35.304
4.9186	35.438
4.9139	35.572
4.9092	35.708
4.9046	35.845
4.9000	35.979
4.8953	36.110
4.8907	36.239
4.8861	36.368
4.8815	36.505
4.8769	36.656
4.8723	36.825
4.8678	37.015
4.8632	37.225
4.8586	37.448
4.8541	37.678
4.8495	37.908
4.8450	38.131
4.8405	38.342
4.8360	38.539
4.8315	38.721
4.8270	38.888
4.8225	39.041
4.8180	39.185
4.8135	39.325
4.8090	39.463
4.8046	39.604
4.8001	39.751
4.7957	39.907
4.7913	40.074
4.7868	40.254
4.7824	40.452
4.7780	40.670
4.7736	40.910
4.7692	41.169
4.7648	41.446
4.7605	41.734
4.7561	42.027
4.7517	42.318
4.7474	42.601
4.7431	42.874
4.7387	43.137
4.7344	43.389
4.7301	43.634
4.7258	43.871
4.7215	44.100
4.7172	44.320
4.7129	44.531
4.7086	44.733
4.7043	44.926
4.7000	45.113
4.6958	45.295
4.6915	45.475
4.6873	45.655
4.6831	45.837
4.6788	46.020
4.6746	46.202
4.6704	46.382
4.6662	46.556
4.6620	46.727
4.6578	46.895
4.6536	47.065
4.6495	47.240
4.6453	47.421
4.6411	47.609
4.6370	47.801
4.6328	47.995
4.6287	48.190
4.6246	48.385
4.6205	48.581
4.6163	48.781
4.6122	48.987
4.6081	49.202
4.6040	49.423
4.6000	49.649
4.5959	49.877
4.5918	50.105
4.5877	50.331
4.5837	50.554
4.5796	50.776
4.5756	50.997
4.5716	51.215
4.5675	51.431
4.5635	51.640
4.5595	51.841
4.5555	52.030
4.5515	52.208
4.5475	52.377
4.5435	52.538
4.5395	52.696
4.5356	52.853
4.5316	53.009
4.5276	53.165
4.5237	53.317
4.5197	53.464
4.5158	53.606
4.5119	53.742
4.5080	53.872
4.5040	53.998
4.5001	54.119
4.4962	54.237
4.4923	54.354
4.4884	54.473
4.4846	54.593
4.4807	54.715
4.4768	54.838
4.4730	54.961
4.4691	55.083
4.4652	55.203
4.4614	55.322
4.4576	55.444
4.4537	55.567
4.4499	55.692
4.4461	55.816
4.4423	55.937
4.4385	56.056
4.4347	56.171
4.4309	56.283
4.4271	56.394
4.4233	56.505
4.4196	56.616
4.4158	56.726
4.4120	56.835
4.4083	56.941
4.4045	57.043
4.4008	57.143
4.3971	57.239
4.3934	57.333
4.3896	57.426
4.3859	57.519
4.3822	57.612
4.3785	57.705
4.3748	57.799
4.3711	57.891
4.3674	57.980
4.3638	58.065
4.3601	58.147
4.3564	58.226
4.3528	58.305
4.3491	58.384
4.3455	58.463
4.3418	58.543
4.3382	58.622
4.3346	58.699
4.3310	58.772
4.3273	58.840
4.3237	58.905
4.3201	58.967
4.3165	59.029
4.3129	59.092
4.3094	59.159
4.3058	59.229
4.3022	59.301
4.2986	59.373
4.2951	59.443
4.2915	59.509
4.2880	59.573
4.2844	59.634
4.2809	59.694
4.2774	59.753
4.2738	59.810
4.2703	59.866
4.2668	59.919
4.2633	59.970
4.2598	60.020
4.2563	60.072
4.2528	60.126
4.2493	60.181
4.2458	60.238
4.2424	60.293
4.2389	60.346
4.2354	60.395
4.2320	60.442
4.2285	60.490
4.2251	60.541
4.2216	60.594
4.2182	60.648
4.2148	60.701
4.2113	60.751
4.2079	60.797
4.2045	60.840
4.2011	60.882
4.1977	60.926
4.1943	60.973
4.1909	61.022
4.1875	61.070
4.1841	61.116
4.1808	61.158
4.1774	61.196
4.1740	61.231
4.1707	61.267
4.1673	61.302
4.1640	61.339
4.1606	61.376
4.1573	61.413
4.1540	61.449
4.1506	61.486
4.1473	61.523
4.1440	61.560
4.1407	61.596
4.1374	61.632
4.1341	61.667
4.1308	61.701
4.1275	61.732
4.1242	61.763
4.1209	61.791
4.1177	61.817
4.1144	61.841
4.1111	61.862
4.1079	61.883
4.1046	61.903
4.1014	61.923
4.0981	61.944
4.0949	61.966
4.0917	61.990
4.0884	62.015
4.0852	62.039
4.0820	62.061
4.0788	62.079
4.0756	62.092
4.0724	62.102
4.0692	62.110
4.0660	62.117
4.0628	62.122
4.0596	62.125
4.0565	62.121
4.0533	62.106
4.0501	62.077
4.0470	62.035
4.0438	61.981
4.0406	61.920
4.0375	61.855
4.0344	61.790
4.0312	61.726
4.0281	61.659
4.0250	61.583
4.0218	61.492
4.0187	61.378
4.0156	61.235
4.0125	61.058
4.0094	60.848
4.0063	60.606
4.0032	60.339
4.0001	60.057
3.9970	59.772
3.9940	59.502
3.9909	59.263
3.9878	59.071
3.9847	58.938
3.9817	58.868
3.9786	58.856
3.9756	58.895
3.9725	58.974
3.9695	59.085
3.9665	59.222
3.9634	59.387
3.9604	59.581
3.9574	59.803
3.9544	60.051
3.9513	60.315
3.9483	60.581
3.9453	60.832
3.9423	61.051
3.9393	61.226
3.9363	61.354
3.9333	61.439
3.9304	61.492
3.9274	61.526
3.9244	61.552
3.9214	61.578
3.9185	61.604
3.9155	61.629
3.9126	61.651
3.9096	61.669
3.9067	61.682
3.9037	61.690
3.9008	61.694
3.8979	61.695
3.8949	61.693
3.8920	61.691
3.8891	61.690
3.8862	61.693
3.8833	61.697
3.8804	61.702
3.8775	61.702
3.8746	61.696
3.8717	61.683
3.8688	61.668
3.8659	61.654
3.8630	61.644
3.8601	61.639
3.8573	61.637
3.8544	61.635
3.8515	61.632
3.8487	61.629
3.8458	61.628
3.8430	61.634
3.8401	61.646
3.8373	61.665
3.8344	61.688
3.8316	61.712
3.8288	61.735
3.8259	61.757
3.8231	61.780
3.8203	61.805
3.8175	61.830
3.8147	61.855
3.8119	61.879
3.8091	61.901
3.8063	61.918
3.8035	61.932
3.8007	61.943
3.7979	61.950
3.7951	61.953
3.7924	61.953
3.7896	61.949
3.7868	61.942
3.7841	61.930
3.7813	61.916
3.7785	61.899
3.7758	61.880
3.7730	61.858
3.7703	61.834
3.7676	61.805
3.7648	61.770
3.7621	61.727
3.7594	61.678
3.7566	61.624
3.7539	61.569
3.7512	61.517
3.7485	61.471
3.7458	61.428
3.7431	61.387
3.7404	61.348
3.7377	61.310
3.7350	61.271
3.7323	61.233
3.7296	61.194
3.7269	61.154
3.7242	61.112
3.7216	61.067
3.7189	61.022
3.7162	60.978
3.7136	60.934
3.7109	60.892
3.7083	60.850
3.7056	60.809
3.7030	60.767
3.7003	60.724
3.6977	60.679
3.6950	60.630
3.6924	60.577
3.6898	60.523
3.6872	60.469
3.6845	60.419
3.6819	60.374
3.6793	60.334
3.6767	60.294
3.6741	60.250
3.6715	60.201
3.6689	60.144
3.6663	60.082
3.6637	60.021
3.6611	59.964
3.6585	59.913
3.6560	59.866
3.6534	59.820
3.6508	59.772
3.6482	59.721
3.6457	59.665
3.6431	59.605
3.6406	59.543
3.6380	59.480
3.6355	59.416
3.6329	59.354
3.6304	59.292
3.6278	59.231
3.6253	59.171
3.6227	59.109
3.6202	59.044
3.6177	58.974
3.6152	58.901
3.6127	58.824
3.6101	58.749
3.6076	58.678
3.6051	58.612
3.6026	58.551
3.6001	58.489
3.5976	58.422
3.5951	58.348
3.5926	58.268
3.5901	58.185
3.5876	58.103
3.5852	58.024
3.5827	57.947
3.5802	57.870
3.5777	57.790
3.5753	57.707
3.5728	57.622
3.5704	57.536
3.5679	57.450
3.5654	57.364
3.5630	57.280
3.5605	57.196
3.5581	57.114
3.5557	57.035
3.5532	56.958
3.5508	56.876
3.5484	56.791
3.5459	56.700
3.5435	56.607
3.5411	56.511
3.5387	56.416
3.5363	56.321
3.5338	56.220
3.5314	56.106
3.5290	55.978
3.5266	55.839
3.5242	55.692
3.5218	55.542
3.5195	55.396
3.5171	55.254
3.5147	55.113
3.5123	54.968
3.5099	54.820
3.5075	54.670
3.5052	54.521
3.5028	54.375
3.5004	54.235
3.4981	54.099
3.4957	53.965
3.4934	53.832
3.4910	53.702
3.4887	53.578
3.4863	53.463
3.4840	53.361
3.4816	53.274
3.4793	53.205
3.4770	53.154
3.4746	53.122
3.4723	53.108
3.4700	53.109
3.4677	53.117
3.4653	53.123
3.4630	53.116
3.4607	53.091
3.4584	53.046
3.4561	52.984
3.4538	52.909
3.4515	52.828
3.4492	52.743
3.4469	52.655
3.4446	52.566
3.4423	52.475
3.4400	52.382
3.4378	52.287
3.4355	52.188
3.4332	52.084
3.4309	51.971
3.4287	51.851
3.4264	51.724
3.4241	51.591
3.4219	51.456
3.4196	51.325
3.4174	51.200
3.4151	51.085
3.4129	50.983
3.4106	50.893
3.4084	50.811
3.4061	50.734
3.4039	50.659
3.4017	50.581
3.3994	50.499
3.3972	50.412
3.3950	50.322
3.3928	50.228
3.3906	50.130
3.3883	50.029
3.3861	49.925
3.3839	49.817
3.3817	49.705
3.3795	49.590
3.3773	49.474
3.3751	49.358
3.3729	49.243
3.3707	49.132
3.3685	49.023
3.3663	48.915
3.3641	48.804
3.3620	48.688
3.3598	48.566
3.3576	48.439
3.3554	48.313
3.3533	48.196
3.3511	48.095
3.3489	48.014
3.3468	47.954
3.3446	47.913
3.3425	47.883
3.3403	47.855
3.3382	47.820
3.3360	47.770
3.3339	47.702
3.3317	47.619
3.3296	47.523
3.3274	47.424
3.3253	47.324
3.3232	47.226
3.3210	47.129
3.3189	47.030
3.3168	46.927
3.3147	46.817
3.3126	46.701
3.3104	46.581
3.3083	46.459
3.3062	46.335
3.3041	46.212
3.3020	46.089
3.2999	45.964
3.2978	45.836
3.2957	45.708
3.2936	45.578
3.2915	45.445
3.2894	45.310
3.2874	45.173
3.2853	45.035
3.2832	44.896
3.2811	44.762
3.2790	44.634
3.2770	44.513
3.2749	44.395
3.2728	44.275
3.2708	44.147
3.2687	44.010
3.2666	43.861
3.2646	43.705
3.2625	43.546
3.2605	43.388
3.2584	43.232
3.2564	43.080
3.2543	42.932
3.2523	42.787
3.2503	42.644
3.2482	42.500
3.2462	42.350
3.2442	42.191
3.2421	42.022
3.2401	41.848
3.2381	41.671
3.2361	41.497
3.2340	41.326
3.2320	41.158
3.2300	40.989
3.2280	40.814
3.2260	40.630
3.2240	40.437
3.2220	40.236
3.2200	40.028
3.2180	39.817
3.2160	39.604
3.2140	39.390
3.2120	39.175
