Name: Gray Quartzite
Type:  Rocks
Class:  Metamorphic 
Subclass: Quartzite
Particle Size:  500-1500 Micrometer
Sample No.:   qrtzit5.doc
Owner:  JHU
Wavelength Range:  All
Origin:  Sample No. 382, The Hunt and Salisbury Collection at the U.S. 
Geological Survey, Denver, Co.
Description: This is a sample much like the previous one in composition.  It is a 
fine-grained slightly metamorphosed well-compacted sandstone with some 
secondary quartz deposition, and much more silica/chalcedony deposition.  The 
quartz grains, unlike the previous rock, show evidence of only weak strain and 
fewer fluid inclusions.  In addition there are scattered detrital green and brown 
tourmaline and zircon.   
Measurement:  Directional (10 Degree) Hemispherical Reflectance
First Column:  X
Second Column:  Y  
X Units:  Wavelength (micrometers)
Y Units:  Reflectance (percent)
First X Value: 14.9831
Last X Value:  0.4
Number of X Values: 2868
Additional Information:  qrtzit5a.txt

14.9831	3.2283
14.9399	3.1752
14.897	3.1035
14.8543	3.0438
14.8119	3.0185
14.7697	3.0376
14.7277	3.1025
14.686	3.2055
14.6445	3.3365
14.6033	3.4791
14.5622	3.6088
14.5214	3.6953
14.4809	3.7031
14.4405	3.6112
14.4004	3.4298
14.3605	3.197
14.3209	2.9699
14.2814	2.8011
14.2422	2.717
14.2032	2.7113
14.1643	2.7575
14.1258	2.8214
14.0874	2.8809
14.0492	2.9339
14.0112	2.9926
13.9734	3.0668
13.9359	3.1544
13.8985	3.2489
13.8614	3.3455
13.8244	3.4319
13.7876	3.4982
13.7511	3.5489
13.7147	3.587
13.6785	3.611
13.6425	3.6214
13.6067	3.6292
13.5711	3.6477
13.5356	3.6813
13.5004	3.736
13.4653	3.8203
13.4304	3.9264
13.3957	4.0342
13.3612	4.1275
13.3269	4.1987
13.2927	4.2485
13.2587	4.2854
13.2249	4.3352
13.1912	4.4282
13.1577	4.5814
13.1244	4.7934
13.0913	5.0555
13.0583	5.361
13.0255	5.7122
12.9929	6.1241
12.9604	6.6152
12.9281	7.1874
12.8959	7.8021
12.8639	8.3674
12.8321	8.7627
12.8004	8.8863
12.7688	8.6982
12.7375	8.2476
12.7063	7.6662
12.6752	7.1362
12.6443	6.8253
12.6135	6.8115
12.5829	7.0555
12.5524	7.4116
12.5221	7.6743
12.4919	7.6416
12.4619	7.1871
12.432	6.3109
12.4023	5.1391
12.3727	3.8698
12.3432	2.7096
12.3139	1.8152
12.2847	1.2551
12.2557	1.0105
12.2268	0.9998
12.198	1.1249
12.1694	1.3086
12.1409	1.4976
12.1125	1.6632
12.0843	1.7967
12.0562	1.9038
12.0282	1.9973
12.0003	2.0852
11.9726	2.1711
11.945	2.2571
11.9176	2.3378
11.8903	2.407
11.8631	2.4645
11.836	2.5169
11.809	2.5737
11.7822	2.6398
11.7555	2.7125
11.7289	2.785
11.7024	2.851
11.676	2.9064
11.6498	2.9519
11.6237	2.9926
11.5977	3.0357
11.5718	3.0871
11.546	3.1475
11.5203	3.2129
11.4948	3.2797
11.4694	3.3401
11.444	3.3881
11.4188	3.426
11.3937	3.4627
11.3688	3.5072
11.3439	3.5619
11.3191	3.6202
11.2944	3.6723
11.2699	3.7081
11.2455	3.7206
11.2211	3.7164
11.1969	3.7078
11.1727	3.7107
11.1487	3.7325
11.1248	3.7715
11.101	3.8248
11.0773	3.8883
11.0536	3.9562
11.0301	4.0237
11.0067	4.0872
10.9834	4.1483
10.9602	4.2058
10.937	4.2551
10.914	4.2968
10.8911	4.3342
10.8682	4.3688
10.8455	4.3984
10.8229	4.4242
10.8003	4.4502
10.7779	4.4775
10.7555	4.5059
10.7332	4.539
10.7111	4.5803
10.689	4.6276
10.667	4.6776
10.6451	4.728
10.6233	4.7773
10.6015	4.8251
10.5799	4.8746
10.5584	4.9324
10.5369	4.9999
10.5155	5.075
10.4942	5.1569
10.473	5.241
10.4519	5.322
10.4309	5.3989
10.4099	5.4728
10.3891	5.5431
10.3683	5.6045
10.3476	5.6537
10.327	5.6938
10.3065	5.7272
10.286	5.761
10.2657	5.8055
10.2454	5.8673
10.2252	5.9502
10.205	6.0504
10.185	6.1627
10.165	6.283
10.1451	6.4071
10.1253	6.5314
10.1056	6.6503
10.0859	6.7606
10.0663	6.8651
10.0468	6.9671
10.0274	7.0711
10.008	7.1812
9.9887	7.3003
9.9695	7.4284
9.9504	7.562
9.9313	7.697
9.9123	7.8329
9.8934	7.9715
9.8746	8.1152
9.8558	8.2656
9.8371	8.4257
9.8185	8.6019
9.7999	8.7968
9.7814	9.0049
9.763	9.2204
9.7447	9.4418
9.7264	9.669
9.7082	9.8998
9.69	10.1341
9.6719	10.3773
9.6539	10.6337
9.636	10.9037
9.6181	11.194
9.6003	11.5187
9.5825	11.8912
9.5649	12.3147
9.5472	12.7866
9.5297	13.3105
9.5122	13.898
9.4948	14.5715
9.4774	15.3703
9.4601	16.3422
9.4429	17.5322
9.4257	18.9588
9.4086	20.5987
9.3916	22.3895
9.3746	24.2324
9.3577	26.0019
9.3408	27.572
9.324	28.8465
9.3073	29.7843
9.2906	30.396
9.274	30.7344
9.2574	30.8822
9.2409	30.9253
9.2245	30.9315
9.2081	30.9397
9.1918	30.9639
9.1755	31.0025
9.1593	31.0449
9.1431	31.078
9.127	31.0998
9.111	31.1155
9.095	31.1377
9.0791	31.1782
9.0632	31.2415
9.0474	31.3253
9.0316	31.4195
9.0159	31.5086
9.0003	31.5813
8.9847	31.6303
8.9691	31.6552
8.9536	31.6587
8.9382	31.6436
8.9228	31.6114
8.9075	31.5623
8.8922	31.4946
8.877	31.4079
8.8618	31.2997
8.8467	31.1671
8.8316	31.0084
8.8166	30.823
8.8016	30.6141
8.7867	30.3937
8.7718	30.1741
8.757	29.948
8.7422	29.6638
8.7275	29.2198
8.7129	28.4889
8.6982	27.3724
8.6837	25.8726
8.6692	24.1583
8.6547	22.5517
8.6403	21.4378
8.6259	21.1214
8.6116	21.7091
8.5973	23.068
8.583	24.8725
8.5688	26.728
8.5547	28.313
8.5406	29.4691
8.5266	30.1988
8.5126	30.6013
8.4986	30.8003
8.4847	30.8936
8.4708	30.9343
8.457	30.9345
8.4432	30.8924
8.4295	30.8121
8.4158	30.7062
8.4022	30.5874
8.3886	30.4697
8.375	30.3681
8.3615	30.2975
8.3481	30.2641
8.3347	30.2667
8.3213	30.3044
8.3079	30.3757
8.2946	30.4794
8.2814	30.6158
8.2682	30.7856
8.255	30.9798
8.2419	31.1716
8.2288	31.3184
8.2158	31.3655
8.2028	31.2557
8.1898	30.936
8.1769	30.3723
8.164	29.5546
8.1512	28.4984
8.1384	27.2431
8.1256	25.8449
8.1129	24.3681
8.1002	22.8738
8.0876	21.4108
8.075	20.0143
8.0624	18.7054
8.0499	17.4907
8.0374	16.3678
8.025	15.3239
8.0126	14.3404
8.0002	13.3957
7.9879	12.47
7.9756	11.5533
7.9634	10.6479
7.9512	9.7639
7.939	8.9149
7.9268	8.115
7.9147	7.3725
7.9027	6.6912
7.8906	6.0712
7.8786	5.5128
7.8667	5.0165
7.8548	4.5767
7.8429	4.1888
7.831	3.8483
7.8192	3.5492
7.8075	3.2853
7.7957	3.05
7.784	2.8368
7.7723	2.6367
7.7607	2.4383
7.7491	2.2367
7.7375	2.035
7.726	1.8377
7.7145	1.6508
7.7031	1.4837
7.6916	1.3413
7.6802	1.2217
7.6689	1.1187
7.6575	1.0283
7.6462	0.9468
7.635	0.8686
7.6238	0.7917
7.6126	0.7202
7.6014	0.6579
7.5903	0.6048
7.5792	0.5605
7.5681	0.5248
7.5571	0.4966
7.5461	0.472
7.5351	0.4502
7.5242	0.4334
7.5133	0.4211
7.5024	0.4099
7.4916	0.3981
7.4807	0.386
7.47	0.3768
7.4592	0.3732
7.4485	0.3784
7.4378	0.39
7.4272	0.4009
7.4165	0.4028
7.4059	0.3912
7.3954	0.3694
7.3848	0.3462
7.3743	0.3325
7.3639	0.3351
7.3534	0.3521
7.343	0.3746
7.3326	0.3924
7.3222	0.3983
7.3119	0.3898
7.3016	0.3704
7.2914	0.3476
7.2811	0.3301
7.2709	0.3233
7.2607	0.3282
7.2506	0.342
7.2404	0.3592
7.2303	0.3744
7.2203	0.3841
7.2102	0.39
7.2002	0.3976
7.1902	0.4125
7.1803	0.4355
7.1703	0.4627
7.1604	0.4876
7.1506	0.5044
7.1407	0.5092
7.1309	0.5037
7.1211	0.4935
7.1113	0.4843
7.1016	0.4807
7.0919	0.4836
7.0822	0.4904
7.0725	0.5004
7.0629	0.5106
7.0533	0.5182
7.0437	0.5217
7.0341	0.5215
7.0246	0.5212
7.0151	0.5224
7.0056	0.5262
6.9962	0.5366
6.9867	0.5534
6.9773	0.5714
6.9679	0.5847
6.9586	0.5892
6.9493	0.5852
6.94	0.5738
6.9307	0.5594
6.9214	0.5489
6.9122	0.5459
6.903	0.5487
6.8938	0.5551
6.8847	0.5639
6.8755	0.5748
6.8664	0.588
6.8573	0.6039
6.8483	0.6207
6.8393	0.6342
6.8302	0.6408
6.8213	0.6408
6.8123	0.6373
6.8034	0.6356
6.7944	0.6396
6.7855	0.6501
6.7767	0.665
6.7678	0.679
6.759	0.6891
6.7502	0.6967
6.7414	0.7057
6.7327	0.7176
6.7239	0.7311
6.7152	0.7429
6.7065	0.7495
6.6979	0.7479
6.6892	0.7372
6.6806	0.7225
6.672	0.7102
6.6634	0.7041
6.6549	0.7041
6.6464	0.7083
6.6378	0.7166
6.6294	0.7277
6.6209	0.7405
6.6124	0.7552
6.604	0.7734
6.5956	0.7924
6.5872	0.8061
6.5789	0.8104
6.5705	0.8035
6.5622	0.786
6.5539	0.7604
6.5456	0.7346
6.5374	0.7176
6.5292	0.7133
6.5209	0.7228
6.5128	0.745
6.5046	0.7758
6.4964	0.8075
6.4883	0.8345
6.4802	0.8549
6.4721	0.8679
6.464	0.8746
6.456	0.8788
6.448	0.8862
6.4399	0.8982
6.432	0.9127
6.424	0.9257
6.416	0.9321
6.4081	0.9286
6.4002	0.9132
6.3923	0.89
6.3844	0.8653
6.3766	0.8461
6.3687	0.8352
6.3609	0.8317
6.3531	0.8345
6.3454	0.8416
6.3376	0.8504
6.3299	0.8585
6.3221	0.8663
6.3144	0.8743
6.3068	0.8805
6.2991	0.8821
6.2914	0.8788
6.2838	0.8722
6.2762	0.8641
6.2686	0.8568
6.2611	0.8535
6.2535	0.8568
6.246	0.8649
6.2385	0.8729
6.231	0.8755
6.2235	0.8703
6.216	0.8585
6.2086	0.8431
6.2011	0.8293
6.1937	0.8225
6.1863	0.8246
6.179	0.8338
6.1716	0.8473
6.1643	0.8637
6.157	0.8838
6.1496	0.9072
6.1424	0.9323
6.1351	0.9567
6.1278	0.9766
6.1206	0.9889
6.1134	0.9927
6.1062	0.9915
6.099	0.9899
6.0918	0.9904
6.0847	0.9942
6.0776	0.9998
6.0704	1.0041
6.0633	1.0039
6.0563	0.9996
6.0492	0.9946
6.0421	0.992
6.0351	0.9942
6.0281	1.0034
6.0211	1.0197
6.0141	1.0382
6.0071	1.0536
6.0002	1.0635
5.9932	1.0676
5.9863	1.0657
5.9794	1.0581
5.9725	1.0491
5.9657	1.0425
5.9588	1.038
5.952	1.0363
5.9451	1.041
5.9383	1.0531
5.9315	1.0709
5.9247	1.0901
5.918	1.1078
5.9112	1.1204
5.9045	1.1239
5.8978	1.1208
5.8911	1.1171
5.8844	1.119
5.8777	1.1301
5.8711	1.1493
5.8644	1.1734
5.8578	1.1983
5.8512	1.221
5.8446	1.2433
5.838	1.2705
5.8314	1.307
5.8249	1.3517
5.8184	1.3975
5.8118	1.4361
5.8053	1.4612
5.7988	1.4702
5.7923	1.4661
5.7859	1.4574
5.7794	1.4533
5.773	1.4576
5.7666	1.4685
5.7602	1.4841
5.7538	1.5031
5.7474	1.5232
5.741	1.5447
5.7347	1.5701
5.7283	1.6002
5.722	1.6295
5.7157	1.6504
5.7094	1.6594
5.7031	1.6551
5.6969	1.6399
5.6906	1.6198
5.6844	1.6006
5.6782	1.5836
5.6719	1.5639
5.6657	1.5362
5.6596	1.4983
5.6534	1.4519
5.6472	1.4043
5.6411	1.3655
5.6349	1.3427
5.6288	1.3378
5.6227	1.3461
5.6166	1.3588
5.6106	1.366
5.6045	1.3624
5.5984	1.3496
5.5924	1.3335
5.5864	1.3195
5.5804	1.3124
5.5744	1.3146
5.5684	1.3224
5.5624	1.3309
5.5564	1.3382
5.5505	1.3456
5.5445	1.3548
5.5386	1.3636
5.5327	1.3723
5.5268	1.3821
5.5209	1.3915
5.5151	1.4003
5.5092	1.4107
5.5033	1.4249
5.4975	1.4427
5.4917	1.4602
5.4859	1.4777
5.4801	1.495
5.4743	1.5111
5.4685	1.5253
5.4628	1.5362
5.457	1.5429
5.4513	1.5438
5.4455	1.5384
5.4398	1.5296
5.4341	1.5196
5.4284	1.5099
5.4228	1.5012
5.4171	1.4926
5.4114	1.4837
5.4058	1.4737
5.4002	1.4621
5.3945	1.4465
5.3889	1.4261
5.3833	1.4005
5.3778	1.3721
5.3722	1.3458
5.3666	1.3276
5.3611	1.3219
5.3555	1.3271
5.35	1.3373
5.3445	1.3461
5.339	1.3465
5.3335	1.3356
5.328	1.3167
5.3225	1.2975
5.3171	1.2861
5.3116	1.288
5.3062	1.3034
5.3008	1.3295
5.2954	1.3593
5.29	1.3847
5.2846	1.4001
5.2792	1.4036
5.2738	1.3975
5.2684	1.3863
5.2631	1.3759
5.2578	1.3721
5.2524	1.3792
5.2471	1.3977
5.2418	1.4242
5.2365	1.4533
5.2312	1.4794
5.226	1.4988
5.2207	1.5104
5.2154	1.5168
5.2102	1.5211
5.205	1.527
5.1998	1.5369
5.1945	1.5511
5.1893	1.5689
5.1842	1.5888
5.179	1.6094
5.1738	1.6274
5.1686	1.6383
5.1635	1.6404
5.1584	1.6343
5.1532	1.6231
5.1481	1.6106
5.143	1.6028
5.1379	1.603
5.1328	1.6096
5.1277	1.6177
5.1227	1.6217
5.1176	1.6186
5.1126	1.6073
5.1075	1.5895
5.1025	1.5703
5.0975	1.5556
5.0925	1.5481
5.0875	1.549
5.0825	1.5559
5.0775	1.5651
5.0726	1.5732
5.0676	1.5772
5.0627	1.577
5.0577	1.5753
5.0528	1.5751
5.0479	1.5793
5.043	1.5864
5.038	1.5928
5.0332	1.5959
5.0283	1.5916
5.0234	1.5793
5.0185	1.5623
5.0137	1.5476
5.0088	1.5407
5.004	1.544
4.9992	1.5564
4.9944	1.5751
4.9896	1.5938
4.9848	1.6077
4.98	1.6165
4.9752	1.6236
4.9704	1.6336
4.9657	1.6501
4.9609	1.6741
4.9562	1.7044
4.9514	1.7366
4.9467	1.7671
4.942	1.7951
4.9373	1.8223
4.9326	1.854
4.9279	1.8955
4.9232	1.949
4.9186	2.0167
4.9139	2.1013
4.9092	2.2066
4.9046	2.3367
4.9	2.4951
4.8953	2.6843
4.8907	2.9019
4.8861	3.1395
4.8815	3.3869
4.8769	3.638
4.8723	3.8895
4.8678	4.1403
4.8632	4.3903
4.8586	4.6418
4.8541	4.895
4.8495	5.1451
4.845	5.3873
4.8405	5.6194
4.836	5.8415
4.8315	6.0547
4.827	6.2616
4.8225	6.4684
4.818	6.6782
4.8135	6.8902
4.809	7.1009
4.8046	7.307
4.8001	7.5052
4.7957	7.6908
4.7913	7.8613
4.7868	8.0186
4.7824	8.168
4.778	8.3141
4.7736	8.4617
4.7692	8.6137
4.7648	8.77
4.7605	8.9242
4.7561	9.067
4.7517	9.1939
4.7474	9.304
4.7431	9.3976
4.7387	9.4748
4.7344	9.5366
4.7301	9.5792
4.7258	9.5936
4.7215	9.5669
4.7172	9.4876
4.7129	9.345
4.7086	9.134
4.7043	8.8593
4.7	8.5396
4.6958	8.2085
4.6915	7.9099
4.6873	7.6896
4.6831	7.5843
4.6788	7.611
4.6746	7.7673
4.6704	8.0304
4.6662	8.3676
4.662	8.7454
4.6578	9.1385
4.6536	9.5318
4.6495	9.9193
4.6453	10.3015
4.6411	10.6797
4.637	11.0505
4.6328	11.4065
4.6287	11.7371
4.6246	12.0307
4.6205	12.2798
4.6163	12.4845
4.6122	12.6509
4.6081	12.7899
4.604	12.9117
4.6	13.0237
4.5959	13.1274
4.5918	13.2172
4.5877	13.2866
4.5837	13.3304
4.5796	13.3436
4.5756	13.324
4.5716	13.2709
4.5675	13.1828
4.5635	13.0531
4.5595	12.8754
4.5555	12.6483
4.5515	12.3724
4.5475	12.0513
4.5435	11.693
4.5395	11.3063
4.5356	10.8973
4.5316	10.4689
4.5276	10.0228
4.5237	9.5631
4.5197	9.0961
4.5158	8.6322
4.5119	8.186
4.508	7.773
4.504	7.4074
4.5001	7.0978
4.4962	6.8454
4.4923	6.6443
4.4884	6.4845
4.4846	6.3554
4.4807	6.251
4.4768	6.17
4.473	6.1172
4.4691	6.1006
4.4652	6.1255
4.4614	6.1915
4.4576	6.2922
4.4537	6.417
4.4499	6.5536
4.4461	6.6912
4.4423	6.8238
4.4385	6.9524
4.4347	7.0825
4.4309	7.2198
4.4271	7.3683
4.4233	7.5298
4.4196	7.7012
4.4158	7.8774
4.412	8.0553
4.4083	8.2369
4.4045	8.429
4.4008	8.6381
4.3971	8.8711
4.3934	9.1319
4.3896	9.4182
4.3859	9.7256
4.3822	10.0483
4.3785	10.3818
4.3748	10.7192
4.3711	11.0541
4.3674	11.3816
4.3638	11.698
4.3601	11.9999
4.3564	12.2862
4.3528	12.555
4.3491	12.8051
4.3455	13.0332
4.3418	13.2363
4.3382	13.413
4.3346	13.5627
4.331	13.6846
4.3273	13.7768
4.3237	13.836
4.3201	13.8599
4.3165	13.8497
4.3129	13.8099
4.3094	13.7495
4.3058	13.6825
4.3022	13.6219
4.2986	13.5785
4.2951	13.5587
4.2915	13.5643
4.288	13.5968
4.2844	13.6562
4.2809	13.7434
4.2774	13.8611
4.2738	14.0091
4.2703	14.1827
4.2668	14.3695
4.2633	14.5519
4.2598	14.7108
4.2563	14.8299
4.2528	14.9007
4.2493	14.926
4.2458	14.9177
4.2424	14.8929
4.2389	14.8692
4.2354	14.8592
4.232	14.869
4.2285	14.8964
4.2251	14.9341
4.2216	14.9732
4.2182	15.0061
4.2148	15.0288
4.2113	15.0425
4.2079	15.0541
4.2045	15.0731
4.2011	15.1074
4.1977	15.1636
4.1943	15.2453
4.1909	15.3502
4.1875	15.4731
4.1841	15.6102
4.1808	15.7587
4.1774	15.9135
4.174	16.0682
4.1707	16.2188
4.1673	16.364
4.164	16.5004
4.1606	16.6294
4.1573	16.7559
4.154	16.8838
4.1506	17.0121
4.1473	17.14
4.144	17.2712
4.1407	17.41
4.1374	17.557
4.1341	17.7126
4.1308	17.8772
4.1275	18.0461
4.1242	18.214
4.1209	18.3824
4.1177	18.5576
4.1144	18.7447
4.1111	18.9438
4.1079	19.1525
4.1046	19.3644
4.1014	19.5719
4.0981	19.7689
4.0949	19.955
4.0917	20.1324
4.0884	20.3008
4.0852	20.459
4.082	20.6039
4.0788	20.733
4.0756	20.8443
4.0724	20.9395
4.0692	21.0205
4.066	21.0882
4.0628	21.1432
4.0596	21.1853
4.0565	21.2144
4.0533	21.2296
4.0501	21.2329
4.047	21.2272
4.0438	21.2142
4.0406	21.195
4.0375	21.1713
4.0344	21.1436
4.0312	21.1102
4.0281	21.0704
4.025	21.025
4.0218	20.9767
4.0187	20.931
4.0156	20.8938
4.0125	20.8718
4.0094	20.8682
4.0063	20.8815
4.0032	20.9082
4.0001	20.9452
3.997	20.9904
3.994	21.0444
3.9909	21.1062
3.9878	21.1739
3.9847	21.2452
3.9817	21.3167
3.9786	21.3883
3.9756	21.4647
3.9725	21.555
3.9695	21.6665
3.9665	21.8003
3.9634	21.9516
3.9604	22.1098
3.9574	22.2642
3.9544	22.4061
3.9513	22.5318
3.9483	22.6424
3.9453	22.7402
3.9423	22.8262
3.9393	22.9003
3.9363	22.9636
3.9333	23.0192
3.9304	23.0682
3.9274	23.1101
3.9244	23.1426
3.9214	23.1625
3.9185	23.166
3.9155	23.1509
3.9126	23.1206
3.9096	23.081
3.9067	23.0344
3.9037	22.9794
3.9008	22.9138
3.8979	22.8352
3.8949	22.7426
3.892	22.6384
3.8891	22.5271
3.8862	22.4106
3.8833	22.2891
3.8804	22.1634
3.8775	22.0341
3.8746	21.9052
3.8717	21.7821
3.8688	21.6713
3.8659	21.5777
3.863	21.5024
3.8601	21.4446
3.8573	21.4048
3.8544	21.3802
3.8515	21.3655
3.8487	21.3544
3.8458	21.3433
3.843	21.3317
3.8401	21.3212
3.8373	21.3167
3.8344	21.3241
3.8316	21.3473
3.8288	21.3838
3.8259	21.4266
3.8231	21.4695
3.8203	21.5069
3.8175	21.5322
3.8147	21.5401
3.8119	21.5294
3.8091	21.5036
3.8063	21.4674
3.8035	21.4264
3.8007	21.3852
3.7979	21.3459
3.7951	21.3049
3.7924	21.2521
3.7896	21.1801
3.7868	21.0877
3.7841	20.979
3.7813	20.8628
3.7785	20.7493
3.7758	20.648
3.773	20.5608
3.7703	20.4803
3.7676	20.3958
3.7648	20.2989
3.7621	20.1852
3.7594	20.0569
3.7566	19.9226
3.7539	19.7957
3.7512	19.6879
3.7485	19.6053
3.7458	19.5496
3.7431	19.5174
3.7404	19.5006
3.7377	19.4911
3.735	19.4831
3.7323	19.4743
3.7296	19.4663
3.7269	19.4648
3.7242	19.4779
3.7216	19.5113
3.7189	19.5652
3.7162	19.6368
3.7136	19.7189
3.7109	19.8025
3.7083	19.8804
3.7056	19.9503
3.703	20.0112
3.7003	20.0649
3.6977	20.1154
3.695	20.1646
3.6924	20.2141
3.6898	20.2667
3.6872	20.3247
3.6845	20.3901
3.6819	20.4599
3.6793	20.5298
3.6767	20.5966
3.6741	20.6537
3.6715	20.6941
3.6689	20.7171
3.6663	20.7254
3.6637	20.7221
3.6611	20.7095
3.6585	20.6911
3.656	20.6707
3.6534	20.6477
3.6508	20.6179
3.6482	20.5802
3.6457	20.535
3.6431	20.4815
3.6406	20.4213
3.638	20.3588
3.6355	20.2989
3.6329	20.2418
3.6304	20.1852
3.6278	20.1296
3.6253	20.0723
3.6227	20.0105
3.6202	19.9437
3.6177	19.8745
3.6152	19.8032
3.6127	19.731
3.6101	19.6588
3.6076	19.5882
3.6051	19.5195
3.6026	19.4528
3.6001	19.3895
3.5976	19.3287
3.5951	19.268
3.5926	19.2074
3.5901	19.1466
3.5876	19.0829
3.5852	19.0139
3.5827	18.9408
3.5802	18.8655
3.5777	18.788
3.5753	18.7111
3.5728	18.6402
3.5704	18.5789
3.5679	18.5256
3.5654	18.4799
3.563	18.4397
3.5605	18.4006
3.5581	18.357
3.5557	18.3044
3.5532	18.24
3.5508	18.1619
3.5484	18.0712
3.5459	17.9746
3.5435	17.8786
3.5411	17.7889
3.5387	17.7107
3.5363	17.6428
3.5338	17.581
3.5314	17.5206
3.529	17.4597
3.5266	17.3972
3.5242	17.3295
3.5218	17.2537
3.5195	17.1673
3.5171	17.0652
3.5147	16.9491
3.5123	16.8284
3.5099	16.7159
3.5075	16.6221
3.5052	16.5511
3.5028	16.5009
3.5004	16.462
3.4981	16.4215
3.4957	16.3725
3.4934	16.3152
3.491	16.2529
3.4887	16.1887
3.4863	16.1257
3.484	16.0644
3.4816	16.0019
3.4793	15.9356
3.477	15.8655
3.4746	15.794
3.4723	15.7234
3.47	15.6542
3.4677	15.5839
3.4653	15.5076
3.463	15.4207
3.4607	15.3227
3.4584	15.2159
3.4561	15.1072
3.4538	15.0054
3.4515	14.9163
3.4492	14.8382
3.4469	14.7657
3.4446	14.693
3.4423	14.6172
3.44	14.5374
3.4378	14.4545
3.4355	14.3719
3.4332	14.2899
3.4309	14.2037
3.4287	14.1092
3.4264	14.0072
3.4241	13.9035
3.4219	13.8047
3.4196	13.7178
3.4174	13.6458
3.4151	13.5852
3.4129	13.5267
3.4106	13.4608
3.4084	13.3844
3.4061	13.2993
3.4039	13.2122
3.4017	13.1321
3.3994	13.0654
3.3972	13.0104
3.395	12.9602
3.3928	12.9053
3.3906	12.8368
3.3883	12.7499
3.3861	12.6481
3.3839	12.5422
3.3817	12.4435
3.3795	12.3587
3.3773	12.2912
3.3751	12.2408
3.3729	12.2008
3.3707	12.1614
3.3685	12.1164
3.3663	12.0632
3.3641	12.0006
3.362	11.9301
3.3598	11.8578
3.3576	11.7918
3.3554	11.7356
3.3533	11.6899
3.3511	11.6525
3.3489	11.6187
3.3468	11.581
3.3446	11.5317
3.3425	11.4706
3.3403	11.4005
3.3382	11.3262
3.336	11.2535
3.3339	11.186
3.3317	11.123
3.3296	11.0576
3.3274	10.9842
3.3253	10.9028
3.3232	10.818
3.321	10.7386
3.3189	10.6728
3.3168	10.6226
3.3147	10.5826
3.3126	10.5411
3.3104	10.4886
3.3083	10.4213
3.3062	10.3413
3.3041	10.2541
3.302	10.1658
3.2999	10.082
3.2978	10.005
3.2957	9.9354
3.2936	9.8729
3.2915	9.8179
3.2894	9.767
3.2874	9.713
3.2853	9.6493
3.2832	9.5723
3.2811	9.4852
3.279	9.3933
3.277	9.3062
3.2749	9.2318
