Name: Aplite
Type: Rocks
Class: Igneous
Subclass: Felsic
Particle Size: 0-75 micrometers
Sample No.: Aplite.H1
Owner: JHU
Wavelength range: All
Origin: From Boulder County, Colorado via Ward's Scientific (Cat. No. W-
101)
Description: Powder derived from sample: fine-grained to medium-grained 
leucocratic rock composed of quartz, feldspar, micas and opaques.




Measurement: Directional (10 degree) hemispherical reflectance
First Column: X
Second Column: Y
X Units: Wavelength (micrometers)
Y Units: Reflectance (percent)
First X Value: 14.0112
Last X Value: 0.4000
Number of X Values: 2844
Additional information:	see file aplite1a.doc

14.011	1.5075
13.973	1.4888
13.936	2.3925
13.899	1.9688
13.861	1.2037
13.824	2.5387
13.788	2.9213
13.751	2.8950
13.715	3.2100
13.679	2.6569
13.643	2.3400
13.607	3.1218
13.571	3.5700
13.536	2.9418
13.500	2.3268
13.465	2.2837
13.430	2.8894
13.396	2.9831
13.361	2.6119
13.327	2.6700
13.293	2.5800
13.259	2.6175
13.225	2.5135
13.191	2.3512
13.158	2.2650
13.124	2.1459
13.091	2.1712
13.058	2.2631
13.026	2.1684
12.993	1.9659
12.960	2.0231
12.928	2.0906
12.896	1.8787
12.864	1.9135
12.832	2.0611
12.800	1.9716
12.769	1.9678
12.737	1.9050
12.706	1.7868
12.675	1.7255
12.644	1.8825
12.614	2.0062
12.583	1.9359
12.552	1.9932
12.522	2.2711
12.492	2.5725
12.462	2.6916
12.432	2.6813
12.402	2.6986
12.373	2.7740
12.343	2.9301
12.314	3.1795
12.285	3.4673
12.256	4.0436
12.227	4.4728
12.198	4.7506
12.169	5.2568
12.141	5.7274
12.113	6.1116
12.084	6.4504
12.056	6.7210
12.028	7.0755
12.000	7.2605
11.973	7.3990
11.945	7.5836
11.918	7.7100
11.890	7.8576
11.863	7.8665
11.836	7.8347
11.809	7.8852
11.782	7.9231
11.755	7.9465
11.729	7.9455
11.702	7.8839
11.676	7.8921
11.650	7.9293
11.624	7.8802
11.598	7.9231
11.572	7.8785
11.546	7.7756
11.520	7.7449
11.495	7.8182
11.469	7.8396
11.444	7.7890
11.419	7.7320
11.394	7.7296
11.369	7.7145
11.344	7.6743
11.319	7.6284
11.294	7.5122
11.270	7.4070
11.245	7.3455
11.221	7.2342
11.197	7.0355
11.173	6.8623
11.149	6.7176
11.125	6.5480
11.101	6.4078
11.077	6.2925
11.054	6.0853
11.030	5.9062
11.007	5.8096
10.983	5.7037
10.960	5.6166
10.937	5.4881
10.914	5.3644
10.891	5.2332
10.868	5.0808
10.846	4.9683
10.823	4.8989
10.800	4.8581
10.778	4.7714
10.756	4.6668
10.733	4.5267
10.711	4.3971
10.689	4.3242
10.667	4.2457
10.645	4.1906
10.623	4.1501
10.602	4.1011
10.580	4.0735
10.558	4.0050
10.537	3.9257
10.516	3.9117
10.494	3.8716
10.473	3.7950
10.452	3.7786
10.431	3.7664
10.410	3.7260
10.389	3.6780
10.368	3.6504
10.348	3.6298
10.327	3.6436
10.306	3.6436
10.286	3.6244
10.266	3.6262
10.245	3.6530
10.225	3.6851
10.205	3.6516
10.185	3.6764
10.165	3.7085
10.145	3.6904
10.125	3.6694
10.106	3.7031
10.086	3.7524
10.066	3.8184
10.047	3.8517
10.027	3.9014
10.008	3.9342
9.9887	3.9501
9.9695	3.9963
9.9504	4.0898
9.9313	4.1147
9.9123	4.1128
9.8934	4.1221
9.8746	4.0823
9.8558	4.0767
9.8371	4.0875
9.8185	4.0397
9.7999	3.9792
9.7814	3.9080
9.7630	3.8864
9.7447	3.9375
9.7264	3.9607
9.7082	3.9896
9.6900	3.9698
9.6719	3.9155
9.6539	3.9468
9.6360	4.0114
9.6181	4.0338
9.6003	3.9787
9.5825	3.9372
9.5649	3.9792
9.5472	4.0003
9.5297	3.9979
9.5122	4.0017
9.4948	3.9881
9.4774	3.9722
9.4601	4.0153
9.4429	4.0655
9.4257	4.0823
9.4086	4.1873
9.3916	4.4184
9.3746	4.6647
9.3577	4.8642
9.3408	5.0503
9.3240	5.1753
9.3073	5.2763
9.2906	5.3257
9.2740	5.3527
9.2574	5.3854
9.2409	5.3213
9.2245	5.2563
9.2081	5.2865
9.1918	5.2732
9.1755	5.1782
9.1593	5.0888
9.1431	5.0535
9.1270	5.0226
9.1110	4.9350
9.0950	4.8496
9.0791	4.8483
9.0632	4.8379
9.0474	4.7960
9.0316	4.7639
9.0159	4.7428
9.0003	4.7292
8.9847	4.7245
8.9691	4.7226
8.9536	4.7174
8.9382	4.7325
8.9228	4.7460
8.9075	4.7423
8.8922	4.7226
8.8770	4.7494
8.8618	4.7864
8.8467	4.7878
8.8316	4.7388
8.8166	4.7460
8.8016	4.7878
8.7867	4.7798
8.7718	4.7550
8.7570	4.7644
8.7423	4.7587
8.7275	4.7363
8.7129	4.7330
8.6982	4.7067
8.6837	4.6036
8.6692	4.5211
8.6547	4.3948
8.6403	4.2094
8.6259	4.1316
8.6116	4.2778
8.5973	4.5375
8.5830	4.7774
8.5688	4.9327
8.5547	5.0597
8.5406	5.1804
8.5266	5.2392
8.5126	5.2704
8.4986	5.3273
8.4847	5.3747
8.4708	5.3920
8.4570	5.4108
8.4432	5.4278
8.4295	5.4384
8.4158	5.4295
8.4022	5.4501
8.3886	5.4876
8.3750	5.5378
8.3615	5.5467
8.3481	5.5668
8.3347	5.6205
8.3213	5.6826
8.3079	5.6916
8.2946	5.7223
8.2814	5.8045
8.2682	5.8964
8.2550	5.9761
8.2419	6.0218
8.2288	6.0663
8.2158	6.0813
8.2028	6.0539
8.1898	6.0234
8.1769	5.9463
8.1640	5.7904
8.1512	5.6316
8.1384	5.4270
8.1256	5.1886
8.1129	4.9034
8.1002	4.6378
8.0876	4.4091
8.0750	4.1491
8.0624	3.9145
8.0499	3.7254
8.0374	3.5109
8.0250	3.3543
8.0126	3.2149
8.0002	3.0516
7.9879	2.8865
7.9756	2.7199
7.9634	2.5533
7.9512	2.3850
7.9390	2.2376
7.9268	2.0935
7.9147	1.9483
7.9027	1.8211
7.8906	1.6985
7.8786	1.6031
7.8667	1.5161
7.8548	1.4353
7.8429	1.3641
7.8310	1.3045
7.8192	1.2618
7.8075	1.2225
7.7957	1.1730
7.7840	1.1306
7.7723	1.1283
7.7607	1.1297
7.7491	1.1025
7.7375	1.0769
7.7260	1.0500
7.7145	1.0186
7.7031	1.0106
7.6916	0.9888
7.6802	0.9919
7.6689	0.9804
7.6575	0.9426
7.6462	0.9239
7.6350	0.9351
7.6238	0.9478
7.6126	0.9567
7.6014	0.9421
7.5903	0.9283
7.5792	0.9543
7.5681	0.9907
7.5571	1.0202
7.5461	1.0193
7.5351	1.0158
7.5242	1.0610
7.5133	1.1051
7.5024	1.1353
7.4916	1.1604
7.4807	1.1831
7.4700	1.2174
7.4592	1.2543
7.4485	1.3153
7.4378	1.3603
7.4272	1.3917
7.4165	1.4330
7.4059	1.4899
7.3954	1.5501
7.3848	1.5839
7.3743	1.6282
7.3639	1.6668
7.3534	1.7076
7.3430	1.7707
7.3326	1.8314
7.3223	1.8878
7.3119	1.9652
7.3016	2.0213
7.2914	2.0836
7.2811	2.1755
7.2709	2.2575
7.2607	2.3628
7.2506	2.4581
7.2404	2.5265
7.2303	2.6107
7.2203	2.7110
7.2102	2.8067
7.2002	2.8839
7.1902	2.9632
7.1803	3.0429
7.1703	3.1420
7.1604	3.2561
7.1506	3.3468
7.1407	3.4818
7.1309	3.6473
7.1211	3.7507
7.1113	3.8412
7.1016	3.9778
7.0919	4.0847
7.0822	4.1460
7.0725	4.2260
7.0629	4.3335
7.0533	4.3924
7.0437	4.4714
7.0341	4.5576
7.0246	4.6233
7.0151	4.6805
7.0056	4.7416
6.9962	4.8037
6.9867	4.8732
6.9773	4.9629
6.9679	5.0229
6.9586	5.0829
6.9493	5.1740
6.9400	5.2753
6.9307	5.4018
6.9214	5.4841
6.9122	5.5151
6.9030	5.5807
6.8938	5.6501
6.8847	5.7135
6.8755	5.7665
6.8664	5.7921
6.8573	5.8176
6.8483	5.8385
6.8393	5.8613
6.8302	5.9070
6.8213	5.9268
6.8123	5.9236
6.8034	5.9187
6.7944	5.9236
6.7855	5.9254
6.7767	5.9402
6.7678	5.9452
6.7590	5.9498
6.7502	5.9353
6.7414	5.9259
6.7327	5.9538
6.7239	5.9774
6.7152	6.0249
6.7065	6.0675
6.6979	6.1289
6.6892	6.2358
6.6806	6.3555
6.6720	6.4547
6.6634	6.5550
6.6549	6.6445
6.6464	6.7218
6.6378	6.7638
6.6294	6.7943
6.6209	6.8288
6.6124	6.8413
6.6040	6.8672
6.5956	6.8967
6.5872	6.8955
6.5789	6.8920
6.5705	6.9156
6.5622	6.9504
6.5539	6.9579
6.5457	6.9935
6.5374	7.1322
6.5292	7.3242
6.5209	7.5291
6.5128	7.7997
6.5046	8.0836
6.4964	8.3531
6.4883	8.5725
6.4802	8.7644
6.4721	8.9465
6.4640	9.1104
6.4560	9.2316
6.4480	9.3389
6.4399	9.4406
6.4320	9.4903
6.4240	9.5002
6.4160	9.4994
6.4081	9.4725
6.4002	9.3813
6.3923	9.2768
6.3844	9.1542
6.3766	9.0122
6.3687	8.8748
6.3609	8.7311
6.3531	8.5935
6.3454	8.4727
6.3376	8.3179
6.3299	8.1366
6.3221	7.9769
6.3144	7.8117
6.3068	7.6148
6.2991	7.4532
6.2914	7.3244
6.2838	7.1758
6.2762	7.0369
6.2686	6.8930
6.2611	6.7908
6.2535	6.6756
6.2460	6.5573
6.2385	6.4922
6.2310	6.4319
6.2235	6.3928
6.2160	6.3919
6.2086	6.3893
6.2011	6.4327
6.1937	6.5233
6.1863	6.6438
6.1790	6.8029
6.1716	7.0024
6.1643	7.2485
6.1570	7.5223
6.1496	7.7803
6.1424	8.0606
6.1351	8.3125
6.1278	8.5500
6.1206	8.8134
6.1134	9.0241
6.1062	9.2367
6.0990	9.4449
6.0918	9.6077
6.0847	9.7574
6.0776	9.9068
6.0704	10.037
6.0633	10.107
6.0563	10.139
6.0492	10.202
6.0421	10.246
6.0351	10.253
6.0281	10.279
6.0211	10.287
6.0141	10.284
6.0071	10.265
6.0002	10.208
5.9932	10.104
5.9863	9.9616
5.9794	9.8402
5.9725	9.7495
5.9657	9.6257
5.9588	9.4774
5.9520	9.3794
5.9451	9.3398
5.9383	9.3267
5.9315	9.3457
5.9247	9.4130
5.9180	9.5130
5.9112	9.6415
5.9045	9.8275
5.8978	10.022
5.8911	10.190
5.8844	10.359
5.8777	10.537
5.8711	10.681
5.8644	10.820
5.8578	10.979
5.8512	11.143
5.8446	11.262
5.8380	11.372
5.8314	11.498
5.8249	11.613
5.8184	11.690
5.8118	11.746
5.8053	11.796
5.7988	11.845
5.7923	11.936
5.7859	11.996
5.7794	12.023
5.7730	12.094
5.7666	12.156
5.7602	12.180
5.7538	12.188
5.7474	12.211
5.7410	12.265
5.7347	12.292
5.7283	12.315
5.7220	12.349
5.7157	12.336
5.7094	12.326
5.7031	12.296
5.6969	12.223
5.6906	12.144
5.6844	12.050
5.6782	11.917
5.6719	11.759
5.6657	11.567
5.6596	11.350
5.6534	11.130
5.6472	10.906
5.6411	10.690
5.6349	10.506
5.6288	10.350
5.6227	10.266
5.6166	10.217
5.6106	10.156
5.6045	10.124
5.5984	10.097
5.5924	10.088
5.5864	10.093
5.5804	10.085
5.5744	10.127
5.5684	10.191
5.5624	10.273
5.5564	10.392
5.5505	10.574
5.5445	10.793
5.5386	11.046
5.5327	11.343
5.5268	11.670
5.5209	11.990
5.5151	12.291
5.5092	12.597
5.5033	12.901
5.4975	13.188
5.4917	13.462
5.4859	13.721
5.4801	13.964
5.4743	14.192
5.4685	14.395
5.4628	14.568
5.4570	14.706
5.4513	14.805
5.4455	14.866
5.4398	14.877
5.4341	14.834
5.4284	14.731
5.4228	14.570
5.4171	14.337
5.4114	14.064
5.4058	13.704
5.4002	13.241
5.3945	12.788
5.3889	12.376
5.3833	11.969
5.3778	11.586
5.3722	11.304
5.3666	11.083
5.3611	10.908
5.3555	10.816
5.3500	10.785
5.3445	10.784
5.3390	10.827
5.3335	10.921
5.3280	11.024
5.3225	11.122
5.3171	11.212
5.3116	11.322
5.3062	11.463
5.3008	11.594
5.2954	11.748
5.2900	11.947
5.2846	12.146
5.2792	12.396
5.2738	12.712
5.2684	13.035
5.2631	13.361
5.2578	13.722
5.2524	14.101
5.2471	14.546
5.2418	15.009
5.2365	15.507
5.2312	16.049
5.2260	16.584
5.2207	17.081
5.2154	17.535
5.2102	17.908
5.2050	18.220
5.1998	18.500
5.1945	18.681
5.1893	18.821
5.1842	18.937
5.1790	19.020
5.1738	19.109
5.1686	19.184
5.1635	19.263
5.1584	19.356
5.1532	19.426
5.1481	19.484
5.1430	19.544
5.1379	19.607
5.1328	19.687
5.1277	19.782
5.1227	19.927
5.1176	20.074
5.1126	20.186
5.1075	20.287
5.1025	20.376
5.0975	20.348
5.0925	20.266
5.0875	20.177
5.0825	20.092
5.0775	20.008
5.0726	19.935
5.0676	19.893
5.0627	19.890
5.0577	19.921
5.0528	19.945
5.0479	19.976
5.0430	20.032
5.0380	20.102
5.0332	20.146
5.0283	20.158
5.0234	20.186
5.0185	20.230
5.0137	20.285
5.0088	20.366
5.0040	20.504
4.9992	20.662
4.9944	20.847
4.9896	21.090
4.9848	21.401
4.9800	21.784
4.9752	22.252
4.9704	22.801
4.9657	23.406
4.9609	24.017
4.9562	24.510
4.9514	24.899
4.9467	25.203
4.9420	25.430
4.9373	25.640
4.9326	25.851
4.9279	26.097
4.9232	26.423
4.9186	26.874
4.9139	27.428
4.9092	28.084
4.9046	28.818
4.9000	29.623
4.8953	30.482
4.8907	31.292
4.8861	32.005
4.8815	32.646
4.8769	33.199
4.8723	33.703
4.8678	34.150
4.8632	34.544
4.8586	34.903
4.8541	35.202
4.8495	35.475
4.8450	35.718
4.8405	35.926
4.8360	36.112
4.8315	36.284
4.8270	36.459
4.8225	36.610
4.8180	36.711
4.8135	36.783
4.8090	36.849
4.8046	36.896
4.8001	36.935
4.7957	36.977
4.7913	37.043
4.7868	37.065
4.7824	37.117
4.7780	37.195
4.7736	37.252
4.7692	37.332
4.7648	37.452
4.7605	37.595
4.7561	37.728
4.7517	37.880
4.7474	38.045
4.7431	38.228
4.7387	38.385
4.7344	38.470
4.7301	38.569
4.7258	38.621
4.7215	38.642
4.7172	38.652
4.7129	38.653
4.7086	38.666
4.7043	38.628
4.7000	38.534
4.6958	38.441
4.6915	38.374
4.6873	38.298
4.6831	38.271
4.6788	38.367
4.6746	38.535
4.6704	38.766
4.6662	39.029
4.6620	39.267
4.6578	39.521
4.6536	39.791
4.6495	40.031
4.6453	40.305
4.6411	40.604
4.6370	40.919
4.6328	41.192
4.6287	41.469
4.6246	41.764
4.6205	42.043
4.6163	42.319
4.6122	42.578
4.6081	42.820
4.6040	43.077
4.6000	43.289
4.5959	43.522
4.5918	43.738
4.5877	43.906
4.5837	44.119
4.5796	44.306
4.5756	44.488
4.5716	44.680
4.5675	44.869
4.5635	45.084
4.5595	45.294
4.5555	45.462
4.5515	45.590
4.5475	45.749
4.5435	45.850
4.5395	45.915
4.5356	45.976
4.5316	45.993
4.5276	45.984
4.5237	45.982
4.5197	45.946
4.5158	45.859
4.5119	45.768
4.5080	45.639
4.5040	45.494
4.5001	45.400
4.4962	45.361
4.4923	45.367
4.4884	45.389
4.4846	45.453
4.4807	45.516
4.4768	45.554
4.4730	45.627
4.4691	45.740
4.4652	45.876
4.4614	46.079
4.4576	46.345
4.4537	46.697
4.4499	47.037
4.4461	47.309
4.4423	47.549
4.4385	47.785
4.4347	47.981
4.4309	48.184
4.4271	48.426
4.4233	48.688
4.4196	48.932
4.4158	49.203
4.4120	49.456
4.4083	49.691
4.4045	49.951
4.4008	50.257
4.3971	50.593
4.3934	50.919
4.3896	51.240
4.3859	51.561
4.3822	51.876
4.3785	52.209
4.3748	52.529
4.3711	52.847
4.3674	53.173
4.3638	53.433
4.3601	53.703
4.3564	54.004
4.3528	54.264
4.3491	54.516
4.3455	54.757
4.3418	54.999
4.3382	55.228
4.3346	55.424
4.3310	55.585
4.3273	55.758
4.3237	55.934
4.3201	56.077
4.3165	56.194
4.3129	56.308
4.3094	56.378
4.3058	56.454
4.3022	56.535
4.2986	56.606
4.2951	56.708
4.2915	56.803
4.2880	56.897
4.2844	57.047
4.2809	57.204
4.2774	57.323
4.2738	57.482
4.2703	57.705
4.2668	57.954
4.2633	58.189
4.2598	58.383
4.2563	58.573
4.2528	58.679
4.2493	58.700
4.2458	58.672
4.2424	58.679
4.2389	58.700
4.2354	58.726
4.2320	58.797
4.2285	58.940
4.2251	59.112
4.2216	59.249
4.2182	59.324
4.2148	59.453
4.2113	59.574
4.2079	59.669
4.2045	59.759
4.2011	59.830
4.1977	59.879
4.1943	59.946
4.1909	60.053
4.1875	60.192
4.1841	60.286
4.1808	60.401
4.1774	60.514
4.1740	60.615
4.1707	60.727
4.1673	60.844
4.1640	60.918
4.1606	60.964
4.1573	61.042
4.1540	61.153
4.1506	61.236
4.1473	61.331
4.1440	61.377
4.1407	61.425
4.1374	61.498
4.1341	61.585
4.1308	61.682
4.1275	61.767
4.1242	61.810
4.1209	61.924
4.1177	62.016
4.1144	62.091
4.1111	62.147
4.1079	62.234
4.1046	62.293
4.1014	62.356
4.0981	62.417
4.0949	62.504
4.0917	62.578
4.0884	62.683
4.0852	62.778
4.0820	62.790
4.0788	62.811
4.0756	62.851
4.0724	62.841
4.0692	62.891
4.0660	62.937
4.0628	62.964
4.0596	62.988
4.0565	62.947
4.0533	62.905
4.0501	62.904
4.0470	62.867
4.0438	62.790
4.0406	62.687
4.0375	62.607
4.0344	62.523
4.0312	62.445
4.0281	62.351
4.0250	62.249
4.0218	62.166
4.0187	62.051
4.0156	61.921
4.0125	61.832
4.0094	61.700
4.0063	61.522
4.0032	61.352
4.0001	61.182
3.9970	61.011
3.9940	60.838
3.9909	60.719
3.9878	60.644
3.9847	60.556
3.9817	60.515
3.9786	60.504
3.9756	60.557
3.9725	60.667
3.9695	60.757
3.9665	60.875
3.9634	61.029
3.9604	61.174
3.9574	61.326
3.9544	61.524
3.9513	61.759
3.9483	61.970
3.9453	62.170
3.9423	62.391
3.9393	62.628
3.9363	62.791
3.9333	62.847
3.9304	62.869
3.9274	62.961
3.9244	63.025
3.9214	63.053
3.9185	63.115
3.9155	63.179
3.9126	63.182
3.9096	63.196
3.9067	63.189
3.9037	63.206
3.9008	63.207
3.8979	63.236
3.8949	63.238
3.8920	63.223
3.8891	63.196
3.8862	63.171
3.8833	63.187
3.8804	63.176
3.8775	63.165
3.8746	63.140
3.8717	63.116
3.8688	63.109
3.8659	63.095
3.8630	63.138
3.8601	63.169
3.8573	63.166
3.8544	63.171
3.8515	63.198
3.8487	63.216
3.8458	63.230
3.8430	63.296
3.8401	63.338
3.8373	63.434
3.8344	63.513
3.8316	63.563
3.8288	63.641
3.8259	63.728
3.8231	63.849
3.8203	63.938
3.8175	64.006
3.8147	64.086
3.8119	64.158
3.8091	64.204
3.8063	64.275
3.8035	64.335
3.8007	64.384
3.7979	64.455
3.7951	64.492
3.7924	64.507
3.7896	64.551
3.7868	64.576
3.7841	64.588
3.7813	64.576
3.7785	64.540
3.7758	64.499
3.7730	64.498
3.7703	64.495
3.7676	64.473
3.7648	64.415
3.7621	64.378
3.7594	64.381
3.7566	64.367
3.7539	64.313
3.7512	64.282
3.7485	64.288
3.7458	64.287
3.7431	64.263
3.7404	64.253
3.7377	64.235
3.7350	64.239
3.7323	64.247
3.7296	64.290
3.7269	64.311
3.7242	64.269
3.7216	64.279
3.7189	64.369
3.7162	64.409
3.7136	64.403
3.7109	64.442
3.7083	64.466
3.7056	64.500
3.7030	64.519
3.7003	64.566
3.6977	64.615
3.6950	64.662
3.6924	64.696
3.6898	64.725
3.6872	64.736
3.6845	64.716
3.6819	64.720
3.6793	64.777
3.6767	64.854
3.6741	64.865
3.6715	64.855
3.6689	64.860
3.6663	64.895
3.6637	64.887
3.6611	64.879
3.6585	64.896
3.6560	64.916
3.6534	64.897
3.6508	64.873
3.6482	64.874
3.6457	64.890
3.6431	64.845
3.6406	64.837
3.6380	64.805
3.6355	64.749
3.6329	64.723
3.6304	64.775
3.6278	64.759
3.6253	64.690
3.6227	64.640
3.6202	64.626
3.6177	64.605
3.6152	64.606
3.6127	64.573
3.6101	64.506
3.6076	64.491
3.6051	64.468
3.6026	64.420
3.6001	64.398
3.5976	64.386
3.5951	64.355
3.5926	64.326
3.5901	64.303
3.5876	64.262
3.5852	64.218
3.5827	64.189
3.5802	64.131
3.5777	64.087
3.5753	64.056
3.5728	63.998
3.5704	63.969
3.5679	63.947
3.5654	63.899
3.5630	63.897
3.5605	63.882
3.5581	63.821
3.5557	63.784
3.5532	63.738
3.5508	63.704
3.5484	63.653
3.5459	63.555
3.5435	63.515
3.5411	63.463
3.5387	63.362
3.5363	63.250
3.5338	63.152
3.5314	63.053
3.5290	62.938
3.5266	62.811
3.5242	62.662
3.5218	62.460
3.5195	62.255
3.5171	62.090
3.5147	61.918
3.5123	61.724
3.5099	61.482
3.5075	61.307
3.5052	61.132
3.5028	60.969
3.5004	60.853
3.4981	60.794
3.4957	60.771
3.4934	60.780
3.4910	60.776
3.4887	60.755
3.4863	60.688
3.4840	60.593
3.4816	60.540
3.4793	60.507
3.4770	60.472
3.4746	60.483
3.4723	60.515
3.4700	60.569
3.4677	60.691
3.4653	60.772
3.4630	60.749
3.4607	60.785
3.4584	60.817
3.4561	60.817
3.4538	60.749
3.4515	60.692
3.4492	60.629
3.4469	60.539
3.4446	60.429
3.4423	60.392
3.4400	60.304
3.4378	60.181
3.4355	60.072
3.4332	59.969
3.4309	59.813
3.4287	59.652
3.4264	59.461
3.4241	59.229
3.4219	59.031
3.4196	58.896
3.4174	58.774
3.4151	58.730
3.4129	58.672
3.4106	58.668
3.4084	58.693
3.4061	58.710
3.4039	58.766
3.4017	58.822
3.3994	58.846
3.3972	58.866
3.3950	58.868
3.3928	58.899
3.3906	58.854
3.3883	58.796
3.3861	58.754
3.3839	58.712
3.3817	58.612
3.3795	58.515
3.3773	58.495
3.3751	58.461
3.3729	58.401
3.3707	58.369
3.3685	58.365
3.3663	58.341
3.3641	58.308
3.3620	58.285
3.3598	58.208
3.3576	58.140
3.3554	58.129
3.3533	58.078
3.3511	58.057
3.3489	58.068
3.3468	58.026
3.3446	58.057
3.3425	58.139
3.3403	58.232
3.3382	58.286
3.3360	58.336
3.3339	58.379
3.3317	58.312
3.3296	58.237
3.3274	58.232
3.3253	58.208
3.3232	58.164
3.3210	58.112
3.3189	58.050
3.3168	57.951
3.3147	57.885
3.3126	57.853
3.3104	57.798
3.3083	57.719
3.3062	57.661
3.3041	57.583
3.3020	57.519
3.2999	57.476
3.2978	57.413
3.2957	57.315
3.2936	57.227
3.2915	57.133
3.2894	57.054
3.2874	56.982
3.2853	56.917
3.2832	56.813
3.2811	56.746
3.2790	56.673
3.2770	56.559
3.2749	56.456
3.2728	56.407
3.2708	56.341
3.2687	56.263
3.2666	56.193
3.2646	56.075
3.2625	55.962
3.2605	55.901
3.2584	55.796
3.2564	55.666
3.2543	55.562
3.2523	55.501
3.2503	55.423
3.2482	55.341
3.2462	55.211
3.2442	55.134
3.2421	55.060
3.2401	54.939
3.2381	54.784
3.2361	54.683
3.2340	54.619
3.2320	54.519
3.2300	54.416
3.2280	54.255
3.2260	54.127
3.2240	54.089
3.2220	53.993
3.2200	53.872
3.2180	53.772
3.2160	53.636
3.2140	53.522
3.2120	53.412
3.2100	53.296
3.2080	53.221
3.2060	53.093
3.2041	52.936
3.2021	52.802
3.2001	52.698
3.1981	52.599
3.1961	52.476
3.1942	52.356
3.1922	52.264
3.1902	52.200
3.1883	52.069
3.1863	51.911
3.1844	51.761
3.1824	51.680
3.1805	51.648
3.1785	51.533
3.1766	51.403
3.1746	51.280
3.1727	51.196
3.1707	51.122
3.1688	50.991
3.1669	50.876
3.1649	50.778
3.1630	50.687
3.1611	50.627
3.1591	50.485
3.1572	50.392
3.1553	50.302
3.1534	50.211
3.1515	50.101
3.1495	49.969
3.1476	49.868
3.1457	49.800
3.1438	49.719
3.1419	49.647
3.1400	49.514
3.1381	49.396
3.1362	49.285
3.1343	49.173
3.1324	49.110
3.1305	49.068
3.1286	48.995
