Name: Green Slate
Type:  Rocks
Class:  Metamorphic 
Subclass: Slate
Particle Size:  500-1500 Micrometer
Sample No.:   slate2.doc
Owner:  JHU
Wavelength Range:  All
Origin:  Sample No. 461, The Hunt and Salisbury Collection at the U.S. 
Geological Survey, Denver, Co.
Description: This is a medium-grained sample dissected by thin veins.  
Microscopically it consists of about equal amounts of actinolite and recrystallized 
albite lathes.  The groundmass also consists of some chlorite, and carbonate, 
which is especially prominent in the veins, along with scattered pyrite.  Modes 
were 59.3% amphibole, 25.7% albite, 10.8% chlorite, 3% calcite and 1% pyrite.

Measurement:  Directional (10 Degree) Hemispherical Reflectance
First Column:  X
Second Column:  Y  
X Units:  Wavelength (micrometers)
Y Units:  Reflectance (percent)
First X Value: 14.0112	
Last X Value:  0.4
Number of X Values: 2844
Additional Information:  None

14.0112	2.3043
13.9734	2.3368
13.9359	2.3624
13.8985	2.3799
13.8614	2.3889
13.8244	2.3911
13.7876	2.3909
13.7511	2.3878
13.7147	2.3856
13.6785	2.3889
13.6425	2.4017
13.6067	2.422
13.5711	2.448
13.5356	2.4763
13.5004	2.5028
13.4653	2.5244
13.4304	2.5455
13.3957	2.5705
13.3612	2.6029
13.3269	2.6412
13.2927	2.6782
13.2587	2.7022
13.2249	2.7015
13.1912	2.6689
13.1577	2.6034
13.1244	2.5064
13.0913	2.3888
13.0583	2.2648
13.0255	2.1495
12.9929	2.0566
12.9604	2
12.9281	1.9904
12.8959	2.0317
12.8639	2.1143
12.8321	2.2174
12.8004	2.3177
12.7688	2.3962
12.7375	2.4426
12.7063	2.4572
12.6752	2.4522
12.6443	2.4447
12.6135	2.4402
12.5829	2.4347
12.5524	2.4244
12.5221	2.4115
12.4919	2.4005
12.4619	2.3987
12.432	2.4153
12.4023	2.4536
12.3727	2.5071
12.3432	2.5658
12.3139	2.6206
12.2847	2.6713
12.2557	2.7225
12.2268	2.7805
12.198	2.8447
12.1694	2.9086
12.1409	2.9616
12.1125	2.9941
12.0843	3.0017
12.0562	2.9921
12.0282	2.983
12.0003	2.9905
11.9726	3.0223
11.945	3.0768
11.9176	3.1438
11.8903	3.2074
11.8631	3.2534
11.836	3.2761
11.809	3.2773
11.7822	3.2657
11.7555	3.2544
11.7289	3.2562
11.7024	3.2788
11.676	3.3221
11.6498	3.379
11.6237	3.4383
11.5977	3.4884
11.5718	3.5264
11.546	3.5575
11.5203	3.5915
11.4948	3.6396
11.4694	3.7077
11.444	3.7908
11.4188	3.8767
11.3937	3.9547
11.3688	4.0188
11.3439	4.0686
11.3191	4.1116
11.2944	4.1585
11.2699	4.215
11.2455	4.2784
11.2211	4.3396
11.1969	4.3911
11.1727	4.4265
11.1487	4.4427
11.1248	4.4447
11.101	4.4406
11.0773	4.438
11.0536	4.4418
11.0301	4.4521
11.0067	4.4698
10.9834	4.4961
10.9602	4.5279
10.937	4.5636
10.914	4.6029
10.8911	4.6464
10.8682	4.6923
10.8455	4.7349
10.8229	4.7727
10.8003	4.8115
10.7779	4.8529
10.7555	4.8988
10.7332	4.9541
10.7111	5.0249
10.689	5.1122
10.667	5.2141
10.6451	5.3323
10.6233	5.4687
10.6015	5.6166
10.5799	5.7647
10.5584	5.9018
10.5369	6.0199
10.5155	6.1176
10.4942	6.1994
10.473	6.2759
10.4519	6.3569
10.4309	6.4439
10.4099	6.5365
10.3891	6.6288
10.3683	6.7153
10.3476	6.7956
10.327	6.872
10.3065	6.9454
10.286	7.0167
10.2656	7.0878
10.2454	7.1634
10.2251	7.2438
10.205	7.3268
10.185	7.4114
10.165	7.4947
10.1451	7.5696
10.1253	7.6316
10.1056	7.6797
10.0859	7.716
10.0663	7.7383
10.0468	7.7426
10.0274	7.7288
10.008	7.6996
9.9887	7.6584
9.9695	7.6124
9.9504	7.5668
9.9313	7.5196
9.9123	7.4615
9.8934	7.3806
9.8746	7.2689
9.8558	7.1289
9.8371	6.9729
9.8185	6.8238
9.7999	6.7076
9.7814	6.642
9.763	6.6344
9.7447	6.6812
9.7264	6.7674
9.7082	6.8726
9.69	6.9762
9.6719	7.0635
9.6539	7.1287
9.636	7.1667
9.6181	7.1758
9.6003	7.1565
9.5825	7.1055
9.5649	7.0203
9.5472	6.9045
9.5297	6.77
9.5122	6.6296
9.4948	6.4949
9.4774	6.3733
9.4601	6.2635
9.4429	6.1577
9.4257	6.0487
9.4086	5.9381
9.3916	5.8326
9.3746	5.7388
9.3577	5.6644
9.3408	5.6106
9.324	5.5685
9.3073	5.5256
9.2906	5.4704
9.274	5.3957
9.2574	5.2986
9.2409	5.1804
9.2245	5.0452
9.2081	4.8988
9.1918	4.7478
9.1755	4.6026
9.1593	4.4712
9.1431	4.3605
9.127	4.2736
9.111	4.209
9.095	4.1619
9.0791	4.1279
9.0632	4.1076
9.0474	4.1049
9.0316	4.119
9.0159	4.1449
9.0003	4.175
8.9847	4.1999
8.9691	4.2116
8.9536	4.2105
8.9382	4.2083
8.9228	4.2196
8.9075	4.2518
8.8922	4.3071
8.877	4.3844
8.8618	4.4774
8.8467	4.5768
8.8316	4.6766
8.8166	4.7732
8.8016	4.8593
8.7867	4.9234
8.7718	4.9574
8.757	4.9606
8.7422	4.9352
8.7275	4.8876
8.7129	4.8308
8.6982	4.7758
8.6837	4.7254
8.6692	4.6779
8.6547	4.6301
8.6403	4.5782
8.6259	4.5186
8.6116	4.4528
8.5973	4.3875
8.583	4.3289
8.5688	4.2812
8.5547	4.2475
8.5406	4.2267
8.5266	4.2183
8.5126	4.2214
8.4986	4.2327
8.4847	4.2475
8.4708	4.2605
8.457	4.2674
8.4432	4.2676
8.4295	4.2643
8.4158	4.2646
8.4022	4.2722
8.3886	4.2812
8.375	4.2805
8.3615	4.2598
8.3481	4.2145
8.3347	4.1487
8.3213	4.0741
8.3079	4.0054
8.2946	3.952
8.2814	3.9112
8.2682	3.8724
8.255	3.8245
8.2419	3.7557
8.2288	3.6573
8.2158	3.5296
8.2028	3.3819
8.1898	3.2278
8.1769	3.0814
8.164	2.9541
8.1512	2.8539
8.1384	2.7783
8.1256	2.7141
8.1129	2.6495
8.1002	2.5765
8.0876	2.4943
8.075	2.4079
8.0624	2.3265
8.0499	2.2613
8.0374	2.2146
8.025	2.1813
8.0126	2.1572
8.0002	2.1371
7.9879	2.1174
7.9756	2.0947
7.9634	2.0684
7.9512	2.0397
7.939	2.0086
7.9268	1.9768
7.9147	1.9482
7.9027	1.9253
7.8906	1.9059
7.8786	1.8861
7.8667	1.8624
7.8548	1.836
7.8429	1.8103
7.831	1.791
7.8192	1.7844
7.8075	1.7894
7.7957	1.7987
7.784	1.805
7.7723	1.8033
7.7607	1.7958
7.7491	1.7887
7.7375	1.7897
7.726	1.8038
7.7145	1.8257
7.7031	1.844
7.6916	1.8461
7.6802	1.826
7.6689	1.7875
7.6575	1.7406
7.6462	1.6997
7.635	1.6767
7.6238	1.6758
7.6126	1.6937
7.6014	1.7226
7.5903	1.7542
7.5792	1.7827
7.5681	1.8045
7.5571	1.8189
7.5461	1.8251
7.5351	1.8241
7.5242	1.8184
7.5133	1.8095
7.5024	1.7973
7.4916	1.7824
7.4807	1.7664
7.47	1.7514
7.4592	1.7379
7.4485	1.7284
7.4378	1.7258
7.4272	1.7318
7.4165	1.7459
7.4059	1.7666
7.3954	1.7918
7.3848	1.8167
7.3743	1.8353
7.3639	1.8428
7.3534	1.8385
7.343	1.8257
7.3326	1.8111
7.3223	1.8013
7.3119	1.8007
7.3016	1.8105
7.2914	1.8265
7.2811	1.8428
7.2709	1.8545
7.2607	1.8602
7.2506	1.8599
7.2404	1.8559
7.2303	1.8518
7.2203	1.8523
7.2102	1.8597
7.2002	1.8758
7.1902	1.9006
7.1803	1.9315
7.1703	1.9628
7.1604	1.9902
7.1506	2.0119
7.1407	2.0294
7.1309	2.044
7.1211	2.0603
7.1113	2.0818
7.1016	2.1081
7.0919	2.1366
7.0822	2.1632
7.0725	2.1871
7.0629	2.2074
7.0533	2.2236
7.0437	2.2368
7.0341	2.25
7.0246	2.2651
7.0151	2.2802
7.0056	2.2921
6.9962	2.2988
6.9867	2.2986
6.9773	2.2897
6.9679	2.2727
6.9586	2.2536
6.9493	2.237
6.94	2.2244
6.9307	2.2143
6.9214	2.2074
6.9122	2.2052
6.903	2.2062
6.8938	2.2098
6.8847	2.2172
6.8755	2.2282
6.8664	2.2402
6.8573	2.2495
6.8483	2.255
6.8393	2.256
6.8302	2.2512
6.8213	2.2395
6.8123	2.2244
6.8034	2.2098
6.7944	2.1987
6.7855	2.1935
6.7767	2.1962
6.7678	2.2062
6.759	2.2206
6.7502	2.2366
6.7414	2.2531
6.7327	2.2691
6.7239	2.2835
6.7152	2.2952
6.7065	2.3048
6.6979	2.3124
6.6892	2.3182
6.6806	2.3227
6.672	2.3268
6.6634	2.329
6.6549	2.328
6.6464	2.3232
6.6378	2.3167
6.6294	2.3107
6.6209	2.3074
6.6124	2.3093
6.604	2.3157
6.5956	2.3237
6.5872	2.3292
6.5789	2.3294
6.5705	2.3253
6.5622	2.3179
6.5539	2.3071
6.5456	2.295
6.5374	2.2827
6.5292	2.2711
6.5209	2.2596
6.5128	2.2502
6.5046	2.2478
6.4964	2.2523
6.4883	2.2605
6.4802	2.2691
6.4721	2.2754
6.464	2.276
6.456	2.2684
6.448	2.2553
6.4399	2.2399
6.432	2.2227
6.424	2.204
6.416	2.1849
6.4081	2.1655
6.4002	2.1444
6.3923	2.122
6.3844	2.0999
6.3766	2.0782
6.3687	2.0566
6.3609	2.0382
6.3531	2.0246
6.3454	2.0146
6.3376	2.0057
6.3299	1.997
6.3221	1.9875
6.3144	1.9748
6.3068	1.9624
6.2991	1.954
6.2914	1.9521
6.2838	1.9555
6.2762	1.9607
6.2686	1.9638
6.2611	1.9612
6.2535	1.9504
6.246	1.9336
6.2385	1.915
6.231	1.8994
6.2235	1.8908
6.216	1.8899
6.2086	1.8966
6.2011	1.91
6.1937	1.927
6.1863	1.9434
6.179	1.9562
6.1716	1.9638
6.1643	1.9662
6.157	1.964
6.1496	1.9619
6.1424	1.9643
6.1351	1.9722
6.1278	1.9846
6.1206	1.9987
6.1134	2.0121
6.1062	2.0224
6.099	2.0284
6.0918	2.0317
6.0847	2.0339
6.0776	2.037
6.0704	2.0408
6.0633	2.0458
6.0563	2.0543
6.0492	2.0657
6.0421	2.0794
6.0351	2.0928
6.0281	2.1054
6.0211	2.1157
6.0141	2.1205
6.0071	2.1195
6.0002	2.115
5.9932	2.1064
5.9863	2.0951
5.9794	2.0842
5.9725	2.0777
5.9657	2.0772
5.9588	2.0808
5.952	2.0878
5.9451	2.0956
5.9383	2.0999
5.9315	2.0999
5.9247	2.0988
5.918	2.1009
5.9112	2.1086
5.9045	2.1225
5.8978	2.1423
5.8911	2.1638
5.8844	2.1813
5.8777	2.1919
5.8711	2.1962
5.8644	2.1969
5.8578	2.1964
5.8512	2.198
5.8446	2.2045
5.838	2.2153
5.8314	2.227
5.8249	2.2368
5.8184	2.2437
5.8118	2.2466
5.8053	2.2462
5.7988	2.2452
5.7923	2.2483
5.7859	2.2578
5.7794	2.2734
5.773	2.2925
5.7666	2.3107
5.7602	2.3232
5.7538	2.327
5.7474	2.3242
5.741	2.3187
5.7347	2.3144
5.7283	2.3119
5.722	2.3105
5.7157	2.3079
5.7094	2.3019
5.7031	2.2928
5.6969	2.282
5.6906	2.2727
5.6844	2.2669
5.6782	2.2664
5.6719	2.2727
5.6657	2.2865
5.6596	2.3079
5.6534	2.3325
5.6472	2.3541
5.6411	2.3684
5.6349	2.374
5.6288	2.373
5.6227	2.3718
5.6166	2.3763
5.6106	2.3888
5.6045	2.4055
5.5984	2.4189
5.5924	2.4258
5.5864	2.4251
5.5804	2.4198
5.5744	2.416
5.5684	2.4208
5.5624	2.4374
5.5564	2.4622
5.5505	2.4895
5.5445	2.5141
5.5386	2.5309
5.5327	2.5371
5.5268	2.5371
5.5209	2.538
5.5151	2.5453
5.5092	2.5605
5.5033	2.5835
5.4975	2.6098
5.4917	2.6335
5.4859	2.651
5.4801	2.6651
5.4743	2.6784
5.4685	2.6926
5.4628	2.7093
5.457	2.7277
5.4513	2.745
5.4455	2.7584
5.4398	2.7684
5.4341	2.7773
5.4284	2.7847
5.4228	2.7916
5.4171	2.7991
5.4114	2.8062
5.4058	2.812
5.4002	2.8165
5.3945	2.8201
5.3889	2.8215
5.3833	2.8213
5.3778	2.823
5.3722	2.8288
5.3666	2.8397
5.3611	2.8555
5.3555	2.8739
5.35	2.8887
5.3445	2.895
5.339	2.8943
5.3335	2.8907
5.328	2.8887
5.3225	2.8935
5.3171	2.9091
5.3116	2.9337
5.3062	2.9611
5.3008	2.985
5.2954	3.0022
5.29	3.0094
5.2846	3.0061
5.2792	2.9958
5.2738	2.9845
5.2684	2.9752
5.2631	2.9699
5.2578	2.9711
5.2524	2.9797
5.2471	2.9953
5.2418	3.0185
5.2365	3.0496
5.2312	3.0843
5.226	3.1166
5.2207	3.1415
5.2154	3.1558
5.2102	3.1596
5.205	3.157
5.1998	3.1551
5.1945	3.1594
5.1893	3.1719
5.1842	3.1908
5.179	3.2125
5.1738	3.2321
5.1686	3.2458
5.1635	3.2517
5.1584	3.2522
5.1532	3.2506
5.1481	3.2508
5.143	3.257
5.1379	3.2707
5.1328	3.2924
5.1277	3.3195
5.1227	3.348
5.1176	3.374
5.1126	3.3941
5.1075	3.4071
5.1025	3.4142
5.0975	3.4194
5.0925	3.4264
5.0875	3.4383
5.0825	3.4546
5.0775	3.4723
5.0726	3.4876
5.0676	3.4989
5.0627	3.507
5.0577	3.5133
5.0528	3.5216
5.0479	3.5355
5.043	3.5549
5.038	3.5776
5.0332	3.5998
5.0283	3.6197
5.0234	3.6355
5.0185	3.647
5.0137	3.6571
5.0088	3.669
5.004	3.6853
4.9992	3.7056
4.9944	3.7276
4.9896	3.7484
4.9848	3.7659
4.98	3.7798
4.9752	3.792
4.9704	3.804
4.9657	3.8186
4.9609	3.837
4.9562	3.8599
4.9514	3.8889
4.9467	3.9245
4.942	3.9673
4.9373	4.0143
4.9326	4.0588
4.9279	4.0956
4.9232	4.1212
4.9186	4.1363
4.9139	4.1444
4.9092	4.1499
4.9046	4.1578
4.9	4.1707
4.8953	4.1877
4.8907	4.209
4.8861	4.2351
4.8815	4.2669
4.8769	4.3033
4.8723	4.3423
4.8678	4.383
4.8632	4.4243
4.8586	4.466
4.8541	4.5093
4.8495	4.5554
4.845	4.6031
4.8405	4.6485
4.836	4.688
4.8315	4.7194
4.827	4.743
4.8225	4.7631
4.818	4.7856
4.8135	4.8141
4.809	4.8497
4.8046	4.8912
4.8001	4.934
4.7957	4.9747
4.7913	5.0115
4.7868	5.0464
4.7824	5.0821
4.778	5.1201
4.7736	5.1636
4.7692	5.2144
4.7648	5.2732
4.7605	5.339
4.7561	5.4111
4.7517	5.4874
4.7474	5.5651
4.7431	5.6417
4.7387	5.7178
4.7344	5.7953
4.7301	5.8757
4.7258	5.9577
4.7215	6.0395
4.7172	6.1182
4.7129	6.1912
4.7086	6.259
4.7043	6.3245
4.7	6.3922
4.6958	6.4638
4.6915	6.5363
4.6873	6.6059
4.6831	6.6686
4.6788	6.7219
4.6746	6.7697
4.6704	6.82
4.6662	6.882
4.662	6.96
4.6578	7.0511
4.6536	7.1473
4.6495	7.2385
4.6453	7.316
4.6411	7.3777
4.637	7.4292
4.6328	7.4811
4.6287	7.5435
4.6246	7.6196
4.6205	7.7094
4.6163	7.8093
4.6122	7.9137
4.6081	8.0173
4.604	8.1192
4.6	8.223
4.5959	8.3322
4.5918	8.4472
4.5877	8.5692
4.5837	8.6977
4.5796	8.8298
4.5756	8.9606
4.5716	9.087
4.5675	9.2083
4.5635	9.3248
4.5595	9.437
4.5555	9.5447
4.5515	9.6483
4.5475	9.7492
4.5435	9.8466
4.5395	9.9416
4.5356	10.0359
4.5316	10.1318
4.5276	10.2285
4.5237	10.3232
4.5197	10.4149
4.5158	10.5027
4.5119	10.5886
4.508	10.6754
4.504	10.7656
4.5001	10.8592
4.4962	10.9523
4.4923	11.0403
4.4884	11.1205
4.4846	11.1937
4.4807	11.2649
4.4768	11.3406
4.473	11.4257
4.4691	11.5236
4.4652	11.6334
4.4614	11.7514
4.4576	11.8719
4.4537	11.9906
4.4499	12.1031
4.4461	12.2074
4.4423	12.3031
4.4385	12.3926
4.4347	12.4789
4.4309	12.5639
4.4271	12.6491
4.4233	12.7362
4.4196	12.8258
4.4158	12.9199
4.412	13.0194
4.4083	13.1259
4.4045	13.2383
4.4008	13.3503
4.3971	13.4556
4.3934	13.5501
4.3896	13.6314
4.3859	13.7011
4.3822	13.7657
4.3785	13.8346
4.3748	13.9131
4.3711	14.0016
4.3674	14.0982
4.3638	14.198
4.3601	14.2925
4.3564	14.3755
4.3528	14.4476
4.3491	14.5121
4.3455	14.5765
4.3418	14.6478
4.3382	14.7313
4.3346	14.827
4.331	14.9282
4.3273	15.027
4.3237	15.1158
4.3201	15.1914
4.3165	15.2558
4.3129	15.3147
4.3094	15.3723
4.3058	15.4314
4.3022	15.4928
4.2986	15.5549
4.2951	15.6158
4.2915	15.6776
4.288	15.7431
4.2844	15.8142
4.2809	15.8879
4.2774	15.9606
4.2738	16.0303
4.2703	16.0937
4.2668	16.1516
4.2633	16.209
4.2598	16.2711
4.2563	16.3391
4.2528	16.4092
4.2493	16.4781
4.2458	16.5444
4.2424	16.6059
4.2389	16.664
4.2354	16.7224
4.232	16.7839
4.2285	16.8473
4.2251	16.9112
4.2216	16.9756
4.2182	17.0411
4.2148	17.1079
4.2113	17.1753
4.2079	17.2433
4.2045	17.3097
4.2011	17.3729
4.1977	17.432
4.1943	17.4866
4.1909	17.5346
4.1875	17.5741
4.1841	17.6053
4.1808	17.6287
4.1774	17.6507
4.174	17.6789
4.1707	17.7194
4.1673	17.774
4.164	17.8369
4.1606	17.9005
4.1573	17.9572
4.154	18.0019
4.1506	18.0361
4.1473	18.0651
4.144	18.096
4.1407	18.1335
4.1374	18.1768
4.1341	18.2225
4.1308	18.2673
4.1275	18.3068
4.1242	18.3422
4.1209	18.3774
4.1177	18.4178
4.1144	18.4663
4.1111	18.5193
4.1079	18.5707
4.1046	18.6149
4.1014	18.6472
4.0981	18.6683
4.0949	18.6829
4.0917	18.6979
4.0884	18.7163
4.0852	18.7364
4.082	18.7545
4.0788	18.7659
4.0756	18.7693
4.0724	18.7673
4.0692	18.7654
4.066	18.7697
4.0628	18.7812
4.0596	18.797
4.0565	18.8099
4.0533	18.8137
4.0501	18.803
4.047	18.7754
4.0438	18.7329
4.0406	18.6783
4.0375	18.6142
4.0344	18.5407
4.0312	18.4587
4.0281	18.3716
4.025	18.2799
4.0218	18.1823
4.0187	18.0769
4.0156	17.9579
4.0125	17.8173
4.0094	17.6481
4.0063	17.4478
4.0032	17.2215
4.0001	16.9774
3.997	16.7281
3.994	16.491
3.9909	16.2836
3.9878	16.1197
3.9847	16.0092
3.9817	15.9541
3.9786	15.9518
3.9756	15.9929
3.9725	16.0671
3.9695	16.1687
3.9665	16.296
3.9634	16.4479
3.9604	16.6245
3.9574	16.8229
3.9544	17.0392
3.9513	17.2674
3.9483	17.4995
3.9453	17.7268
3.9423	17.9395
3.9393	18.1252
3.9363	18.2723
3.9333	18.3752
3.9304	18.4369
3.9274	18.4702
3.9244	18.4914
3.9214	18.5159
3.9185	18.5532
3.9155	18.6025
3.9126	18.6566
3.9096	18.7047
3.9067	18.7391
3.9037	18.759
3.9008	18.7676
3.8979	18.7711
3.8949	18.7752
3.892	18.7829
3.8891	18.792
3.8862	18.8001
3.8833	18.8061
3.8804	18.8126
3.8775	18.8217
3.8746	18.8363
3.8717	18.8561
3.8688	18.8762
3.8659	18.8896
3.863	18.8929
3.8601	18.8884
3.8573	18.881
3.8544	18.8765
3.8515	18.8808
3.8487	18.897
3.8458	18.9226
3.843	18.9542
3.8401	18.992
3.8373	19.038
3.8344	19.0903
3.8316	19.1477
3.8288	19.209
3.8259	19.2719
3.8231	19.3323
3.8203	19.3877
3.8175	19.4402
3.8147	19.4906
3.8119	19.5383
3.8091	19.582
3.8063	19.6224
3.8035	19.6603
3.8007	19.6966
3.7979	19.7358
3.7951	19.7825
3.7924	19.8361
3.7896	19.8918
3.7868	19.9406
3.7841	19.9732
3.7813	19.9837
3.7785	19.9717
3.7758	19.9438
3.773	19.9105
3.7703	19.8811
3.7676	19.861
3.7648	19.851
3.7621	19.8478
3.7594	19.8457
3.7566	19.8389
3.7539	19.8244
3.7512	19.8019
3.7485	19.7732
3.7458	19.7426
3.7431	19.7139
3.7404	19.6887
3.7377	19.6672
3.735	19.6468
3.7323	19.6261
3.7296	19.6045
3.7269	19.5829
3.7242	19.5638
3.7216	19.5476
3.7189	19.5325
3.7162	19.5162
3.7136	19.4961
3.7109	19.4701
3.7083	19.438
3.7056	19.403
3.703	19.3693
3.7003	19.3418
3.6977	19.3241
3.695	19.3185
3.6924	19.3243
3.6898	19.3356
3.6872	19.3451
3.6845	19.3459
3.6819	19.333
3.6793	19.3064
3.6767	19.2697
3.6741	19.2299
3.6715	19.1913
3.6689	19.1559
3.6663	19.1231
3.6637	19.0901
3.6611	19.0539
3.6585	19.0136
3.656	18.97
3.6534	18.9266
3.6508	18.8872
3.6482	18.8537
3.6457	18.8264
3.6431	18.8025
3.6406	18.7789
3.638	18.7513
3.6355	18.7166
3.6329	18.6762
3.6304	18.6333
3.6278	18.5913
3.6253	18.5508
3.6227	18.5118
3.6202	18.4738
3.6177	18.4326
3.6152	18.3857
3.6127	18.3352
3.6101	18.2829
3.6076	18.2304
3.6051	18.1764
3.6026	18.1199
3.6001	18.0596
3.5976	17.9943
3.5951	17.9266
3.5926	17.8615
3.5901	17.8029
3.5876	17.7509
3.5852	17.7012
3.5827	17.6476
3.5802	17.5847
3.5777	17.5122
3.5753	17.4349
3.5728	17.36
3.5704	17.294
3.5679	17.2378
3.5654	17.1887
3.563	17.1426
3.5605	17.0956
3.5581	17.0471
3.5557	16.9978
3.5532	16.9507
3.5508	16.9059
3.5484	16.8612
3.5459	16.8147
3.5435	16.7636
3.5411	16.7016
3.5387	16.6238
3.5363	16.5289
3.5338	16.4193
3.5314	16.2994
3.529	16.1764
3.5266	16.0578
3.5242	15.9451
3.5218	15.8359
3.5195	15.7285
3.5171	15.6235
3.5147	15.522
3.5123	15.4266
3.5099	15.3381
3.5075	15.2531
3.5052	15.1638
3.5028	15.0667
3.5004	14.9638
3.4981	14.8595
3.4957	14.7581
3.4934	14.6633
3.491	14.577
3.4887	14.4957
3.4863	14.4135
3.484	14.3296
3.4816	14.248
3.4793	14.1738
3.477	14.1136
3.4746	14.0753
3.4723	14.0686
3.47	14.0944
3.4677	14.1423
3.4653	14.1966
3.463	14.2399
3.4607	14.2559
3.4584	14.2363
3.4561	14.1839
3.4538	14.1143
3.4515	14.0442
3.4492	13.9824
3.4469	13.9327
3.4446	13.892
3.4423	13.8535
3.44	13.81
3.4378	13.7577
3.4355	13.6999
3.4332	13.6393
3.4309	13.5761
3.4287	13.5075
3.4264	13.4317
3.4241	13.3487
3.4219	13.262
3.4196	13.1795
3.4174	13.1097
3.4151	13.0577
3.4129	13.0223
3.4106	12.9938
3.4084	12.9603
3.4061	12.9127
3.4039	12.8496
3.4017	12.7752
3.3994	12.6974
3.3972	12.6263
3.395	12.5679
3.3928	12.5203
3.3906	12.4768
3.3883	12.4294
3.3861	12.3732
3.3839	12.305
3.3817	12.2261
3.3795	12.1428
3.3773	12.0636
3.3751	11.9949
3.3729	11.9385
3.3707	11.8918
3.3685	11.8485
3.3663	11.799
3.3641	11.7361
3.362	11.6576
3.3598	11.5655
3.3576	11.4647
3.3554	11.3633
3.3533	11.2714
3.3511	11.1975
3.3489	11.1458
3.3468	11.1193
3.3446	11.1158
3.3425	11.1269
3.3403	11.1394
3.3382	11.1437
3.336	11.1331
3.3339	11.1042
3.3317	11.057
3.3296	10.9977
3.3274	10.9345
3.3253	10.873
3.3232	10.8173
3.321	10.7699
3.3189	10.7274
3.3168	10.6831
3.3147	10.63
3.3126	10.5668
3.3104	10.4965
3.3083	10.423
3.3062	10.3536
3.3041	10.2945
3.302	10.2445
3.2999	10.2002
3.2978	10.1562
3.2957	10.1091
3.2936	10.056
3.2915	9.9947
3.2894	9.9287
3.2874	9.8596
3.2853	9.7878
3.2832	9.7157
3.2811	9.6466
3.279	9.5822
3.277	9.5243
3.2749	9.4734
3.2728	9.4267
3.2708	9.3772
3.2687	9.3186
3.2666	9.2501
3.2646	9.1739
3.2625	9.0927
3.2605	9.0126
3.2584	8.9384
3.2564	8.8695
3.2543	8.8016
3.2523	8.7343
3.2503	8.6706
3.2482	8.612
3.2462	8.5592
3.2442	8.5108
3.2421	8.4651
3.2401	8.4154
3.2381	8.3539
3.2361	8.2774
3.234	8.1869
3.232	8.0874
3.23	7.9852
3.228	7.8871
3.226	7.8007
3.224	7.7266
3.222	7.6598
3.22	7.5962
3.218	7.5299
3.216	7.4567
3.214	7.3749
3.212	7.2866
3.21	7.1981
3.208	7.1122
3.206	7.0325
3.204	6.9638
3.2021	6.9062
