Name: Chloritic Gneiss  
Type:  Rocks
Class: Metamorphic 
Subclass: Gneiss 
Particle Size:  0 - 75 Micrometers
Sample No.:  Gneiss1.doc
Owner:  JHU
Wavelength Range:  All
Origin:  Sample No. 380, The Hunt and Salisbury Collection at the U.S. 
Geological Survey, Denver, Co.
Description: This is a greenish rock containing only 20% quartz, 35% albite, a 
mixture of chlorite and muscovite (40%) and 5% rutile.




Measurement:  Directional (10 Degree) Hemispherical Reflectance
First Column:  X
Second Column:  Y  
X Units:  Wavelength (micrometers)
Y Units:  Reflectance (percent)
First X Value: 14.9831
Last X Value:  0.4
Number of X Values: 2868
Additional Information:  None 

14.983	3.7450
14.940	3.9712
14.897	4.1836
14.854	4.4986
14.812	4.7950
14.770	5.0420
14.728	5.2668
14.686	5.3947
14.645	5.3123
14.603	5.0477
14.562	4.7614
14.521	4.4678
14.481	4.0964
14.441	3.7059
14.400	3.4604
14.361	3.4097
14.321	3.5188
14.281	3.7924
14.242	4.2243
14.203	4.6683
14.164	5.0008
14.126	5.1690
14.087	5.1998
14.049	5.1181
14.011	4.9116
13.973	4.6338
13.936	4.3252
13.899	3.9885
13.861	3.6953
13.824	3.4975
13.788	3.4142
13.751	3.4589
13.715	3.5949
13.679	3.7779
13.643	3.9307
13.607	3.9802
13.571	3.9212
13.536	3.7779
13.500	3.5840
13.465	3.3917
13.430	3.2491
13.396	3.1890
13.361	3.2053
13.327	3.2576
13.293	3.2958
13.259	3.2934
13.225	3.2337
13.191	3.1236
13.158	3.0142
13.124	2.9564
13.091	2.9623
13.058	3.0272
13.026	3.1215
12.993	3.2122
12.960	3.2730
12.928	3.2870
12.896	3.2508
12.864	3.1729
12.832	3.0518
12.800	2.8835
12.769	2.6753
12.737	2.4619
12.706	2.2952
12.675	2.2071
12.644	2.2045
12.614	2.2779
12.583	2.4042
12.552	2.5477
12.522	2.6815
12.492	2.8046
12.462	2.9365
12.432	3.0890
12.402	3.2790
12.373	3.5091
12.343	3.7815
12.314	4.0948
12.285	4.4450
12.256	4.8270
12.227	5.2204
12.198	5.6080
12.169	5.9832
12.141	6.3393
12.113	6.6784
12.084	7.0138
12.056	7.3572
12.028	7.7207
12.000	8.0880
11.973	8.4531
11.945	8.8119
11.918	9.1546
11.890	9.4648
11.863	9.7440
11.836	9.9939
11.809	10.221
11.782	10.429
11.755	10.614
11.729	10.770
11.702	10.883
11.676	10.941
11.650	10.954
11.624	10.928
11.598	10.878
11.572	10.821
11.546	10.752
11.520	10.673
11.495	10.586
11.469	10.490
11.444	10.392
11.419	10.287
11.394	10.181
11.369	10.060
11.344	9.9122
11.319	9.7372
11.294	9.5475
11.270	9.3391
11.245	9.1127
11.221	8.8773
11.197	8.6419
11.173	8.4008
11.149	8.1600
11.125	7.9305
11.101	7.7301
11.077	7.5568
11.054	7.4159
11.030	7.3093
11.007	7.2335
10.983	7.1838
10.960	7.1525
10.937	7.1334
10.914	7.1187
10.891	7.0919
10.868	7.0566
10.846	7.0064
10.823	6.9356
10.800	6.8463
10.778	6.7431
10.755	6.6306
10.733	6.5072
10.711	6.3786
10.689	6.2567
10.667	6.1413
10.645	6.0277
10.623	5.9147
10.602	5.8041
10.580	5.6907
10.558	5.5666
10.537	5.4337
10.516	5.2912
10.494	5.1306
10.473	4.9620
10.452	4.7998
10.431	4.6518
10.410	4.5113
10.389	4.3792
10.368	4.2572
10.348	4.1474
10.327	4.0446
10.306	3.9617
10.286	3.9058
10.266	3.8762
10.245	3.8625
10.225	3.8603
10.205	3.8670
10.185	3.8802
10.165	3.8909
10.145	3.8982
10.125	3.9004
10.106	3.9011
10.086	3.8989
10.066	3.8930
10.047	3.8843
10.027	3.8703
10.008	3.8499
9.9887	3.8336
9.9695	3.8198
9.9504	3.8073
9.9313	3.7909
9.9123	3.7590
9.8934	3.7012
9.8746	3.6103
9.8558	3.4987
9.8371	3.3959
9.8185	3.3239
9.7999	3.3000
9.7814	3.3183
9.7630	3.3742
9.7447	3.4663
9.7264	3.5728
9.7082	3.6768
9.6900	3.7675
9.6719	3.8400
9.6539	3.8833
9.6360	3.8831
9.6181	3.8570
9.6003	3.8213
9.5825	3.7682
9.5649	3.6957
9.5472	3.6202
9.5297	3.5501
9.5122	3.4926
9.4948	3.4476
9.4774	3.4310
9.4601	3.4604
9.4429	3.5222
9.4257	3.6062
9.4086	3.7313
9.3916	3.8826
9.3746	4.0429
9.3577	4.1900
9.3408	4.3148
9.3240	4.4223
9.3073	4.5035
9.2906	4.5563
9.2740	4.5980
9.2574	4.6316
9.2409	4.6549
9.2245	4.6598
9.2081	4.6428
9.1918	4.6089
9.1755	4.5625
9.1593	4.5038
9.1431	4.4360
9.1270	4.3666
9.1110	4.2984
9.0950	4.2364
9.0791	4.1902
9.0632	4.1699
9.0474	4.1715
9.0316	4.1815
9.0159	4.1971
9.0003	4.2151
8.9847	4.2288
8.9691	4.2392
8.9536	4.2492
8.9382	4.2677
8.9228	4.2939
8.9075	4.3150
8.8922	4.3288
8.8770	4.3361
8.8618	4.3325
8.8467	4.3124
8.8316	4.2823
8.8166	4.2430
8.8016	4.2030
8.7867	4.1713
8.7718	4.1464
8.7570	4.1329
8.7422	4.1258
8.7275	4.1206
8.7129	4.1076
8.6982	4.0664
8.6837	3.9930
8.6692	3.9006
8.6547	3.8028
8.6403	3.7296
8.6259	3.7076
8.6116	3.7433
8.5973	3.8250
8.5830	3.9340
8.5688	4.0413
8.5547	4.1211
8.5406	4.1755
8.5266	4.2108
8.5126	4.2328
8.4986	4.2506
8.4847	4.2724
8.4708	4.3029
8.4570	4.3477
8.4432	4.4012
8.4295	4.4633
8.4158	4.5239
8.4022	4.5817
8.3886	4.6387
8.3750	4.6899
8.3615	4.7347
8.3481	4.7860
8.3347	4.8443
8.3213	4.9097
8.3079	4.9862
8.2946	5.0766
8.2814	5.1787
8.2682	5.2898
8.2550	5.4072
8.2419	5.5287
8.2288	5.6516
8.2158	5.7679
8.2028	5.8605
8.1898	5.9123
8.1769	5.9202
8.1640	5.8707
8.1512	5.7631
8.1384	5.6147
8.1256	5.4385
8.1129	5.2452
8.1002	5.0456
8.0876	4.8490
8.0750	4.6657
8.0624	4.4905
8.0499	4.3314
8.0374	4.1902
8.0250	4.0531
8.0126	3.9146
8.0002	3.7767
7.9879	3.6373
7.9756	3.4911
7.9634	3.3393
7.9512	3.1925
7.9390	3.0500
7.9268	2.9053
7.9147	2.7625
7.9027	2.6317
7.8906	2.5102
7.8786	2.3956
7.8667	2.2933
7.8548	2.2043
7.8429	2.1297
7.8310	2.0634
7.8192	2.0122
7.8075	1.9765
7.7957	1.9516
7.7840	1.9390
7.7723	1.9364
7.7607	1.9327
7.7491	1.9284
7.7375	1.9184
7.7260	1.9066
7.7145	1.8964
7.7031	1.8922
7.6916	1.8893
7.6802	1.8903
7.6689	1.8879
7.6575	1.8839
7.6462	1.8817
7.6350	1.8836
7.6238	1.8933
7.6126	1.9156
7.6014	1.9388
7.5903	1.9717
7.5792	2.0139
7.5681	2.0594
7.5571	2.1119
7.5461	2.1692
7.5351	2.2206
7.5242	2.2732
7.5133	2.3248
7.5024	2.3791
7.4916	2.4342
7.4807	2.4877
7.4700	2.5441
7.4592	2.6028
7.4485	2.6557
7.4378	2.7149
7.4272	2.7826
7.4165	2.8487
7.4059	2.9171
7.3954	2.9952
7.3848	3.0779
7.3743	3.1584
7.3639	3.2368
7.3534	3.3204
7.3430	3.4028
7.3326	3.4850
7.3222	3.5830
7.3119	3.6931
7.3016	3.8104
7.2914	3.9375
7.2811	4.0744
7.2709	4.2201
7.2607	4.3688
7.2506	4.5246
7.2404	4.6821
7.2303	4.8384
7.2203	4.9935
7.2102	5.1436
7.2002	5.2886
7.1902	5.4342
7.1803	5.5865
7.1703	5.7489
7.1604	5.9228
7.1506	6.1177
7.1407	6.3263
7.1309	6.5390
7.1211	6.7445
7.1113	6.9385
7.1016	7.1147
7.0919	7.2705
7.0822	7.4083
7.0725	7.5345
7.0629	7.6615
7.0533	7.7948
7.0437	7.9333
7.0341	8.0825
7.0246	8.2291
7.0151	8.3710
7.0056	8.5090
6.9962	8.6348
6.9867	8.7461
6.9773	8.8588
6.9679	8.9898
6.9586	9.1409
6.9493	9.3028
6.9400	9.4745
6.9307	9.6453
6.9214	9.8032
6.9122	9.9463
6.9030	10.083
6.8938	10.195
6.8847	10.276
6.8755	10.342
6.8664	10.409
6.8573	10.471
6.8483	10.535
6.8393	10.613
6.8302	10.694
6.8213	10.748
6.8123	10.769
6.8034	10.773
6.7944	10.769
6.7855	10.751
6.7767	10.718
6.7678	10.687
6.7590	10.669
6.7502	10.664
6.7414	10.665
6.7327	10.676
6.7239	10.715
6.7152	10.780
6.7065	10.862
6.6979	10.974
6.6892	11.120
6.6806	11.302
6.6720	11.479
6.6634	11.611
6.6549	11.710
6.6464	11.782
6.6378	11.825
6.6294	11.858
6.6209	11.894
6.6124	11.949
6.6040	11.997
6.5956	12.007
6.5872	12.011
6.5789	12.022
6.5705	12.047
6.5622	12.102
6.5539	12.200
6.5456	12.364
6.5374	12.612
6.5292	12.944
6.5209	13.327
6.5128	13.729
6.5046	14.152
6.4964	14.586
6.4883	15.014
6.4802	15.426
6.4721	15.828
6.4640	16.205
6.4560	16.519
6.4480	16.763
6.4399	16.921
6.4320	17.002
6.4240	17.050
6.4160	17.063
6.4081	17.038
6.4002	16.971
6.3923	16.854
6.3844	16.698
6.3766	16.477
6.3687	16.204
6.3609	15.934
6.3531	15.679
6.3454	15.426
6.3376	15.166
6.3299	14.895
6.3221	14.623
6.3144	14.344
6.3068	14.050
6.2991	13.760
6.2914	13.483
6.2838	13.209
6.2762	12.936
6.2686	12.667
6.2611	12.404
6.2535	12.161
6.2460	11.951
6.2385	11.778
6.2310	11.637
6.2235	11.535
6.2160	11.473
6.2086	11.442
6.2011	11.460
6.1937	11.556
6.1863	11.741
6.1790	12.013
6.1716	12.363
6.1643	12.788
6.1570	13.270
6.1496	13.761
6.1424	14.243
6.1351	14.693
6.1278	15.100
6.1206	15.468
6.1134	15.802
6.1062	16.113
6.0990	16.389
6.0918	16.617
6.0847	16.811
6.0776	16.941
6.0704	16.977
6.0633	16.971
6.0563	16.976
6.0492	17.004
6.0421	17.044
6.0351	17.095
6.0281	17.169
6.0211	17.220
6.0141	17.197
6.0071	17.133
6.0002	17.059
5.9932	16.953
5.9863	16.810
5.9794	16.649
5.9725	16.486
5.9657	16.333
5.9588	16.160
5.9520	15.994
5.9451	15.881
5.9383	15.827
5.9315	15.854
5.9247	15.983
5.9180	16.167
5.9112	16.401
5.9045	16.643
5.8978	16.888
5.8911	17.169
5.8844	17.472
5.8777	17.799
5.8711	18.140
5.8644	18.457
5.8578	18.765
5.8512	19.048
5.8446	19.271
5.8380	19.453
5.8314	19.610
5.8249	19.745
5.8184	19.859
5.8118	19.957
5.8053	20.042
5.7988	20.116
5.7923	20.148
5.7859	20.123
5.7794	20.105
5.7730	20.103
5.7666	20.097
5.7602	20.096
5.7538	20.105
5.7474	20.122
5.7410	20.123
5.7347	20.086
5.7283	20.046
5.7220	20.025
5.7157	20.009
5.7094	19.999
5.7031	20.001
5.6969	19.997
5.6906	19.967
5.6844	19.907
5.6782	19.806
5.6719	19.667
5.6657	19.487
5.6596	19.260
5.6534	19.022
5.6472	18.786
5.6411	18.568
5.6349	18.385
5.6288	18.228
5.6227	18.079
5.6166	17.920
5.6106	17.736
5.6045	17.544
5.5984	17.347
5.5924	17.165
5.5864	17.022
5.5804	16.940
5.5744	16.928
5.5684	16.989
5.5624	17.132
5.5564	17.349
5.5505	17.624
5.5445	17.954
5.5386	18.335
5.5327	18.754
5.5268	19.198
5.5209	19.651
5.5151	20.106
5.5092	20.554
5.5033	20.990
5.4975	21.401
5.4917	21.787
5.4859	22.149
5.4801	22.484
5.4743	22.796
5.4685	23.089
5.4628	23.358
5.4570	23.596
5.4513	23.792
5.4455	23.931
5.4398	23.980
5.4341	23.929
5.4284	23.801
5.4228	23.600
5.4171	23.316
5.4114	22.945
5.4058	22.491
5.4002	21.951
5.3945	21.333
5.3889	20.681
5.3833	20.052
5.3778	19.488
5.3722	19.012
5.3666	18.628
5.3611	18.344
5.3555	18.161
5.3500	18.076
5.3445	18.074
5.3390	18.130
5.3335	18.227
5.3280	18.350
5.3225	18.482
5.3171	18.619
5.3116	18.761
5.3062	18.920
5.3008	19.108
5.2954	19.330
5.2900	19.601
5.2846	19.940
5.2792	20.338
5.2738	20.777
5.2684	21.242
5.2631	21.729
5.2578	22.240
5.2524	22.776
5.2471	23.343
5.2418	23.950
5.2365	24.588
5.2312	25.233
5.2260	25.871
5.2207	26.478
5.2154	27.024
5.2102	27.485
5.2050	27.852
5.1998	28.125
5.1945	28.321
5.1893	28.456
5.1842	28.560
5.1790	28.655
5.1738	28.746
5.1686	28.837
5.1635	28.922
5.1584	28.990
5.1532	29.047
5.1481	29.091
5.1430	29.125
5.1379	29.163
5.1328	29.221
5.1277	29.311
5.1227	29.425
5.1176	29.553
5.1126	29.680
5.1075	29.781
5.1025	29.834
5.0975	29.832
5.0925	29.785
5.0875	29.704
5.0825	29.604
5.0775	29.507
5.0726	29.430
5.0676	29.378
5.0627	29.353
5.0577	29.352
5.0528	29.366
5.0479	29.380
5.0430	29.393
5.0380	29.398
5.0332	29.391
5.0283	29.378
5.0234	29.360
5.0185	29.347
5.0137	29.357
5.0088	29.402
5.0040	29.497
4.9992	29.654
4.9944	29.897
4.9896	30.253
4.9848	30.729
4.9800	31.347
4.9752	32.106
4.9704	32.965
4.9657	33.859
4.9609	34.726
4.9562	35.503
4.9514	36.147
4.9467	36.643
4.9420	37.010
4.9373	37.281
4.9326	37.498
4.9279	37.709
4.9232	37.970
4.9186	38.319
4.9139	38.783
4.9092	39.375
4.9046	40.085
4.9000	40.883
4.8953	41.724
4.8907	42.562
4.8861	43.358
4.8815	44.088
4.8769	44.742
4.8723	45.332
4.8678	45.875
4.8632	46.388
4.8586	46.884
4.8541	47.371
4.8495	47.839
4.8450	48.275
4.8405	48.669
4.8360	49.001
4.8315	49.257
4.8270	49.432
4.8225	49.536
4.8180	49.577
4.8135	49.549
4.8090	49.458
4.8046	49.313
4.8001	49.124
4.7957	48.915
4.7913	48.717
4.7868	48.567
4.7824	48.499
4.7780	48.537
4.7736	48.680
4.7692	48.913
4.7648	49.209
4.7605	49.540
4.7561	49.880
4.7517	50.205
4.7474	50.506
4.7431	50.789
4.7387	51.055
4.7344	51.305
4.7301	51.548
4.7258	51.785
4.7215	52.013
4.7172	52.220
4.7129	52.397
4.7086	52.539
4.7043	52.634
4.7000	52.680
4.6958	52.693
4.6915	52.698
4.6873	52.723
4.6831	52.799
4.6788	52.944
4.6746	53.150
4.6704	53.393
4.6662	53.645
4.6620	53.890
4.6578	54.125
4.6536	54.360
4.6495	54.617
4.6453	54.911
4.6411	55.252
4.6370	55.633
4.6328	56.038
4.6287	56.452
4.6246	56.852
4.6205	57.224
4.6163	57.563
4.6122	57.876
4.6081	58.169
4.6040	58.434
4.6000	58.671
4.5959	58.890
4.5918	59.089
4.5877	59.268
4.5837	59.437
4.5796	59.606
4.5756	59.766
4.5716	59.920
4.5675	60.070
4.5635	60.213
4.5595	60.345
4.5555	60.452
4.5515	60.533
4.5475	60.584
4.5435	60.607
4.5395	60.618
4.5356	60.621
4.5316	60.618
4.5276	60.607
4.5237	60.576
4.5197	60.519
4.5158	60.432
4.5119	60.325
4.5080	60.213
4.5040	60.113
4.5001	60.038
4.4962	60.001
4.4923	60.004
4.4884	60.039
4.4846	60.087
4.4807	60.140
4.4768	60.192
4.4730	60.253
4.4691	60.340
4.4652	60.473
4.4614	60.663
4.4576	60.901
4.4537	61.166
4.4499	61.427
4.4461	61.657
4.4423	61.853
4.4385	62.026
4.4347	62.186
4.4309	62.349
4.4271	62.526
4.4233	62.719
4.4196	62.921
4.4158	63.123
4.4120	63.335
4.4083	63.560
4.4045	63.791
4.4008	64.035
4.3971	64.293
4.3934	64.563
4.3896	64.839
4.3859	65.112
4.3822	65.383
4.3785	65.647
4.3748	65.906
4.3711	66.159
4.3674	66.401
4.3638	66.630
4.3601	66.844
4.3564	67.043
4.3528	67.227
4.3491	67.401
4.3455	67.574
4.3418	67.744
4.3382	67.907
4.3346	68.061
4.3310	68.206
4.3273	68.336
4.3237	68.455
4.3201	68.560
4.3165	68.649
4.3129	68.731
4.3094	68.803
4.3058	68.870
4.3022	68.938
4.2986	69.006
4.2951	69.083
4.2915	69.168
4.2880	69.261
4.2844	69.365
4.2809	69.480
4.2774	69.603
4.2738	69.738
4.2703	69.874
4.2668	70.007
4.2633	70.131
4.2598	70.237
4.2563	70.321
4.2528	70.384
4.2493	70.428
4.2458	70.460
4.2424	70.486
4.2389	70.519
4.2354	70.561
4.2320	70.614
4.2285	70.681
4.2251	70.757
4.2216	70.831
4.2182	70.900
4.2148	70.965
4.2113	71.019
4.2079	71.062
4.2045	71.103
4.2011	71.145
4.1977	71.192
4.1943	71.245
4.1909	71.306
4.1875	71.373
4.1841	71.447
4.1808	71.524
4.1774	71.605
4.1740	71.682
4.1707	71.751
4.1673	71.813
4.1640	71.865
4.1606	71.915
4.1573	71.969
4.1540	72.025
4.1506	72.084
4.1473	72.145
4.1440	72.199
4.1407	72.249
4.1374	72.301
4.1341	72.353
4.1308	72.402
4.1275	72.458
4.1242	72.519
4.1209	72.576
4.1177	72.629
4.1144	72.683
4.1111	72.735
4.1079	72.785
4.1046	72.840
4.1014	72.900
4.0981	72.957
4.0949	73.013
4.0917	73.064
4.0884	73.108
4.0852	73.145
4.0820	73.178
4.0788	73.211
4.0756	73.241
4.0724	73.269
4.0692	73.297
4.0660	73.315
4.0628	73.325
4.0596	73.332
4.0565	73.339
4.0533	73.341
4.0501	73.340
4.0470	73.339
4.0438	73.334
4.0406	73.322
4.0375	73.305
4.0344	73.291
4.0312	73.280
4.0281	73.269
4.0250	73.260
4.0218	73.255
4.0187	73.254
4.0156	73.252
4.0125	73.252
4.0094	73.252
4.0063	73.254
4.0032	73.255
4.0001	73.257
3.9970	73.260
3.9940	73.267
3.9909	73.275
3.9878	73.284
3.9847	73.293
3.9817	73.311
3.9786	73.334
3.9756	73.357
3.9725	73.378
3.9695	73.400
3.9665	73.423
3.9634	73.447
3.9604	73.471
3.9574	73.506
3.9544	73.550
3.9513	73.591
3.9483	73.627
3.9453	73.656
3.9423	73.680
3.9393	73.706
3.9363	73.730
3.9333	73.752
3.9304	73.774
3.9274	73.789
3.9244	73.795
3.9214	73.795
3.9185	73.794
3.9155	73.795
3.9126	73.792
3.9096	73.785
3.9067	73.780
3.9037	73.768
3.9008	73.747
3.8979	73.724
3.8949	73.696
3.8920	73.662
3.8891	73.625
3.8862	73.594
3.8833	73.565
3.8804	73.536
3.8775	73.515
3.8746	73.493
3.8717	73.464
3.8688	73.433
3.8659	73.402
3.8630	73.369
3.8601	73.331
3.8573	73.303
3.8544	73.285
3.8515	73.265
3.8487	73.240
3.8458	73.219
3.8430	73.202
3.8401	73.182
3.8373	73.170
3.8344	73.166
3.8316	73.157
3.8288	73.143
3.8259	73.124
3.8231	73.107
3.8203	73.087
3.8175	73.068
3.8147	73.057
3.8119	73.046
3.8091	73.029
3.8063	73.006
3.8035	72.983
3.8007	72.954
3.7979	72.919
3.7951	72.882
3.7924	72.842
3.7896	72.797
3.7868	72.749
3.7841	72.704
3.7813	72.662
3.7785	72.616
3.7758	72.570
3.7730	72.521
3.7703	72.469
3.7676	72.413
3.7648	72.357
3.7621	72.303
3.7594	72.247
3.7566	72.195
3.7539	72.144
3.7512	72.088
3.7485	72.034
3.7458	71.988
3.7431	71.948
3.7404	71.910
3.7377	71.873
3.7350	71.843
3.7323	71.820
3.7296	71.794
3.7269	71.775
3.7242	71.761
3.7216	71.745
3.7189	71.721
3.7162	71.701
3.7136	71.686
3.7109	71.672
3.7083	71.657
3.7056	71.646
3.7030	71.632
3.7003	71.613
3.6977	71.597
3.6950	71.591
3.6924	71.586
3.6898	71.574
3.6872	71.562
3.6845	71.554
3.6819	71.542
3.6793	71.524
3.6767	71.509
3.6741	71.498
3.6715	71.484
3.6689	71.470
3.6663	71.451
3.6637	71.429
3.6611	71.401
3.6585	71.367
3.6560	71.332
3.6534	71.294
3.6508	71.259
3.6482	71.228
3.6457	71.195
3.6431	71.165
3.6406	71.134
3.6380	71.097
3.6355	71.056
3.6329	71.009
3.6304	70.964
3.6278	70.917
3.6253	70.872
3.6227	70.828
3.6202	70.781
3.6177	70.734
3.6152	70.687
3.6127	70.638
3.6101	70.586
3.6076	70.536
3.6051	70.482
3.6026	70.422
3.6001	70.364
3.5976	70.310
3.5951	70.253
3.5926	70.199
3.5901	70.145
3.5876	70.096
3.5852	70.037
3.5827	69.966
3.5802	69.899
3.5777	69.831
3.5753	69.759
3.5728	69.693
3.5704	69.636
3.5679	69.582
3.5654	69.517
3.5630	69.454
3.5605	69.394
3.5581	69.325
3.5557	69.249
3.5532	69.173
3.5508	69.103
3.5484	69.026
3.5459	68.944
3.5435	68.869
3.5411	68.797
3.5387	68.714
3.5363	68.628
3.5338	68.540
3.5314	68.442
3.5290	68.331
3.5266	68.211
3.5242	68.086
3.5218	67.965
3.5195	67.845
3.5171	67.726
3.5147	67.613
3.5123	67.495
3.5099	67.369
3.5075	67.238
3.5052	67.118
3.5028	67.012
3.5004	66.919
3.4981	66.846
3.4957	66.792
3.4934	66.748
3.4910	66.704
3.4887	66.650
3.4863	66.587
3.4840	66.515
3.4816	66.446
3.4793	66.391
3.4770	66.347
3.4746	66.319
3.4723	66.308
3.4700	66.287
3.4677	66.247
3.4653	66.194
3.4630	66.139
3.4607	66.080
3.4584	66.014
3.4561	65.943
3.4538	65.875
3.4515	65.804
3.4492	65.738
3.4469	65.673
3.4446	65.607
3.4423	65.542
3.4400	65.472
3.4378	65.401
3.4355	65.321
3.4332	65.233
3.4309	65.141
3.4287	65.038
3.4264	64.923
3.4241	64.802
3.4219	64.686
3.4196	64.590
3.4174	64.519
3.4151	64.466
3.4129	64.425
3.4106	64.394
3.4084	64.362
3.4061	64.325
3.4039	64.283
3.4017	64.243
3.3994	64.210
3.3972	64.175
3.3950	64.135
3.3928	64.092
3.3906	64.039
3.3883	63.969
3.3861	63.892
3.3839	63.809
3.3817	63.718
3.3795	63.640
3.3773	63.567
3.3751	63.499
3.3729	63.438
3.3707	63.377
3.3685	63.333
3.3663	63.301
3.3641	63.271
3.3620	63.247
3.3598	63.210
3.3576	63.167
3.3554	63.130
3.3533	63.090
3.3511	63.047
3.3489	63.007
3.3468	62.964
3.3446	62.911
3.3425	62.853
3.3403	62.802
3.3382	62.761
3.3360	62.712
3.3339	62.654
3.3317	62.593
3.3296	62.518
3.3274	62.431
3.3253	62.341
3.3232	62.255
3.3210	62.173
3.3189	62.094
3.3168	62.020
3.3147	61.946
3.3126	61.867
3.3104	61.791
3.3083	61.713
3.3062	61.636
3.3041	61.559
3.3020	61.481
3.2999	61.401
3.2978	61.320
3.2957	61.241
3.2936	61.163
3.2915	61.083
3.2894	61.003
3.2874	60.922
3.2853	60.840
3.2832	60.758
3.2811	60.681
3.2790	60.601
3.2770	60.517
3.2749	60.436
3.2728	60.361
3.2708	60.293
3.2687	60.226
3.2666	60.155
3.2646	60.078
3.2625	59.983
3.2605	59.888
3.2584	59.806
3.2564	59.734
3.2543	59.665
3.2523	59.597
3.2503	59.532
3.2482	59.456
3.2462	59.374
3.2442	59.292
3.2421	59.212
3.2401	59.130
3.2381	59.049
3.2361	58.972
3.2340	58.899
3.2320	58.824
3.2300	58.746
3.2280	58.665
3.2260	58.584
3.2240	58.503
3.2220	58.422
3.2200	58.340
3.2180	58.261
3.2160	58.186
3.2140	58.113
3.2120	58.037
3.2100	57.953
3.2080	57.867
3.2060	57.787
3.2040	57.702
3.2021	57.615
3.2001	57.537
3.1981	57.463
3.1961	57.376
3.1942	57.283
3.1922	57.210
3.1902	57.150
3.1883	57.082
3.1863	57.014
3.1844	56.945
3.1824	56.867
3.1805	56.776
3.1785	56.680
