Name: Tremolite Schist 
Type:  Rocks
Class:  Metamorphic 
Subclass: Schist 
Particle Size:  0-75 Micrometer
Sample No.:   schist6.doc
Owner:  JHU
Wavelength Range:  All
Origin:  Sample No. 468, The Hunt and Salisbury Collection at the U.S. 
Geological Survey, Denver, Co.
Description:  This is another coarse-grained rock composed of bent folia of 
tremolite and lenses and stringers of quartz.  Unlike the previous one, however, 
this sample is completely unaltered.  The bent folia are due to brittle deformation 
of the amphibole as a result of shear stress, with regions of concomittant 
granulation of this mineral.  Modes for this rock gave 75.4% amphibole and 
24.6% quartz.
Measurement:  Directional (10 Degree) Hemispherical Reflectance
First Column:  X
Second Column:  Y  
X Units:  Wavelength (micrometers)
Y Units:  Reflectance (percent)
First X Value: 14.9831	
Last X Value:  0.4
Number of X Values: 2868
Additional Information:  None

14.983	2.6748
14.940	2.7745
14.897	2.8638
14.854	2.9900
14.812	3.0684
14.770	3.0781
14.728	3.1305
14.686	3.1809
14.645	3.1222
14.603	3.0592
14.562	2.9619
14.521	2.7861
14.481	2.5803
14.441	2.3454
14.400	2.1553
14.361	2.0234
14.321	2.0056
14.281	2.1451
14.242	2.4037
14.203	2.7241
14.164	3.0772
14.126	3.4075
14.087	3.6875
14.049	3.9207
14.011	4.1258
13.973	4.3145
13.936	4.4796
13.899	4.5942
13.861	4.6764
13.824	4.7287
13.788	4.7522
13.751	4.7465
13.715	4.7276
13.679	4.7029
13.643	4.6740
13.607	4.6338
13.571	4.6179
13.536	4.6544
13.500	4.7240
13.465	4.7811
13.430	4.8102
13.396	4.7941
13.361	4.7183
13.327	4.5824
13.293	4.4126
13.259	4.2553
13.225	4.1303
13.191	4.0382
13.158	3.9809
13.124	3.9418
13.091	3.9039
13.058	3.8468
13.026	3.7682
12.993	3.6972
12.960	3.6512
12.928	3.6306
12.896	3.6325
12.864	3.6517
12.832	3.6702
12.800	3.6536
12.769	3.5892
12.737	3.4892
12.706	3.3798
12.675	3.3007
12.644	3.2898
12.614	3.3614
12.583	3.5004
12.552	3.6775
12.522	3.8506
12.492	3.9778
12.462	4.0349
12.432	4.0316
12.402	4.0005
12.373	3.9728
12.343	3.9868
12.314	4.0784
12.285	4.2563
12.256	4.5028
12.227	4.7913
12.198	5.0975
12.169	5.4044
12.141	5.6983
12.113	5.9813
12.084	6.2534
12.056	6.5181
12.028	6.7644
12.000	6.9846
11.973	7.1739
11.945	7.3316
11.918	7.4554
11.890	7.5525
11.863	7.6200
11.836	7.6709
11.809	7.7129
11.782	7.7349
11.755	7.7394
11.729	7.7351
11.702	7.7190
11.676	7.6851
11.650	7.6326
11.624	7.5746
11.598	7.5144
11.572	7.4445
11.546	7.3707
11.520	7.2987
11.495	7.2238
11.469	7.1407
11.444	7.0498
11.419	6.9558
11.394	6.8492
11.369	6.7223
11.344	6.5768
11.319	6.4236
11.294	6.2664
11.270	6.1108
11.245	5.9576
11.221	5.8214
11.197	5.7075
11.173	5.6066
11.149	5.5159
11.125	5.4382
11.101	5.3719
11.077	5.3184
11.054	5.2682
11.030	5.2201
11.007	5.1721
10.983	5.1223
10.960	5.0681
10.937	5.0120
10.914	4.9592
10.891	4.9092
10.868	4.8564
10.846	4.7995
10.823	4.7441
10.800	4.7058
10.778	4.6932
10.755	4.7150
10.733	4.7699
10.711	4.8488
10.689	4.9461
10.667	5.0518
10.645	5.1552
10.623	5.2528
10.602	5.3504
10.580	5.4524
10.558	5.5630
10.537	5.6807
10.516	5.8003
10.494	5.9168
10.473	6.0203
10.452	6.1044
10.431	6.1726
10.410	6.2235
10.389	6.2747
10.368	6.3339
10.348	6.4049
10.327	6.4982
10.306	6.6107
10.286	6.7343
10.266	6.8556
10.245	6.9681
10.225	7.0846
10.205	7.2065
10.185	7.3193
10.165	7.4116
10.145	7.4696
10.125	7.4867
10.106	7.4538
10.086	7.3761
10.066	7.2686
10.047	7.1431
10.027	7.0000
10.008	6.8454
9.9887	6.6879
9.9695	6.5321
9.9504	6.3751
9.9313	6.2216
9.9123	6.0691
9.8934	5.9107
9.8746	5.7421
9.8558	5.5735
9.8371	5.4127
9.8185	5.2687
9.7999	5.1571
9.7814	5.0960
9.7630	5.0885
9.7447	5.1233
9.7264	5.1891
9.7082	5.2777
9.6900	5.3762
9.6719	5.4757
9.6539	5.5675
9.6360	5.6457
9.6181	5.7163
9.6003	5.7750
9.5825	5.8254
9.5649	5.8818
9.5472	5.9557
9.5297	6.0476
9.5122	6.1470
9.4948	6.2427
9.4774	6.3370
9.4601	6.4447
9.4429	6.5918
9.4257	6.8186
9.4086	7.1412
9.3916	7.5438
9.3746	7.9913
9.3577	8.4351
9.3408	8.8275
9.3240	9.1425
9.3073	9.3658
9.2906	9.5129
9.2740	9.5991
9.2574	9.6365
9.2409	9.6408
9.2245	9.6275
9.2081	9.6074
9.1918	9.6012
9.1755	9.6185
9.1593	9.6578
9.1431	9.7154
9.1270	9.7774
9.1110	9.8257
9.0950	9.8480
9.0791	9.8316
9.0632	9.7900
9.0474	9.7327
9.0316	9.6680
9.0159	9.6140
9.0003	9.5830
8.9847	9.5754
8.9691	9.5875
8.9536	9.6119
8.9382	9.6488
8.9228	9.6931
8.9075	9.7409
8.8922	9.8001
8.8770	9.8781
8.8618	9.9538
8.8467	10.023
8.8316	10.089
8.8166	10.148
8.8016	10.193
8.7867	10.221
8.7718	10.245
8.7570	10.272
8.7422	10.285
8.7275	10.277
8.7129	10.238
8.6982	10.124
8.6837	9.8617
8.6692	9.4253
8.6547	8.9066
8.6403	8.4647
8.6259	8.2267
8.6116	8.2540
8.5973	8.5256
8.5830	8.9216
8.5688	9.2758
8.5547	9.4793
8.5406	9.5373
8.5266	9.5091
8.5126	9.4357
8.4986	9.3369
8.4847	9.2261
8.4708	9.1049
8.4570	8.9805
8.4432	8.8628
8.4295	8.7636
8.4158	8.6874
8.4022	8.6312
8.3886	8.5881
8.3750	8.5623
8.3615	8.5569
8.3481	8.5711
8.3347	8.6118
8.3213	8.6829
8.3079	8.7830
8.2946	8.9081
8.2814	9.0592
8.2682	9.2361
8.2550	9.4305
8.2419	9.6280
8.2288	9.8172
8.2158	9.9844
8.2028	10.103
8.1898	10.143
8.1769	10.090
8.1640	9.9349
8.1512	9.6787
8.1384	9.3369
8.1256	8.9384
8.1129	8.5199
8.1002	8.1048
8.0876	7.7093
8.0750	7.3406
8.0624	6.9989
8.0499	6.6893
8.0374	6.4099
8.0250	6.1572
8.0126	5.9284
8.0002	5.7158
7.9879	5.5121
7.9756	5.3063
7.9634	5.0906
7.9512	4.8706
7.9390	4.6506
7.9268	4.4365
7.9147	4.2362
7.9027	4.0578
7.8906	3.8992
7.8786	3.7580
7.8667	3.6361
7.8548	3.5354
7.8429	3.4495
7.8310	3.3765
7.8192	3.3235
7.8075	3.2951
7.7957	3.2853
7.7840	3.2934
7.7723	3.3133
7.7607	3.3363
7.7491	3.3505
7.7375	3.3526
7.7260	3.3526
7.7145	3.3547
7.7031	3.3644
7.6916	3.3884
7.6802	3.4196
7.6689	3.4495
7.6575	3.4736
7.6462	3.4892
7.6350	3.5006
7.6238	3.5084
7.6126	3.5207
7.6014	3.5515
7.5903	3.5958
7.5792	3.6467
7.5681	3.7012
7.5571	3.7557
7.5461	3.8071
7.5351	3.8497
7.5242	3.8883
7.5133	3.9231
7.5024	3.9562
7.4916	3.9913
7.4807	4.0297
7.4700	4.0756
7.4592	4.1317
7.4485	4.1945
7.4378	4.2632
7.4272	4.3344
7.4165	4.4097
7.4059	4.4877
7.3954	4.5625
7.3848	4.6359
7.3743	4.7105
7.3639	4.7820
7.3534	4.8540
7.3430	4.9360
7.3326	5.0276
7.3223	5.1278
7.3119	5.2374
7.3016	5.3636
7.2914	5.5060
7.2811	5.6568
7.2709	5.8176
7.2607	5.9914
7.2506	6.1660
7.2404	6.3296
7.2303	6.4814
7.2203	6.6254
7.2102	6.7540
7.2002	6.8634
7.1902	6.9569
7.1803	7.0491
7.1703	7.1417
7.1604	7.2414
7.1506	7.3647
7.1407	7.5125
7.1309	7.6724
7.1211	7.8346
7.1113	7.9871
7.1016	8.1287
7.0919	8.2528
7.0822	8.3627
7.0725	8.4655
7.0629	8.5663
7.0533	8.6736
7.0437	8.7942
7.0341	8.9284
7.0246	9.0745
7.0151	9.2280
7.0056	9.3893
6.9962	9.5515
6.9867	9.7149
6.9773	9.8863
6.9679	10.064
6.9586	10.238
6.9493	10.401
6.9400	10.554
6.9307	10.694
6.9214	10.813
6.9122	10.909
6.9030	10.988
6.8938	11.049
6.8847	11.088
6.8755	11.113
6.8664	11.138
6.8573	11.165
6.8483	11.194
6.8393	11.227
6.8302	11.263
6.8213	11.296
6.8123	11.316
6.8034	11.328
6.7944	11.337
6.7855	11.339
6.7767	11.326
6.7678	11.304
6.7590	11.279
6.7502	11.257
6.7414	11.239
6.7327	11.232
6.7239	11.244
6.7152	11.274
6.7065	11.331
6.6979	11.425
6.6892	11.562
6.6806	11.738
6.6720	11.939
6.6634	12.132
6.6549	12.294
6.6464	12.417
6.6378	12.503
6.6294	12.563
6.6209	12.605
6.6124	12.638
6.6040	12.660
6.5956	12.660
6.5872	12.645
6.5789	12.624
6.5705	12.607
6.5622	12.623
6.5539	12.697
6.5456	12.857
6.5374	13.125
6.5292	13.497
6.5209	13.947
6.5128	14.440
6.5046	14.935
6.4964	15.404
6.4883	15.824
6.4802	16.191
6.4721	16.512
6.4640	16.780
6.4560	16.987
6.4480	17.135
6.4399	17.218
6.4320	17.239
6.4240	17.205
6.4160	17.121
6.4081	16.987
6.4002	16.795
6.3923	16.550
6.3844	16.261
6.3766	15.935
6.3687	15.588
6.3609	15.244
6.3531	14.907
6.3454	14.564
6.3376	14.203
6.3299	13.815
6.3221	13.409
6.3144	12.995
6.3068	12.584
6.2991	12.184
6.2914	11.797
6.2838	11.424
6.2762	11.062
6.2686	10.711
6.2611	10.382
6.2535	10.086
6.2460	9.8267
6.2385	9.5974
6.2310	9.4028
6.2235	9.2467
6.2160	9.1292
6.2086	9.0525
6.2011	9.0243
6.1937	9.0535
6.1863	9.1468
6.1790	9.3043
6.1716	9.5190
6.1643	9.7781
6.1570	10.065
6.1496	10.363
6.1424	10.657
6.1351	10.936
6.1278	11.201
6.1206	11.449
6.1134	11.681
6.1062	11.904
6.0990	12.119
6.0918	12.332
6.0847	12.538
6.0776	12.735
6.0704	12.918
6.0633	13.087
6.0563	13.253
6.0492	13.427
6.0421	13.607
6.0351	13.787
6.0281	13.960
6.0211	14.105
6.0141	14.197
6.0071	14.225
6.0002	14.190
5.9932	14.098
5.9863	13.955
5.9794	13.775
5.9725	13.578
5.9657	13.379
5.9588	13.193
5.9520	13.037
5.9451	12.932
5.9383	12.891
5.9315	12.919
5.9247	13.019
5.9180	13.179
5.9112	13.388
5.9045	13.628
5.8978	13.885
5.8911	14.152
5.8844	14.419
5.8777	14.679
5.8711	14.937
5.8644	15.194
5.8578	15.450
5.8512	15.698
5.8446	15.933
5.8380	16.157
5.8314	16.368
5.8249	16.569
5.8184	16.763
5.8118	16.956
5.8053	17.144
5.7988	17.321
5.7923	17.487
5.7859	17.644
5.7794	17.801
5.7730	17.960
5.7666	18.123
5.7602	18.291
5.7538	18.455
5.7474	18.619
5.7410	18.780
5.7347	18.922
5.7283	19.044
5.7220	19.143
5.7157	19.211
5.7094	19.237
5.7031	19.213
5.6969	19.140
5.6906	19.013
5.6844	18.826
5.6782	18.583
5.6719	18.291
5.6657	17.950
5.6596	17.563
5.6534	17.144
5.6472	16.713
5.6411	16.288
5.6349	15.895
5.6288	15.549
5.6227	15.262
5.6166	15.030
5.6106	14.844
5.6045	14.701
5.5984	14.588
5.5924	14.498
5.5864	14.432
5.5804	14.400
5.5744	14.407
5.5684	14.450
5.5624	14.541
5.5564	14.677
5.5505	14.848
5.5445	15.052
5.5386	15.288
5.5327	15.554
5.5268	15.838
5.5209	16.134
5.5151	16.431
5.5092	16.716
5.5033	16.983
5.4975	17.228
5.4917	17.448
5.4859	17.652
5.4801	17.845
5.4743	18.036
5.4685	18.222
5.4628	18.397
5.4570	18.551
5.4513	18.662
5.4455	18.713
5.4398	18.688
5.4341	18.576
5.4284	18.366
5.4228	18.052
5.4171	17.638
5.4114	17.135
5.4058	16.562
5.4002	15.942
5.3945	15.309
5.3889	14.698
5.3833	14.138
5.3778	13.657
5.3722	13.266
5.3666	12.967
5.3611	12.750
5.3555	12.606
5.3500	12.523
5.3445	12.491
5.3390	12.498
5.3335	12.535
5.3280	12.596
5.3225	12.672
5.3171	12.765
5.3116	12.881
5.3062	13.021
5.3008	13.193
5.2954	13.397
5.2900	13.636
5.2846	13.906
5.2792	14.202
5.2738	14.521
5.2684	14.858
5.2631	15.212
5.2578	15.591
5.2524	16.008
5.2471	16.473
5.2418	16.991
5.2365	17.559
5.2312	18.164
5.2260	18.776
5.2207	19.360
5.2154	19.882
5.2102	20.320
5.2050	20.660
5.1998	20.897
5.1945	21.045
5.1893	21.125
5.1842	21.156
5.1790	21.158
5.1738	21.140
5.1686	21.118
5.1635	21.087
5.1584	21.044
5.1532	20.990
5.1481	20.927
5.1430	20.864
5.1379	20.816
5.1328	20.795
5.1277	20.806
5.1227	20.849
5.1176	20.912
5.1126	20.977
5.1075	21.016
5.1025	21.016
5.0975	20.977
5.0925	20.897
5.0875	20.784
5.0825	20.664
5.0775	20.559
5.0726	20.485
5.0676	20.448
5.0627	20.452
5.0577	20.490
5.0528	20.550
5.0479	20.616
5.0430	20.678
5.0380	20.725
5.0332	20.753
5.0283	20.766
5.0234	20.772
5.0185	20.788
5.0137	20.831
5.0088	20.909
5.0040	21.024
4.9992	21.176
4.9944	21.374
4.9896	21.633
4.9848	21.961
4.9800	22.373
4.9752	22.875
4.9704	23.448
4.9657	24.049
4.9609	24.633
4.9562	25.170
4.9514	25.631
4.9467	26.006
4.9420	26.322
4.9373	26.617
4.9326	26.934
4.9279	27.312
4.9232	27.782
4.9186	28.374
4.9139	29.090
4.9092	29.912
4.9046	30.813
4.9000	31.750
4.8953	32.680
4.8907	33.567
4.8861	34.382
4.8815	35.114
4.8769	35.769
4.8723	36.356
4.8678	36.889
4.8632	37.375
4.8586	37.818
4.8541	38.217
4.8495	38.576
4.8450	38.893
4.8405	39.181
4.8360	39.439
4.8315	39.675
4.8270	39.894
4.8225	40.100
4.8180	40.297
4.8135	40.492
4.8090	40.690
4.8046	40.899
4.8001	41.119
4.7957	41.353
4.7913	41.605
4.7868	41.874
4.7824	42.150
4.7780	42.429
4.7736	42.712
4.7692	43.000
4.7648	43.290
4.7605	43.583
4.7561	43.880
4.7517	44.184
4.7474	44.484
4.7431	44.773
4.7387	45.048
4.7344	45.305
4.7301	45.544
4.7258	45.764
4.7215	45.965
4.7172	46.145
4.7129	46.292
4.7086	46.393
4.7043	46.444
4.7000	46.452
4.6958	46.440
4.6915	46.446
4.6873	46.515
4.6831	46.682
4.6788	46.964
4.6746	47.356
4.6704	47.831
4.6662	48.352
4.6620	48.882
4.6578	49.407
4.6536	49.923
4.6495	50.427
4.6453	50.927
4.6411	51.427
4.6370	51.918
4.6328	52.391
4.6287	52.844
4.6246	53.281
4.6205	53.701
4.6163	54.102
4.6122	54.489
4.6081	54.869
4.6040	55.238
4.6000	55.595
4.5959	55.942
4.5918	56.279
4.5877	56.607
4.5837	56.922
4.5796	57.222
4.5756	57.511
4.5716	57.785
4.5675	58.039
4.5635	58.272
4.5595	58.481
4.5555	58.660
4.5515	58.799
4.5475	58.884
4.5435	58.912
4.5395	58.877
4.5356	58.780
4.5316	58.631
4.5276	58.430
4.5237	58.173
4.5197	57.862
4.5158	57.502
4.5119	57.104
4.5080	56.692
4.5040	56.306
4.5001	55.981
4.4962	55.736
4.4923	55.572
4.4884	55.479
4.4846	55.420
4.4807	55.367
4.4768	55.323
4.4730	55.306
4.4691	55.345
4.4652	55.472
4.4614	55.699
4.4576	56.020
4.4537	56.394
4.4499	56.770
4.4461	57.119
4.4423	57.430
4.4385	57.704
4.4347	57.956
4.4309	58.208
4.4271	58.475
4.4233	58.754
4.4196	59.042
4.4158	59.342
4.4120	59.648
4.4083	59.960
4.4045	60.285
4.4008	60.628
4.3971	60.981
4.3934	61.343
4.3896	61.719
4.3859	62.099
4.3822	62.472
4.3785	62.836
4.3748	63.194
4.3711	63.543
4.3674	63.873
4.3638	64.185
4.3601	64.488
4.3564	64.769
4.3528	65.022
4.3491	65.249
4.3455	65.450
4.3418	65.622
4.3382	65.765
4.3346	65.882
4.3310	65.977
4.3273	66.041
4.3237	66.079
4.3201	66.092
4.3165	66.079
4.3129	66.046
4.3094	66.005
4.3058	65.956
4.3022	65.906
4.2986	65.868
4.2951	65.853
4.2915	65.860
4.2880	65.889
4.2844	65.950
4.2809	66.046
4.2774	66.168
4.2738	66.316
4.2703	66.475
4.2668	66.631
4.2633	66.771
4.2598	66.877
4.2563	66.945
4.2528	66.976
4.2493	66.984
4.2458	66.974
4.2424	66.948
4.2389	66.925
4.2354	66.917
4.2320	66.924
4.2285	66.949
4.2251	66.992
4.2216	67.040
4.2182	67.080
4.2148	67.108
4.2113	67.128
4.2079	67.140
4.2045	67.154
4.2011	67.179
4.1977	67.216
4.1943	67.269
4.1909	67.344
4.1875	67.442
4.1841	67.551
4.1808	67.663
4.1774	67.773
4.1740	67.879
4.1707	67.976
4.1673	68.071
4.1640	68.162
4.1606	68.248
4.1573	68.333
4.1540	68.412
4.1506	68.488
4.1473	68.571
4.1440	68.662
4.1407	68.760
4.1374	68.856
4.1341	68.955
4.1308	69.056
4.1275	69.153
4.1242	69.250
4.1209	69.352
4.1177	69.460
4.1144	69.567
4.1111	69.675
4.1079	69.786
4.1046	69.893
4.1014	70.001
4.0981	70.111
4.0949	70.217
4.0917	70.322
4.0884	70.418
4.0852	70.505
4.0820	70.583
4.0788	70.652
4.0756	70.720
4.0724	70.783
4.0692	70.836
4.0660	70.879
4.0628	70.914
4.0596	70.937
4.0565	70.946
4.0533	70.941
4.0501	70.931
4.0470	70.911
4.0438	70.878
4.0406	70.839
4.0375	70.800
4.0344	70.753
4.0312	70.695
4.0281	70.631
4.0250	70.571
4.0218	70.522
4.0187	70.480
4.0156	70.448
4.0125	70.421
4.0094	70.387
4.0063	70.345
4.0032	70.290
4.0001	70.228
3.9970	70.168
3.9940	70.105
3.9909	70.050
3.9878	70.010
3.9847	69.988
3.9817	69.996
3.9786	70.026
3.9756	70.079
3.9725	70.157
3.9695	70.254
3.9665	70.358
3.9634	70.473
3.9604	70.604
3.9574	70.746
3.9544	70.894
3.9513	71.052
3.9483	71.226
3.9453	71.400
3.9423	71.551
3.9393	71.679
3.9363	71.786
3.9333	71.869
3.9304	71.928
3.9274	71.976
3.9244	72.026
3.9214	72.078
3.9185	72.125
3.9155	72.161
3.9126	72.186
3.9096	72.205
3.9067	72.217
3.9037	72.223
3.9008	72.224
3.8979	72.221
3.8949	72.210
3.8920	72.191
3.8891	72.170
3.8862	72.150
3.8833	72.128
3.8804	72.101
3.8775	72.075
3.8746	72.054
3.8717	72.028
3.8688	72.002
3.8659	71.984
3.8630	71.977
3.8601	71.972
3.8573	71.970
3.8544	71.976
3.8515	71.990
3.8487	72.002
3.8458	72.020
3.8430	72.052
3.8401	72.096
3.8373	72.145
3.8344	72.193
3.8316	72.239
3.8288	72.283
3.8259	72.328
3.8231	72.374
3.8203	72.424
3.8175	72.474
3.8147	72.522
3.8119	72.565
3.8091	72.604
3.8063	72.636
3.8035	72.663
3.8007	72.679
3.7979	72.690
3.7951	72.692
3.7924	72.687
3.7896	72.675
3.7868	72.654
3.7841	72.626
3.7813	72.590
3.7785	72.549
3.7758	72.506
3.7730	72.455
3.7703	72.404
3.7676	72.351
3.7648	72.303
3.7621	72.258
3.7594	72.214
3.7566	72.175
3.7539	72.143
3.7512	72.114
3.7485	72.087
3.7458	72.068
3.7431	72.062
3.7404	72.058
3.7377	72.058
3.7350	72.066
3.7323	72.082
3.7296	72.103
3.7269	72.126
3.7242	72.155
3.7216	72.189
3.7189	72.226
3.7162	72.276
3.7136	72.343
3.7109	72.404
3.7083	72.425
3.7056	72.414
3.7030	72.356
3.7003	72.236
3.6977	72.103
3.6950	72.057
3.6924	72.140
3.6898	72.322
3.6872	72.548
3.6845	72.787
3.6819	72.975
3.6793	73.066
3.6767	73.091
3.6741	73.106
3.6715	73.130
3.6689	73.153
3.6663	73.171
3.6637	73.180
3.6611	73.181
3.6585	73.185
3.6560	73.193
3.6534	73.207
3.6508	73.222
3.6482	73.229
3.6457	73.234
3.6431	73.225
3.6406	73.204
3.6380	73.183
3.6355	73.169
3.6329	73.157
3.6304	73.138
3.6278	73.119
3.6253	73.105
3.6227	73.087
3.6202	73.063
3.6177	73.051
3.6152	73.052
3.6127	73.043
3.6101	73.020
3.6076	73.000
3.6051	72.978
3.6026	72.951
3.6001	72.925
3.5976	72.913
3.5951	72.908
3.5926	72.897
3.5901	72.883
3.5876	72.873
3.5852	72.860
3.5827	72.848
3.5802	72.829
3.5777	72.804
3.5753	72.777
3.5728	72.750
3.5704	72.728
3.5679	72.703
3.5654	72.678
3.5630	72.647
3.5605	72.599
3.5581	72.537
3.5557	72.473
3.5532	72.402
3.5508	72.327
3.5484	72.249
3.5459	72.166
3.5435	72.074
3.5411	71.969
3.5387	71.855
3.5363	71.735
3.5338	71.596
3.5314	71.436
3.5290	71.267
3.5266	71.075
3.5242	70.864
3.5218	70.638
3.5195	70.413
3.5171	70.194
3.5147	69.980
3.5123	69.775
3.5099	69.602
3.5075	69.464
3.5052	69.375
3.5028	69.341
3.5004	69.373
3.4981	69.459
3.4957	69.567
3.4934	69.672
3.4910	69.759
3.4887	69.821
3.4863	69.857
3.4840	69.867
3.4816	69.866
3.4793	69.885
3.4770	69.914
3.4746	69.938
3.4723	69.959
3.4700	69.975
3.4677	69.980
3.4653	69.967
3.4630	69.928
3.4607	69.877
3.4584	69.801
3.4561	69.683
3.4538	69.537
3.4515	69.373
3.4492	69.202
3.4469	69.027
3.4446	68.857
3.4423	68.692
3.4400	68.527
3.4378	68.360
3.4355	68.202
3.4332	68.040
3.4309	67.851
3.4287	67.643
3.4264	67.438
3.4241	67.228
3.4219	67.019
3.4196	66.836
3.4174	66.689
3.4151	66.568
3.4129	66.466
3.4106	66.389
3.4084	66.349
3.4061	66.334
3.4039	66.324
3.4017	66.311
3.3994	66.274
3.3972	66.202
3.3950	66.099
3.3928	65.962
3.3906	65.803
3.3883	65.637
3.3861	65.472
3.3839	65.320
3.3817	65.178
3.3795	65.059
3.3773	64.972
3.3751	64.905
3.3729	64.835
3.3707	64.748
3.3685	64.625
3.3663	64.442
3.3641	64.196
3.3620	63.914
3.3598	63.614
3.3576	63.321
3.3554	63.070
3.3533	62.884
3.3511	62.778
3.3489	62.761
3.3468	62.832
3.3446	62.987
3.3425	63.202
3.3403	63.453
3.3382	63.718
3.3360	63.955
3.3339	64.145
3.3317	64.278
3.3296	64.356
3.3274	64.398
3.3253	64.429
3.3232	64.473
3.3210	64.532
3.3189	64.592
3.3168	64.638
3.3147	64.668
3.3126	64.696
3.3104	64.732
3.3083	64.797
3.3062	64.920
3.3041	65.085
3.3020	65.271
3.2999	65.465
3.2978	65.658
3.2957	65.842
3.2936	66.016
3.2915	66.192
3.2894	66.388
3.2874	66.581
3.2853	66.751
3.2832	66.902
3.2811	67.024
3.2790	67.109
3.2770	67.160
3.2749	67.190
3.2728	67.205
3.2708	67.195
3.2687	67.153
3.2666	67.098
3.2646	67.043
3.2625	66.981
3.2605	66.913
3.2584	66.852
3.2564	66.787
3.2543	66.706
3.2523	66.615
3.2503	66.518
3.2482	66.421
3.2462	66.323
3.2442	66.231
3.2421	66.155
3.2401	66.077
3.2381	65.990
3.2361	65.901
3.2340	65.805
3.2320	65.698
3.2300	65.588
3.2280	65.481
3.2260	65.381
3.2240	65.276
3.2220	65.169
3.2200	65.060
3.2180	64.939
3.2160	64.802
3.2140	64.651
