Name: Clinozoisite Ca2Al3(SiO4)3(OH)
Type:  Mineral
Class:   Silicates 
Subclass:   Sorosilicates (Epidote Group)
Particle Size:  Solid (cleavage face)
Sample No.:  clinozo.1
Owner:  JHU
Wavelength Range:  IR
Origin:  Sample from Baja California, Mexico via Smithsonian (sample 
no. NMNH 112513-2.
Description: The sample was one large (2.5 cm x 2 cm x 2 cm) crystal 
with good crystal faces, weighing 19 g.  It was dark gray in color, 
with <<1% limonitic surface contamination, which was easily removed.  
Under the microscope the sample appears to be pure and free from 
alteration.

Measurement:  Bidirectional reflectance 
First Column:  X
Second Column:  Y  
X Units:  Wavelength (micrometers)
Y Units:  Reflectance (percent)
First X Value:  25.0442
Last X Value:  2.079
Number of X Values:  2287
Additional Information: clinoz1a.txt

25.044	38.398
24.924	40.066
24.805	41.605
24.686	43.337
24.569	44.543
24.454	45.320
24.339	45.957
24.225	46.347
24.112	45.371
24.001	43.076
23.890	40.217
23.781	37.243
23.672	34.741
23.564	33.270
23.458	32.905
23.352	33.076
23.247	33.432
23.144	34.073
23.041	34.687
22.939	35.350
22.838	36.094
22.738	36.750
22.638	37.192
22.540	37.688
22.442	37.994
22.345	37.947
22.250	37.561
22.154	36.872
22.060	36.281
21.967	35.879
21.874	35.773
21.782	35.915
21.691	35.811
21.601	34.797
21.511	32.643
21.422	29.754
21.334	27.038
21.247	25.397
21.160	25.077
21.074	25.313
20.988	25.728
20.904	26.232
20.820	26.804
20.737	27.404
20.654	27.954
20.572	28.624
20.491	29.401
20.410	30.241
20.330	30.926
20.251	31.432
20.172	31.851
20.094	32.179
20.016	32.276
19.939	32.393
19.863	32.798
19.787	33.244
19.712	33.704
19.637	34.428
19.563	35.129
19.489	35.602
19.416	36.031
19.344	36.417
19.272	36.486
19.201	36.340
19.130	36.094
19.059	35.543
18.990	34.558
18.920	33.336
18.851	31.819
18.783	29.751
18.715	27.134
18.648	24.449
18.581	22.093
18.515	20.400
18.449	19.575
18.384	19.625
18.319	20.298
18.254	21.306
18.190	22.608
18.126	24.217
18.063	25.976
18.001	27.699
17.938	29.439
17.876	31.054
17.815	32.321
17.754	33.591
17.693	35.104
17.633	36.794
17.573	38.564
17.514	40.450
17.455	42.231
17.396	43.576
17.338	44.590
17.280	45.375
17.223	45.520
17.166	44.905
17.109	43.708
17.053	41.787
16.997	38.926
16.942	35.388
16.886	31.708
16.832	28.478
16.777	26.367
16.723	25.819
16.669	26.364
16.616	27.194
16.563	27.837
16.510	28.150
16.458	28.049
16.406	27.525
16.354	26.648
16.302	25.338
16.251	23.647
16.200	21.750
16.150	19.720
16.100	17.692
16.050	15.947
16.000	14.773
15.951	14.276
15.902	14.339
15.854	14.758
15.805	15.396
15.757	16.153
15.710	16.942
15.662	17.867
15.615	19.133
15.568	20.742
15.521	22.507
15.475	24.417
15.429	26.367
15.383	28.077
15.338	29.474
15.292	30.656
15.248	31.607
15.203	32.313
15.158	33.155
15.114	34.275
15.070	35.487
15.027	36.661
14.983	37.736
14.940	38.327
14.897	38.159
14.854	37.140
14.812	35.082
14.770	32.234
14.728	29.475
14.686	27.462
14.645	26.071
14.603	24.948
14.562	24.028
14.521	23.300
14.481	22.737
14.441	22.344
14.400	22.076
14.361	21.692
14.321	21.035
14.281	20.151
14.242	19.142
14.203	18.200
14.164	17.518
14.126	17.192
14.087	17.160
14.049	17.315
14.011	17.489
13.973	17.554
13.936	17.494
13.899	17.249
13.861	16.747
13.824	16.131
13.788	15.474
13.751	14.854
13.715	14.444
13.679	14.248
13.643	14.056
13.607	13.628
13.571	12.936
13.536	12.138
13.500	11.532
13.465	11.301
13.430	11.362
13.396	11.569
13.361	11.856
13.327	12.163
13.293	12.466
13.259	12.744
13.225	12.995
13.191	13.262
13.158	13.537
13.124	13.783
13.091	14.015
13.058	14.217
13.026	14.426
12.993	14.663
12.960	14.844
12.928	15.014
12.896	15.223
12.864	15.391
12.832	15.554
12.800	15.734
12.769	15.929
12.737	16.110
12.706	16.283
12.675	16.460
12.644	16.648
12.614	16.834
12.583	17.021
12.552	17.234
12.522	17.432
12.492	17.598
12.462	17.776
12.432	17.955
12.402	18.141
12.373	18.312
12.343	18.465
12.314	18.646
12.285	18.844
12.256	19.031
12.227	19.249
12.198	19.509
12.169	19.761
12.141	20.039
12.113	20.376
12.084	20.692
12.056	21.002
12.028	21.364
12.000	21.764
11.973	22.124
11.945	22.427
11.918	22.692
11.890	22.843
11.863	22.795
11.836	22.555
11.809	22.185
11.782	21.766
11.755	21.485
11.729	21.529
11.702	21.845
11.676	22.330
11.650	22.988
11.624	23.695
11.598	24.326
11.572	24.797
11.546	24.944
11.520	24.711
11.495	24.240
11.469	23.903
11.444	23.917
11.419	24.282
11.394	24.958
11.369	25.843
11.344	26.807
11.319	27.815
11.294	28.882
11.270	30.024
11.245	31.258
11.221	32.578
11.197	33.964
11.173	35.264
11.149	36.250
11.125	36.746
11.101	36.736
11.077	36.299
11.054	35.520
11.030	34.539
11.007	33.504
10.983	32.541
10.960	31.818
10.937	31.475
10.914	31.359
10.891	31.139
10.868	30.623
10.846	29.922
10.823	29.291
10.800	29.060
10.778	29.433
10.755	30.285
10.733	31.446
10.711	32.832
10.689	34.423
10.667	36.176
10.645	38.123
10.623	40.259
10.602	42.506
10.580	44.832
10.558	47.227
10.537	49.592
10.516	51.692
10.494	53.328
10.473	54.497
10.452	55.239
10.431	55.594
10.410	55.681
10.389	55.602
10.368	55.399
10.348	55.044
10.327	54.499
10.306	53.732
10.286	52.657
10.266	51.293
10.245	49.802
10.225	48.454
10.205	47.425
10.185	46.765
10.165	46.414
10.145	46.275
10.125	46.284
10.106	46.397
10.086	46.604
10.066	46.811
10.047	46.870
10.027	46.685
10.008	46.068
9.9887	44.801
9.9695	42.831
9.9504	40.243
9.9313	37.185
9.9123	33.861
9.8934	30.467
9.8746	27.098
9.8558	23.833
9.8371	20.719
9.8185	17.841
9.7999	15.315
9.7814	13.345
9.7630	12.100
9.7447	11.589
9.7264	11.676
9.7082	12.233
9.6900	13.218
9.6719	14.733
9.6539	16.878
9.6360	19.603
9.6181	22.605
9.6003	25.450
9.5825	27.760
9.5649	29.412
9.5472	30.508
9.5297	31.204
9.5122	31.697
9.4948	32.161
9.4774	32.708
9.4601	33.314
9.4429	33.894
9.4257	34.382
9.4086	34.702
9.3916	34.775
9.3746	34.577
9.3577	34.133
9.3408	33.439
9.3240	32.598
9.3073	31.808
9.2906	31.119
9.2740	30.501
9.2574	29.921
9.2409	29.352
9.2245	28.816
9.2081	28.432
9.1918	28.229
9.1755	28.152
9.1593	28.100
9.1431	28.068
9.1270	28.118
9.1110	28.322
9.0950	28.778
9.0791	29.501
9.0632	30.346
9.0474	31.197
9.0316	31.997
9.0159	32.701
9.0003	33.303
8.9847	33.835
8.9691	34.273
8.9536	34.604
8.9382	34.870
8.9228	35.090
8.9075	35.200
8.8922	35.235
8.8770	35.260
8.8618	35.259
8.8467	35.210
8.8316	35.170
8.8166	35.152
8.8016	35.067
8.7867	34.922
8.7718	34.740
8.7570	34.475
8.7422	34.161
8.7275	33.867
8.7129	33.520
8.6982	33.036
8.6837	32.468
8.6692	31.745
8.6547	30.783
8.6403	29.647
8.6259	28.379
8.6116	26.940
8.5973	25.395
8.5830	23.864
8.5688	22.307
8.5547	20.718
8.5406	19.182
8.5266	17.704
8.5126	16.241
8.4986	14.839
8.4847	13.550
8.4708	12.315
8.4570	11.119
8.4432	9.9931
8.4295	8.9282
8.4158	7.9121
8.4022	6.9433
8.3886	6.0532
8.3750	5.2610
8.3615	4.5852
8.3481	4.0698
8.3347	3.7197
8.3213	3.5283
8.3079	3.4924
8.2946	3.5649
8.2814	3.6877
8.2682	3.8350
8.2550	4.0090
8.2419	4.1892
8.2288	4.3713
8.2158	4.5503
8.2028	4.7226
8.1898	4.8862
8.1769	5.0503
8.1640	5.2014
8.1512	5.3462
8.1384	5.4912
8.1256	5.6326
8.1129	5.7605
8.1002	5.8860
8.0876	6.0127
8.0750	6.1257
8.0624	6.2324
8.0499	6.3530
8.0374	6.4582
8.0250	6.5437
8.0126	6.6299
8.0002	6.7207
7.9879	6.8125
7.9756	6.9026
7.9634	6.9922
7.9512	7.0864
7.9390	7.1618
7.9268	7.2444
7.9147	7.3367
7.9027	7.4082
7.8906	7.4787
7.8786	7.5539
7.8667	7.6240
7.8548	7.6916
7.8429	7.7607
7.8310	7.8388
7.8192	7.9070
7.8075	7.9685
7.7957	8.0276
7.7840	8.0918
7.7723	8.1465
7.7607	8.2151
7.7491	8.2822
7.7375	8.3418
7.7260	8.4023
7.7145	8.4616
7.7031	8.5163
7.6916	8.5635
7.6802	8.6116
7.6689	8.6579
7.6575	8.7087
7.6462	8.7607
7.6350	8.8130
7.6238	8.8584
7.6126	8.9004
7.6014	8.9453
7.5903	8.9814
7.5792	9.0227
7.5681	9.0730
7.5571	9.1111
7.5461	9.1382
7.5351	9.1809
7.5242	9.2312
7.5133	9.2636
7.5024	9.2929
7.4916	9.3288
7.4807	9.3508
7.4700	9.3799
7.4592	9.4206
7.4485	9.4536
7.4378	9.4865
7.4272	9.5205
7.4165	9.5451
7.4059	9.5703
7.3954	9.6001
7.3848	9.6277
7.3743	9.6474
7.3639	9.6775
7.3534	9.7082
7.3430	9.7326
7.3326	9.7534
7.3223	9.7922
7.3119	9.8225
7.3016	9.8410
7.2914	9.8652
7.2811	9.8816
7.2709	9.9026
7.2607	9.9216
7.2506	9.9441
7.2404	9.9714
7.2303	9.9868
7.2203	10.006
7.2102	10.016
7.2002	10.035
7.1902	10.072
7.1803	10.095
7.1703	10.090
7.1604	10.119
7.1506	10.157
7.1407	10.183
7.1309	10.207
7.1211	10.228
7.1113	10.241
7.1016	10.259
7.0919	10.285
7.0822	10.310
7.0725	10.319
7.0629	10.320
7.0533	10.304
7.0437	10.296
7.0341	10.343
7.0246	10.380
7.0151	10.399
7.0056	10.408
6.9962	10.415
6.9867	10.427
6.9773	10.439
6.9679	10.431
6.9586	10.422
6.9493	10.469
6.9400	10.502
6.9307	10.524
6.9214	10.534
6.9122	10.542
6.9030	10.566
6.8938	10.598
6.8847	10.599
6.8755	10.581
6.8664	10.521
6.8573	10.540
6.8483	10.621
6.8393	10.665
6.8302	10.665
6.8213	10.675
6.8123	10.709
6.8034	10.726
6.7944	10.708
6.7855	10.710
6.7767	10.753
6.7678	10.780
6.7590	10.804
6.7502	10.809
6.7414	10.809
6.7327	10.817
6.7239	10.822
6.7152	10.821
6.7065	10.840
6.6979	10.873
6.6892	10.859
6.6806	10.831
6.6720	10.853
6.6634	10.885
6.6549	10.899
6.6464	10.853
6.6378	10.792
6.6294	10.840
6.6209	10.903
6.6124	10.919
6.6040	10.937
6.5956	10.928
6.5872	10.915
6.5789	10.896
6.5705	10.885
6.5622	10.927
6.5539	10.946
6.5456	10.974
6.5374	11.002
6.5292	11.012
6.5209	11.004
6.5128	11.031
6.5046	11.008
6.4964	10.929
6.4883	10.940
6.4802	11.010
6.4721	11.054
6.4640	11.092
6.4560	11.103
6.4480	11.112
6.4399	11.116
6.4320	11.099
6.4240	11.082
6.4160	11.008
6.4081	11.043
6.4002	11.161
6.3923	11.192
6.3844	11.198
6.3766	11.194
6.3687	11.196
6.3609	11.229
6.3531	11.215
6.3454	11.163
6.3376	11.207
6.3299	11.257
6.3221	11.267
6.3144	11.292
6.3068	11.303
6.2991	11.308
6.2914	11.320
6.2838	11.327
6.2762	11.320
6.2686	11.328
6.2611	11.342
6.2535	11.344
6.2460	11.346
6.2385	11.365
6.2310	11.372
6.2235	11.375
6.2160	11.380
6.2086	11.389
6.2011	11.395
6.1937	11.373
6.1863	11.320
6.1790	11.354
6.1716	11.415
6.1643	11.401
6.1570	11.399
6.1496	11.423
6.1424	11.427
6.1351	11.440
6.1278	11.442
6.1206	11.406
6.1134	11.367
6.1062	11.419
6.0990	11.460
6.0918	11.470
6.0847	11.469
6.0776	11.425
6.0704	11.417
6.0633	11.465
6.0563	11.404
6.0492	11.294
6.0421	11.386
6.0351	11.481
6.0281	11.490
6.0211	11.482
6.0141	11.458
6.0071	11.467
6.0002	11.471
5.9932	11.434
5.9863	11.423
5.9794	11.449
5.9725	11.443
5.9657	11.437
5.9588	11.469
5.9520	11.468
5.9451	11.434
5.9383	11.350
5.9315	11.365
5.9247	11.441
5.9180	11.456
5.9112	11.462
5.9045	11.439
5.8978	11.361
5.8911	11.373
5.8844	11.355
5.8777	11.347
5.8711	11.424
5.8644	11.423
5.8578	11.430
5.8512	11.438
5.8446	11.440
5.8380	11.425
5.8314	11.391
5.8249	11.331
5.8184	11.337
5.8118	11.400
5.8053	11.422
5.7988	11.434
5.7923	11.455
5.7859	11.465
5.7794	11.470
5.7730	11.451
5.7666	11.417
5.7602	11.484
5.7538	11.545
5.7474	11.552
5.7410	11.569
5.7347	11.577
5.7283	11.592
5.7220	11.593
5.7157	11.580
5.7094	11.569
5.7031	11.597
5.6969	11.609
5.6906	11.595
5.6844	11.597
5.6782	11.584
5.6719	11.591
5.6657	11.609
5.6596	11.589
5.6534	11.578
5.6472	11.566
5.6411	11.540
5.6349	11.570
5.6288	11.597
5.6227	11.604
5.6166	11.604
5.6106	11.603
5.6045	11.595
5.5984	11.589
5.5924	11.596
5.5864	11.589
5.5804	11.570
5.5744	11.586
5.5684	11.613
5.5624	11.622
5.5564	11.620
5.5505	11.626
5.5445	11.649
5.5386	11.669
5.5327	11.676
5.5268	11.673
5.5209	11.675
5.5151	11.686
5.5092	11.695
5.5033	11.698
5.4975	11.705
5.4917	11.717
5.4859	11.723
5.4801	11.724
5.4743	11.740
5.4685	11.746
5.4628	11.748
5.4570	11.774
5.4513	11.792
5.4455	11.787
5.4398	11.796
5.4341	11.807
5.4284	11.797
5.4228	11.764
5.4171	11.777
5.4114	11.807
5.4058	11.818
5.4002	11.817
5.3945	11.814
5.3889	11.822
5.3833	11.829
5.3778	11.828
5.3722	11.836
5.3666	11.845
5.3611	11.842
5.3555	11.833
5.3500	11.819
5.3445	11.830
5.3390	11.842
5.3335	11.840
5.3280	11.833
5.3225	11.834
5.3171	11.844
5.3116	11.851
5.3062	11.854
5.3008	11.863
5.2954	11.852
5.2900	11.841
5.2846	11.862
5.2792	11.873
5.2738	11.872
5.2684	11.872
5.2631	11.873
5.2578	11.872
5.2524	11.875
5.2471	11.877
5.2418	11.881
5.2365	11.884
5.2312	11.890
5.2260	11.894
5.2207	11.893
5.2154	11.889
5.2102	11.897
5.2050	11.902
5.1998	11.903
5.1945	11.911
5.1893	11.911
5.1842	11.910
5.1790	11.921
5.1738	11.932
5.1686	11.938
5.1635	11.948
5.1584	11.950
5.1532	11.948
5.1481	11.953
5.1430	11.969
5.1379	11.986
5.1328	11.998
5.1277	12.006
5.1227	12.009
5.1176	12.013
5.1126	12.022
5.1075	12.027
5.1025	12.037
5.0975	12.040
5.0925	12.043
5.0875	12.044
5.0825	12.043
5.0775	12.056
5.0726	12.064
5.0676	12.066
5.0627	12.070
5.0577	12.074
5.0528	12.077
5.0479	12.075
5.0430	12.069
5.0380	12.070
5.0332	12.064
5.0283	12.057
5.0234	12.051
5.0185	12.065
5.0137	12.076
5.0088	12.072
5.0040	12.067
4.9992	12.065
4.9944	12.057
4.9896	12.048
4.9848	12.046
4.9800	12.047
4.9752	12.046
4.9704	12.039
4.9657	12.032
4.9609	12.021
4.9562	12.017
4.9514	12.015
4.9467	12.010
4.9420	12.000
4.9373	11.996
4.9326	11.998
4.9279	12.002
4.9232	12.001
4.9186	11.992
4.9139	11.993
4.9092	12.000
4.9046	12.000
4.9000	12.003
4.8953	12.002
4.8907	12.000
4.8861	12.009
4.8815	12.016
4.8769	12.019
4.8723	12.019
4.8678	12.026
4.8632	12.035
4.8586	12.041
4.8541	12.051
4.8495	12.051
4.8450	12.057
4.8405	12.068
4.8360	12.077
4.8315	12.082
4.8270	12.089
4.8225	12.104
4.8180	12.120
4.8135	12.133
4.8090	12.147
4.8046	12.161
4.8001	12.167
4.7957	12.179
4.7913	12.184
4.7868	12.188
4.7824	12.207
4.7780	12.225
4.7736	12.231
4.7692	12.232
4.7648	12.240
4.7605	12.254
4.7561	12.266
4.7517	12.279
4.7474	12.288
4.7431	12.305
4.7387	12.320
4.7344	12.327
4.7301	12.325
4.7258	12.333
4.7215	12.345
4.7172	12.355
4.7129	12.361
4.7086	12.356
4.7043	12.344
4.7000	12.335
4.6958	12.334
4.6915	12.341
4.6873	12.342
4.6831	12.344
4.6788	12.354
4.6746	12.359
4.6704	12.358
4.6662	12.355
4.6620	12.359
4.6578	12.355
4.6536	12.361
4.6495	12.371
4.6453	12.368
4.6411	12.367
4.6370	12.363
4.6328	12.363
4.6287	12.357
4.6246	12.350
4.6205	12.340
4.6163	12.338
4.6122	12.350
4.6081	12.356
4.6040	12.358
4.6000	12.372
4.5959	12.376
4.5918	12.371
4.5877	12.368
4.5837	12.372
4.5796	12.389
4.5756	12.396
4.5716	12.397
4.5675	12.403
4.5635	12.414
4.5595	12.427
4.5555	12.434
4.5515	12.446
4.5475	12.451
4.5435	12.458
4.5395	12.475
4.5356	12.492
4.5316	12.504
4.5276	12.507
4.5237	12.500
4.5197	12.509
4.5158	12.515
4.5119	12.526
4.5080	12.553
4.5040	12.579
4.5001	12.585
4.4962	12.592
4.4923	12.604
4.4884	12.615
4.4846	12.617
4.4807	12.632
4.4768	12.655
4.4730	12.662
4.4691	12.666
4.4652	12.682
4.4614	12.698
4.4576	12.699
4.4537	12.699
4.4499	12.706
4.4461	12.713
4.4423	12.728
4.4385	12.750
4.4347	12.763
4.4309	12.768
4.4271	12.771
4.4233	12.770
4.4196	12.773
4.4158	12.781
4.4120	12.790
4.4083	12.801
4.4045	12.803
4.4008	12.807
4.3971	12.806
4.3934	12.800
4.3896	12.804
4.3859	12.800
4.3822	12.806
4.3785	12.815
4.3748	12.829
4.3711	12.845
4.3674	12.857
4.3638	12.859
4.3601	12.852
4.3564	12.863
4.3528	12.882
4.3491	12.890
4.3455	12.896
4.3418	12.896
4.3382	12.892
4.3346	12.891
4.3310	12.900
4.3273	12.905
4.3237	12.900
4.3201	12.901
4.3165	12.919
4.3129	12.925
4.3094	12.925
4.3058	12.928
4.3022	12.927
4.2986	12.913
4.2951	12.913
4.2915	12.915
4.2880	12.917
4.2844	12.912
4.2809	12.911
4.2774	12.912
4.2738	12.916
4.2703	12.927
4.2668	12.940
4.2633	12.944
4.2598	12.954
4.2563	12.962
4.2528	12.967
4.2493	12.964
4.2458	12.965
4.2424	12.972
4.2389	12.981
4.2354	12.993
4.2320	12.998
4.2285	13.003
4.2251	13.016
4.2216	13.031
4.2182	13.028
4.2148	13.015
4.2113	13.011
4.2079	13.011
4.2045	13.016
4.2011	13.034
4.1977	13.043
4.1943	13.047
4.1909	13.055
4.1875	13.054
4.1841	13.052
4.1808	13.052
4.1774	13.043
4.1740	13.046
4.1707	13.047
4.1673	13.050
4.1640	13.055
4.1606	13.059
4.1573	13.060
4.1540	13.054
4.1506	13.054
4.1473	13.059
4.1440	13.077
4.1407	13.090
4.1374	13.096
4.1341	13.093
4.1308	13.087
4.1275	13.086
4.1242	13.090
4.1209	13.092
4.1177	13.092
4.1144	13.097
4.1111	13.105
4.1079	13.111
4.1046	13.113
4.1014	13.117
4.0981	13.111
4.0949	13.104
4.0917	13.111
4.0884	13.118
4.0852	13.124
4.0820	13.128
4.0788	13.136
4.0756	13.131
4.0724	13.120
4.0692	13.101
4.0660	13.092
4.0628	13.095
4.0596	13.094
4.0565	13.098
4.0533	13.097
4.0501	13.101
4.0470	13.099
4.0438	13.096
4.0406	13.093
4.0375	13.090
4.0344	13.092
4.0312	13.093
4.0281	13.095
4.0250	13.099
4.0218	13.101
4.0187	13.098
4.0156	13.096
4.0125	13.096
4.0094	13.104
4.0063	13.110
4.0032	13.110
4.0001	13.101
3.9970	13.097
3.9940	13.106
3.9909	13.105
3.9878	13.088
3.9847	13.090
3.9817	13.107
3.9786	13.109
3.9756	13.119
3.9725	13.138
3.9695	13.144
3.9665	13.143
3.9634	13.145
3.9604	13.148
3.9574	13.156
3.9544	13.163
3.9513	13.178
3.9483	13.191
3.9453	13.192
3.9423	13.188
3.9393	13.189
3.9363	13.189
3.9333	13.190
3.9304	13.196
3.9274	13.196
3.9244	13.203
3.9214	13.223
3.9185	13.239
3.9155	13.230
3.9126	13.219
3.9096	13.217
3.9067	13.218
3.9037	13.227
3.9008	13.229
3.8979	13.226
3.8949	13.234
3.8920	13.238
3.8891	13.237
3.8862	13.245
3.8833	13.251
3.8804	13.247
3.8775	13.257
3.8746	13.269
3.8717	13.272
3.8688	13.273
3.8659	13.270
3.8630	13.260
3.8601	13.260
3.8573	13.261
3.8544	13.261
3.8515	13.260
3.8487	13.278
3.8458	13.298
3.8430	13.292
3.8401	13.286
3.8373	13.296
3.8344	13.298
3.8316	13.299
3.8288	13.299
3.8259	13.304
3.8231	13.325
3.8203	13.337
3.8175	13.333
3.8147	13.325
3.8119	13.313
3.8091	13.309
3.8063	13.309
3.8035	13.306
3.8007	13.309
3.7979	13.316
3.7951	13.321
3.7924	13.321
3.7896	13.317
3.7868	13.308
3.7841	13.302
3.7813	13.306
3.7785	13.325
3.7758	13.338
3.7730	13.337
3.7703	13.335
3.7676	13.335
3.7648	13.340
3.7621	13.341
3.7594	13.339
3.7566	13.339
3.7539	13.350
3.7512	13.349
3.7485	13.341
3.7458	13.340
3.7431	13.329
3.7404	13.323
3.7377	13.315
3.7350	13.317
3.7323	13.325
3.7296	13.319
3.7269	13.323
3.7242	13.332
3.7216	13.333
3.7189	13.327
3.7162	13.318
3.7136	13.323
3.7109	13.334
3.7083	13.346
3.7056	13.341
3.7030	13.336
3.7003	13.352
3.6977	13.350
3.6950	13.337
3.6924	13.348
3.6898	13.357
3.6872	13.361
3.6845	13.366
3.6819	13.367
3.6793	13.374
3.6767	13.371
3.6741	13.363
3.6715	13.355
3.6689	13.347
3.6663	13.340
3.6637	13.342
3.6611	13.350
3.6585	13.359
3.6560	13.368
3.6534	13.372
3.6508	13.373
3.6482	13.358
3.6457	13.342
3.6431	13.343
3.6406	13.340
3.6380	13.340
3.6355	13.343
3.6329	13.343
3.6304	13.343
3.6278	13.351
3.6253	13.361
3.6227	13.366
3.6202	13.368
3.6177	13.369
3.6152	13.367
3.6127	13.370
3.6101	13.375
3.6076	13.379
3.6051	13.387
3.6026	13.390
3.6001	13.387
3.5976	13.394
3.5951	13.392
3.5926	13.394
3.5901	13.390
3.5876	13.387
3.5852	13.385
3.5827	13.390
3.5802	13.388
3.5777	13.381
3.5753	13.380
3.5728	13.386
3.5704	13.386
3.5679	13.387
3.5654	13.394
3.5630	13.389
3.5605	13.378
3.5581	13.363
3.5557	13.352
3.5532	13.348
3.5508	13.352
3.5484	13.361
3.5459	13.359
3.5435	13.351
3.5411	13.349
3.5387	13.351
3.5363	13.348
3.5338	13.341
3.5314	13.335
3.5290	13.337
3.5266	13.343
3.5242	13.345
3.5218	13.346
3.5195	13.347
3.5171	13.350
3.5147	13.342
3.5123	13.333
3.5099	13.340
3.5075	13.350
3.5052	13.360
3.5028	13.367
3.5004	13.373
