Name: Diorite Gneiss
Type:  Rocks
Class: Metamorphic 
Subclass: Gneiss 
Particle Size:  500-1500 Micrometer
Sample No.:  gneiss7.doc
Owner:  JHU
Wavelength Range:  All
Origin:  Sample No. 464, The Hunt and Salisbury Collection at the U.S. 
Geological Survey, Denver, Co.
Description:  This is a coarse-grained sample composed of hornblende euhedra 
assocciated with biotite, with anhedra and subhedra of alkali feldspars (oligoclase 
and orthoclase)  which are slightly sericitized.  Zircon and pyrite crystals occur 
throughout the section.  There may be a trace of quartz present as well.  Some 
carbonate (?), or zircon masses (high relief, colorless, perhaps 3rd order B.R.) 
occur in this rock, often associated with the amphibole or opaques.
Measurement:  Directional (10 Degree) Hemispherical Reflectance
First Column:  X
Second Column:  Y  
X Units:  Wavelength (micrometers)
Y Units:  Reflectance (percent)
First X Value: 14.9831
Last X Value:  0.4
Number of X Values: 2868
Additional Information:  gneiss7a.txt

14.9831	6.0808
14.9399	6.2669
14.897	6.4324
14.8543	6.5504
14.8119	6.5973
14.7697	6.6186
14.7277	6.6181
14.686	6.5885
14.6445	6.5013
14.6033	6.3877
14.5622	6.2882
14.5214	6.2231
14.4809	6.225
14.4405	6.2875
14.4004	6.3746
14.3605	6.4637
14.3209	6.5279
14.2814	6.5674
14.2422	6.5852
14.2032	6.5968
14.1643	6.6112
14.1258	6.6193
14.0874	6.6205
14.0492	6.6235
14.0112	6.628
13.9734	6.6385
13.9359	6.6584
13.8985	6.6922
13.8614	6.7301
13.8244	6.7604
13.7876	6.7784
13.7511	6.7874
13.7147	6.7869
13.6785	6.7808
13.6425	6.7796
13.6067	6.7948
13.5711	6.8227
13.5356	6.8523
13.5004	6.8786
13.4653	6.9006
13.4304	6.9096
13.3957	6.8987
13.3612	6.8736
13.3269	6.8459
13.2927	6.8191
13.2587	6.7945
13.2249	6.776
13.1912	6.7668
13.1577	6.7611
13.1244	6.7498
13.0913	6.7322
13.0583	6.7166
13.0255	6.7064
12.9929	6.705
12.9604	6.714
12.9281	6.7353
12.8959	6.7644
12.8639	6.7924
12.8321	6.813
12.8004	6.8272
12.7688	6.8355
12.7375	6.8383
12.7063	6.8369
12.6752	6.8379
12.6443	6.8445
12.6135	6.8563
12.5829	6.8698
12.5524	6.8869
12.5221	6.9098
12.4919	6.9366
12.4619	6.9669
12.432	7.0053
12.4023	7.0526
12.3727	7.1083
12.3432	7.1699
12.3139	7.2369
12.2847	7.3082
12.2557	7.3832
12.2268	7.46
12.198	7.5372
12.1694	7.6122
12.1409	7.6831
12.1125	7.7477
12.0843	7.8048
12.0562	7.8573
12.0282	7.9118
12.0003	7.967
11.9726	8.0224
11.945	8.0781
11.9176	8.1335
11.8903	8.1834
11.8631	8.2273
11.836	8.2692
11.809	8.3144
11.7822	8.3611
11.7555	8.4108
11.7289	8.465
11.7024	8.5204
11.676	8.5683
11.6498	8.6076
11.6237	8.6431
11.5977	8.6786
11.5718	8.7156
11.546	8.7587
11.5203	8.8084
11.4948	8.8624
11.4694	8.9145
11.444	8.9656
11.4188	9.0168
11.3937	9.067
11.3688	9.1139
11.3439	9.1589
11.3191	9.2032
11.2944	9.2484
11.2699	9.2974
11.2455	9.3559
11.2211	9.4244
11.1969	9.499
11.1727	9.5762
11.1487	9.6534
11.1248	9.728
11.101	9.7999
11.0773	9.8715
11.0536	9.9432
11.0301	10.014
11.0067	10.082
10.9834	10.148
10.9602	10.214
10.937	10.281
10.914	10.354
10.8911	10.436
10.8682	10.524
10.8455	10.618
10.8229	10.717
10.8003	10.821
10.7779	10.929
10.7555	11.04
10.7332	11.157
10.7111	11.278
10.689	11.397
10.667	11.513
10.6451	11.625
10.6233	11.732
10.6015	11.835
10.5799	11.934
10.5584	12.032
10.5369	12.131
10.5155	12.227
10.4942	12.319
10.473	12.402
10.4519	12.478
10.4309	12.549
10.4099	12.618
10.3891	12.689
10.3683	12.764
10.3476	12.844
10.327	12.928
10.3065	13.015
10.286	13.106
10.2656	13.203
10.2454	13.303
10.2251	13.405
10.205	13.504
10.185	13.604
10.165	13.701
10.1451	13.795
10.1253	13.889
10.1056	13.986
10.0859	14.083
10.0663	14.181
10.0468	14.277
10.0274	14.373
10.008	14.463
9.9887	14.542
9.9695	14.609
9.9504	14.655
9.9313	14.676
9.9123	14.669
9.8934	14.637
9.8746	14.583
9.8558	14.511
9.8371	14.426
9.8185	14.336
9.7999	14.244
9.7814	14.154
9.763	14.073
9.7447	14.005
9.7264	13.952
9.7082	13.912
9.69	13.881
9.6719	13.852
9.6539	13.816
9.636	13.765
9.6181	13.697
9.6003	13.611
9.5825	13.505
9.5649	13.379
9.5472	13.237
9.5297	13.078
9.5122	12.905
9.4948	12.719
9.4774	12.526
9.4601	12.326
9.4429	12.123
9.4257	11.918
9.4086	11.716
9.3916	11.522
9.3746	11.336
9.3577	11.16
9.3408	10.995
9.324	10.839
9.3073	10.69
9.2906	10.545
9.274	10.405
9.2574	10.269
9.2409	10.139
9.2245	10.019
9.2081	9.9124
9.1918	9.817
9.1755	9.7346
9.1593	9.6645
9.1431	9.6055
9.127	9.5567
9.111	9.5184
9.095	9.4866
9.0791	9.4577
9.0632	9.4255
9.0474	9.3893
9.0316	9.3517
9.0159	9.3161
9.0003	9.2863
8.9847	9.2671
8.9691	9.2591
8.9536	9.264
8.9382	9.2813
8.9228	9.31
8.9075	9.3521
8.8922	9.408
8.877	9.4753
8.8618	9.5506
8.8467	9.6304
8.8316	9.7114
8.8166	9.7869
8.8016	9.8537
8.7867	9.9131
8.7718	9.9681
8.757	10.015
8.7422	10.049
8.7275	10.065
8.7129	10.056
8.6982	10.013
8.6837	9.9342
8.6692	9.8274
8.6547	9.7031
8.6403	9.5705
8.6259	9.4409
8.6116	9.3242
8.5973	9.2257
8.583	9.1468
8.5688	9.0888
8.5547	9.0492
8.5406	9.0218
8.5266	9.0005
8.5126	8.9829
8.4986	8.9654
8.4847	8.9479
8.4708	8.9318
8.457	8.9192
8.4432	8.9098
8.4295	8.9012
8.4158	8.8913
8.4022	8.8754
8.3886	8.8479
8.375	8.8063
8.3615	8.7456
8.3481	8.6625
8.3347	8.5543
8.3213	8.4184
8.3079	8.2528
8.2946	8.0589
8.2814	7.8398
8.2682	7.6035
8.255	7.3579
8.2419	7.1114
8.2288	6.8729
8.2158	6.6508
8.2028	6.4507
8.1898	6.2761
8.1769	6.1262
8.164	5.9979
8.1512	5.888
8.1384	5.7916
8.1256	5.7061
8.1129	5.6322
8.1002	5.5709
8.0876	5.5221
8.075	5.483
8.0624	5.4499
8.0499	5.4203
8.0374	5.3928
8.025	5.3689
8.0126	5.3495
8.0002	5.3357
7.9879	5.3301
7.9756	5.3296
7.9634	5.3305
7.9512	5.331
7.939	5.3296
7.9268	5.3277
7.9147	5.3256
7.9027	5.3237
7.8906	5.3253
7.8786	5.3301
7.8667	5.3376
7.8548	5.3476
7.8429	5.3592
7.831	5.3724
7.8192	5.3864
7.8075	5.399
7.7957	5.4103
7.784	5.42
7.7723	5.429
7.7607	5.4383
7.7491	5.4487
7.7375	5.4615
7.726	5.4776
7.7145	5.4956
7.7031	5.5126
7.6916	5.5266
7.6802	5.5377
7.6689	5.5463
7.6575	5.5531
7.6462	5.5617
7.635	5.5754
7.6238	5.5946
7.6126	5.6157
7.6014	5.6358
7.5903	5.6547
7.5792	5.6722
7.5681	5.6886
7.5571	5.7066
7.5461	5.7296
7.5351	5.7549
7.5242	5.7798
7.5133	5.8006
7.5024	5.8169
7.4916	5.8297
7.4807	5.8399
7.47	5.852
7.4592	5.869
7.4485	5.8908
7.4378	5.9159
7.4272	5.9413
7.4165	5.965
7.4059	5.9853
7.3954	6.0028
7.3848	6.0189
7.3743	6.0358
7.3639	6.054
7.3534	6.0741
7.343	6.0954
7.3326	6.1175
7.3223	6.1383
7.3119	6.1577
7.3016	6.1762
7.2914	6.1949
7.2811	6.2155
7.2709	6.2397
7.2607	6.2664
7.2506	6.2941
7.2404	6.3216
7.2303	6.3469
7.2203	6.3692
7.2102	6.3903
7.2002	6.4095
7.1902	6.4289
7.1803	6.4492
7.1703	6.4708
7.1604	6.4935
7.1506	6.5179
7.1407	6.5433
7.1309	6.5695
7.1211	6.5961
7.1113	6.6257
7.1016	6.6569
7.0919	6.688
7.0822	6.7173
7.0725	6.7424
7.0629	6.7623
7.0533	6.7777
7.0437	6.7936
7.0341	6.8123
7.0246	6.8317
7.0151	6.8499
7.0056	6.8656
6.9962	6.8767
6.9867	6.8838
6.9773	6.8914
6.9679	6.9037
6.9586	6.9243
6.9493	6.9511
6.94	6.9797
6.9307	7.0072
6.9214	7.0304
6.9122	7.0455
6.903	7.0534
6.8938	7.0588
6.8847	7.0664
6.8755	7.0761
6.8664	7.0879
6.8573	7.1055
6.8483	7.1277
6.8393	7.1509
6.8302	7.1741
6.8213	7.1978
6.8123	7.2196
6.8034	7.2369
6.7944	7.2506
6.7855	7.2655
6.7767	7.2845
6.7678	7.3056
6.759	7.3264
6.7502	7.3454
6.7414	7.3624
6.7327	7.3757
6.7239	7.3851
6.7152	7.3941
6.7065	7.4079
6.6979	7.4254
6.6892	7.4415
6.6806	7.4517
6.672	7.4564
6.6634	7.4538
6.6549	7.4446
6.6464	7.4339
6.6378	7.4323
6.6294	7.4439
6.6209	7.4614
6.6124	7.4756
6.604	7.482
6.5956	7.4796
6.5872	7.4702
6.5789	7.4583
6.5705	7.4543
6.5622	7.4607
6.5539	7.472
6.5456	7.4822
6.5374	7.4865
6.5292	7.4803
6.5209	7.4635
6.5128	7.4408
6.5046	7.4188
6.4964	7.4027
6.4883	7.3965
6.4802	7.4012
6.4721	7.4119
6.464	7.4188
6.456	7.4133
6.448	7.3944
6.4399	7.3643
6.432	7.3297
6.424	7.2982
6.416	7.276
6.4081	7.2679
6.4002	7.271
6.3923	7.2769
6.3844	7.279
6.3766	7.2738
6.3687	7.261
6.3609	7.2421
6.3531	7.2189
6.3454	7.199
6.3376	7.1879
6.3299	7.1829
6.3221	7.1808
6.3144	7.1789
6.3068	7.1748
6.2991	7.168
6.2914	7.158
6.2838	7.1478
6.2762	7.1419
6.2686	7.1393
6.2611	7.1388
6.2535	7.137
6.246	7.1301
6.2385	7.1192
6.231	7.1069
6.2235	7.095
6.216	7.0875
6.2086	7.0863
6.2011	7.0896
6.1937	7.0929
6.1863	7.0941
6.179	7.0936
6.1716	7.0922
6.1643	7.0931
6.157	7.0993
6.1496	7.1102
6.1424	7.1216
6.1351	7.1303
6.1278	7.1381
6.1206	7.1455
6.1134	7.1523
6.1062	7.1632
6.099	7.1786
6.0918	7.1938
6.0847	7.203
6.0776	7.2042
6.0704	7.2021
6.0633	7.2009
6.0563	7.2014
6.0492	7.2092
6.0421	7.2286
6.0351	7.2554
6.0281	7.2812
6.0211	7.3018
6.0141	7.3193
6.0071	7.3323
6.0002	7.3387
5.9932	7.3425
5.9863	7.352
5.9794	7.3667
5.9725	7.3804
5.9657	7.3927
5.9588	7.4041
5.952	7.4124
5.9451	7.4192
5.9383	7.4289
5.9315	7.446
5.9247	7.4668
5.918	7.4818
5.9112	7.4884
5.9045	7.4872
5.8978	7.4815
5.8911	7.481
5.8844	7.491
5.8777	7.5151
5.8711	7.5509
5.8644	7.5871
5.8578	7.6177
5.8512	7.6381
5.8446	7.6492
5.838	7.6551
5.8314	7.6601
5.8249	7.6719
5.8184	7.6951
5.8118	7.7273
5.8053	7.7612
5.7988	7.7889
5.7923	7.8071
5.7859	7.815
5.7794	7.8147
5.773	7.8121
5.7666	7.8145
5.7602	7.8263
5.7538	7.8434
5.7474	7.8609
5.741	7.8782
5.7347	7.8941
5.7283	7.9083
5.722	7.9222
5.7157	7.9376
5.7094	7.9554
5.7031	7.9748
5.6969	7.994
5.6906	8.0134
5.6844	8.0359
5.6782	8.061
5.6719	8.0875
5.6657	8.1136
5.6596	8.137
5.6534	8.16
5.6472	8.1834
5.6411	8.21
5.6349	8.2426
5.6288	8.2815
5.6227	8.3243
5.6166	8.3665
5.6106	8.403
5.6045	8.433
5.5984	8.4593
5.5924	8.484
5.5864	8.5098
5.5804	8.5394
5.5744	8.5751
5.5684	8.6147
5.5624	8.6549
5.5564	8.6964
5.5505	8.7409
5.5445	8.7873
5.5386	8.8333
5.5327	8.8783
5.5268	8.9223
5.5209	8.9659
5.5151	9.0078
5.5092	9.05
5.5033	9.0938
5.4975	9.1369
5.4917	9.1771
5.4859	9.2155
5.4801	9.2531
5.4743	9.2927
5.4685	9.3344
5.4628	9.3796
5.457	9.4263
5.4513	9.4701
5.4455	9.5089
5.4398	9.5437
5.4341	9.5754
5.4284	9.6069
5.4228	9.6403
5.4171	9.6773
5.4114	9.7156
5.4058	9.7519
5.4002	9.786
5.3945	9.8198
5.3889	9.8537
5.3833	9.888
5.3778	9.9212
5.3722	9.9529
5.3666	9.9818
5.3611	10.007
5.3555	10.033
5.35	10.065
5.3445	10.103
5.339	10.147
5.3335	10.193
5.328	10.24
5.3225	10.283
5.3171	10.323
5.3116	10.361
5.3062	10.399
5.3008	10.438
5.2954	10.476
5.29	10.515
5.2846	10.555
5.2792	10.593
5.2738	10.632
5.2684	10.674
5.2631	10.716
5.2578	10.759
5.2524	10.8
5.2471	10.844
5.2418	10.89
5.2365	10.937
5.2312	10.986
5.226	11.039
5.2207	11.09
5.2154	11.14
5.2102	11.192
5.205	11.246
5.1998	11.301
5.1945	11.357
5.1893	11.412
5.1842	11.466
5.179	11.518
5.1738	11.568
5.1686	11.621
5.1635	11.677
5.1584	11.735
5.1532	11.793
5.1481	11.853
5.143	11.915
5.1379	11.979
5.1328	12.046
5.1277	12.118
5.1227	12.191
5.1176	12.265
5.1126	12.339
5.1075	12.411
5.1025	12.485
5.0975	12.56
5.0925	12.638
5.0875	12.719
5.0825	12.801
5.0775	12.887
5.0726	12.975
5.0676	13.062
5.0627	13.149
5.0577	13.235
5.0528	13.32
5.0479	13.402
5.043	13.482
5.038	13.562
5.0332	13.642
5.0283	13.725
5.0234	13.809
5.0185	13.896
5.0137	13.985
5.0088	14.074
5.004	14.16
4.9992	14.242
4.9944	14.321
4.9896	14.398
4.9848	14.473
4.98	14.546
4.9752	14.622
4.9704	14.699
4.9657	14.778
4.9609	14.856
4.9562	14.934
4.9514	15.013
4.9467	15.092
4.942	15.173
4.9373	15.255
4.9326	15.339
4.9279	15.423
4.9232	15.505
4.9186	15.583
4.9139	15.658
4.9092	15.734
4.9046	15.811
4.9	15.892
4.8953	15.975
4.8907	16.062
4.8861	16.149
4.8815	16.234
4.8769	16.319
4.8723	16.404
4.8678	16.492
4.8632	16.582
4.8586	16.673
4.8541	16.767
4.8495	16.864
4.845	16.961
4.8405	17.057
4.836	17.151
4.8315	17.245
4.827	17.336
4.8225	17.425
4.818	17.515
4.8135	17.605
4.809	17.695
4.8046	17.786
4.8001	17.878
4.7957	17.974
4.7913	18.071
4.7868	18.169
4.7824	18.268
4.778	18.365
4.7736	18.462
4.7692	18.559
4.7648	18.662
4.7605	18.768
4.7561	18.879
4.7517	18.993
4.7474	19.11
4.7431	19.229
4.7387	19.349
4.7344	19.47
4.7301	19.592
4.7258	19.714
4.7215	19.836
4.7172	19.958
4.7129	20.083
4.7086	20.212
4.7043	20.344
4.7	20.481
4.6958	20.62
4.6915	20.76
4.6873	20.901
4.6831	21.044
4.6788	21.191
4.6746	21.344
4.6704	21.501
4.6662	21.663
4.662	21.828
4.6578	21.996
4.6536	22.162
4.6495	22.329
4.6453	22.496
4.6411	22.665
4.637	22.834
4.6328	23.005
4.6287	23.177
4.6246	23.35
4.6205	23.524
4.6163	23.698
4.6122	23.875
4.6081	24.054
4.604	24.234
4.6	24.412
4.5959	24.589
4.5918	24.764
4.5877	24.937
4.5837	25.111
4.5796	25.288
4.5756	25.466
4.5716	25.646
4.5675	25.826
4.5635	26.003
4.5595	26.177
4.5555	26.348
4.5515	26.516
4.5475	26.681
4.5435	26.844
4.5395	27.005
4.5356	27.164
4.5316	27.319
4.5276	27.472
4.5237	27.62
4.5197	27.763
4.5158	27.899
4.5119	28.031
4.508	28.16
4.504	28.286
4.5001	28.412
4.4962	28.541
4.4923	28.671
4.4884	28.802
4.4846	28.935
4.4807	29.069
4.4768	29.203
4.473	29.341
4.4691	29.483
4.4652	29.629
4.4614	29.778
4.4576	29.929
4.4537	30.082
4.4499	30.238
4.4461	30.397
4.4423	30.562
4.4385	30.733
4.4347	30.908
4.4309	31.085
4.4271	31.263
4.4233	31.442
4.4196	31.619
4.4158	31.793
4.412	31.965
4.4083	32.135
4.4045	32.306
4.4008	32.476
4.3971	32.645
4.3934	32.813
4.3896	32.982
4.3859	33.149
4.3822	33.313
4.3785	33.477
4.3748	33.638
4.3711	33.794
4.3674	33.946
4.3638	34.095
4.3601	34.242
4.3564	34.389
4.3528	34.537
4.3491	34.687
4.3455	34.836
4.3418	34.986
4.3382	35.134
4.3346	35.279
4.331	35.423
4.3273	35.568
4.3237	35.713
4.3201	35.86
4.3165	36.009
4.3129	36.163
4.3094	36.319
4.3058	36.474
4.3022	36.63
4.2986	36.782
4.2951	36.927
4.2915	37.067
4.288	37.201
4.2844	37.33
4.2809	37.452
4.2774	37.564
4.2738	37.664
4.2703	37.746
4.2668	37.817
4.2633	37.888
4.2598	37.97
4.2563	38.076
4.2528	38.215
4.2493	38.382
4.2458	38.56
4.2424	38.731
4.2389	38.884
4.2354	39.012
4.232	39.112
4.2285	39.188
4.2251	39.248
4.2216	39.294
4.2182	39.33
4.2148	39.358
4.2113	39.382
4.2079	39.41
4.2045	39.445
4.2011	39.487
4.1977	39.541
4.1943	39.606
4.1909	39.678
4.1875	39.751
4.1841	39.825
4.1808	39.901
4.1774	39.974
4.174	40.044
4.1707	40.111
4.1673	40.176
4.164	40.239
4.1606	40.299
4.1573	40.36
4.154	40.424
4.1506	40.488
4.1473	40.549
4.144	40.608
4.1407	40.663
4.1374	40.714
4.1341	40.76
4.1308	40.807
4.1275	40.855
4.1242	40.901
4.1209	40.948
4.1177	40.997
4.1144	41.044
4.1111	41.091
4.1079	41.137
4.1046	41.181
4.1014	41.223
4.0981	41.262
4.0949	41.303
4.0917	41.345
4.0884	41.388
4.0852	41.432
4.082	41.474
4.0788	41.512
4.0756	41.544
4.0724	41.574
4.0692	41.603
4.066	41.633
4.0628	41.665
4.0596	41.698
4.0565	41.73
4.0533	41.759
4.0501	41.783
4.047	41.802
4.0438	41.813
4.0406	41.816
4.0375	41.811
4.0344	41.799
4.0312	41.783
4.0281	41.765
4.025	41.748
4.0218	41.732
4.0187	41.716
4.0156	41.694
4.0125	41.66
4.0094	41.607
4.0063	41.535
4.0032	41.443
4.0001	41.336
3.997	41.225
3.994	41.119
3.9909	41.029
3.9878	40.96
3.9847	40.919
3.9817	40.908
3.9786	40.926
3.9756	40.971
3.9725	41.039
3.9695	41.125
3.9665	41.225
3.9634	41.339
3.9604	41.465
3.9574	41.604
3.9544	41.756
3.9513	41.916
3.9483	42.079
3.9453	42.237
3.9423	42.383
3.9393	42.51
3.9363	42.616
3.9333	42.7
3.9304	42.766
3.9274	42.819
3.9244	42.865
3.9214	42.909
3.9185	42.954
3.9155	43
3.9126	43.047
3.9096	43.092
3.9067	43.135
3.9037	43.175
3.9008	43.214
3.8979	43.252
3.8949	43.29
3.892	43.327
3.8891	43.361
3.8862	43.394
3.8833	43.425
3.8804	43.456
3.8775	43.487
3.8746	43.518
3.8717	43.551
3.8688	43.582
3.8659	43.61
3.863	43.637
3.8601	43.665
3.8573	43.696
3.8544	43.727
3.8515	43.76
3.8487	43.796
3.8458	43.833
3.843	43.872
3.8401	43.914
3.8373	43.96
3.8344	44.012
3.8316	44.068
3.8288	44.125
3.8259	44.181
3.8231	44.236
3.8203	44.289
3.8175	44.34
3.8147	44.391
3.8119	44.44
3.8091	44.487
3.8063	44.53
3.8035	44.572
3.8007	44.614
3.7979	44.658
3.7951	44.702
3.7924	44.744
3.7896	44.78
3.7868	44.81
3.7841	44.833
3.7813	44.852
3.7785	44.869
3.7758	44.885
3.773	44.901
3.7703	44.916
3.7676	44.93
3.7648	44.942
3.7621	44.95
3.7594	44.955
3.7566	44.958
3.7539	44.956
3.7512	44.953
3.7485	44.95
3.7458	44.949
3.7431	44.947
3.7404	44.947
3.7377	44.948
3.735	44.95
3.7323	44.952
3.7296	44.953
3.7269	44.953
3.7242	44.955
3.7216	44.957
3.7189	44.958
3.7162	44.959
3.7136	44.959
3.7109	44.957
3.7083	44.953
3.7056	44.949
3.703	44.947
3.7003	44.947
3.6977	44.945
3.695	44.942
3.6924	44.936
3.6898	44.927
3.6872	44.918
3.6845	44.908
3.6819	44.897
3.6793	44.885
3.6767	44.871
3.6741	44.856
3.6715	44.842
3.6689	44.83
3.6663	44.819
3.6637	44.809
3.6611	44.798
3.6585	44.784
3.656	44.766
3.6534	44.745
3.6508	44.723
3.6482	44.701
3.6457	44.68
3.6431	44.659
3.6406	44.64
3.638	44.621
3.6355	44.6
3.6329	44.578
3.6304	44.555
3.6278	44.531
3.6253	44.506
3.6227	44.48
3.6202	44.453
3.6177	44.424
3.6152	44.391
3.6127	44.357
3.6101	44.325
3.6076	44.292
3.6051	44.258
3.6026	44.223
3.6001	44.185
3.5976	44.142
3.5951	44.095
3.5926	44.046
3.5901	43.997
3.5876	43.948
3.5852	43.903
3.5827	43.861
3.5802	43.821
3.5777	43.781
3.5753	43.735
3.5728	43.686
3.5704	43.633
3.5679	43.578
3.5654	43.525
3.563	43.476
3.5605	43.43
3.5581	43.385
3.5557	43.339
3.5532	43.29
3.5508	43.237
3.5484	43.179
3.5459	43.117
3.5435	43.052
3.5411	42.983
3.5387	42.911
3.5363	42.835
3.5338	42.754
3.5314	42.669
3.529	42.576
3.5266	42.476
3.5242	42.367
3.5218	42.252
3.5195	42.132
3.5171	42.007
3.5147	41.881
3.5123	41.755
3.5099	41.627
3.5075	41.499
3.5052	41.377
3.5028	41.269
3.5004	41.182
3.4981	41.116
3.4957	41.067
3.4934	41.026
3.491	40.981
3.4887	40.927
3.4863	40.862
3.484	40.795
3.4816	40.734
3.4793	40.684
3.477	40.646
3.4746	40.622
3.4723	40.607
3.47	40.595
3.4677	40.581
3.4653	40.561
3.463	40.533
3.4607	40.491
3.4584	40.432
3.4561	40.362
3.4538	40.282
3.4515	40.194
3.4492	40.103
3.4469	40.013
3.4446	39.929
3.4423	39.849
3.44	39.77
3.4378	39.693
3.4355	39.615
3.4332	39.533
3.4309	39.444
3.4287	39.347
3.4264	39.24
3.4241	39.126
3.4219	39.007
3.4196	38.889
3.4174	38.78
3.4151	38.687
3.4129	38.615
3.4106	38.559
3.4084	38.517
3.4061	38.481
3.4039	38.447
3.4017	38.407
3.3994	38.357
3.3972	38.3
3.395	38.236
3.3928	38.164
3.3906	38.085
3.3883	38.004
3.3861	37.924
3.3839	37.844
3.3817	37.764
3.3795	37.69
3.3773	37.622
3.3751	37.557
3.3729	37.495
3.3707	37.433
3.3685	37.367
3.3663	37.293
3.3641	37.211
3.362	37.125
3.3598	37.04
3.3576	36.959
3.3554	36.886
3.3533	36.824
3.3511	36.773
3.3489	36.735
3.3468	36.71
3.3446	36.696
3.3425	36.689
3.3403	36.683
3.3382	36.675
3.336	36.659
3.3339	36.632
3.3317	36.593
3.3296	36.544
3.3274	36.492
3.3253	36.436
3.3232	36.381
3.321	36.33
3.3189	36.284
3.3168	36.235
3.3147	36.178
3.3126	36.111
3.3104	36.035
3.3083	35.949
3.3062	35.858
3.3041	35.768
3.302	35.682
3.2999	35.597
3.2978	35.51
3.2957	35.423
3.2936	35.335
3.2915	35.244
3.2894	35.151
3.2874	35.059
3.2853	34.968
3.2832	34.873
3.2811	34.772
3.279	34.67
3.277	34.565
3.2749	34.458
3.2728	34.349
3.2708	34.24
3.2687	34.132
3.2666	34.022
3.2646	33.91
3.2625	33.797
3.2605	33.685
3.2584	33.575
3.2564	33.466
3.2543	33.36
3.2523	33.254
3.2503	33.146
3.2482	33.036
3.2462	32.93
3.2442	32.829
3.2421	32.732
3.2401	32.636
3.2381	32.538
3.2361	32.437
3.234	32.332
3.232	32.227
3.23	32.128
3.228	32.038
3.226	31.951
3.224	31.863
3.222	31.772
3.22	31.677
3.218	31.579
3.216	31.483
3.214	31.389
3.212	31.299
3.21	31.208
3.208	31.113
3.206	31.015
