Name: Basalt
Type: Rocks
Class: Igneous
Subclass: Mafic
Particle Size: 0-75 micrometers
Sample No.: Basalt.H9
Owner: JHU
Wavelength range: All
Origin:  from Kilauea, via Rosalind Helz, USGS, Reston, VA (Cat. No. KI 
67-3-84)
Description: Powder derived from sample: a dark gray, slightly vesicular 
rock, consisting of black and light green phenocrysts, approx. 0.5-1 mm in 
size, making up about 40% of the rock.



Measurement: Directional (10 degree) hemispherical reflectance
First Column: X
Second Column: Y
X Units: Wavelength (micrometers)
Y Units: Reflectance (percent)
First X Value: 14.0112
Last X Value: 0.4000
Number of X Values: 2844
Additional information: basal9a.txt

14.011	1.0800
13.973	0.9000
13.936	1.0294
13.899	1.6050
13.861	1.4990
13.824	1.0753
13.788	1.4221
13.751	1.5384
13.715	1.3575
13.679	1.5328
13.643	1.8328
13.607	1.6111
13.571	1.8033
13.536	1.5996
13.500	1.5293
13.465	1.9767
13.430	2.1031
13.396	1.8237
13.361	1.9727
13.327	1.8122
13.293	1.6756
13.259	1.6868
13.225	1.8483
13.191	1.9024
13.158	1.9621
13.124	1.7283
13.091	1.7360
13.058	2.0096
13.026	2.1129
12.993	1.8665
12.960	1.9936
12.928	2.0935
12.896	2.1722
12.864	2.0133
12.832	1.8059
12.800	1.9788
12.769	2.1708
12.737	2.3194
12.706	2.2181
12.675	2.2903
12.644	2.3772
12.614	2.4159
12.583	2.4753
12.552	2.3798
12.522	2.4312
12.492	2.6356
12.462	2.6763
12.432	2.7722
12.402	2.8697
12.373	2.9259
12.343	2.8753
12.314	3.0457
12.285	3.1406
12.256	3.0337
12.227	3.1312
12.198	3.1617
12.169	3.2102
12.141	3.2728
12.113	3.1664
12.084	3.1743
12.056	3.1052
12.028	3.0563
12.000	3.0377
11.973	2.9993
11.945	2.9468
11.918	2.9296
11.890	2.9337
11.863	2.8945
11.836	2.8223
11.809	2.8212
11.782	2.8353
11.755	2.7314
11.729	2.6751
11.702	2.6873
11.676	2.7342
11.650	2.7971
11.624	2.8137
11.598	2.7782
11.572	2.8374
11.546	2.9004
11.520	2.8545
11.495	2.7715
11.469	2.8008
11.444	2.9316
11.419	2.9676
11.394	2.9182
11.369	2.8270
11.344	2.8439
11.319	2.8690
11.294	2.8995
11.270	2.8437
11.245	2.7696
11.221	2.7825
11.197	2.7764
11.173	2.7324
11.149	2.6993
11.125	2.7234
11.101	2.7701
11.077	2.8181
11.054	2.7896
11.030	2.6951
11.007	2.7356
10.983	2.8228
10.960	2.7904
10.937	2.7813
10.914	2.7898
10.891	2.7298
10.868	2.7132
10.846	2.7202
10.823	2.7400
10.800	2.7551
10.778	2.7251
10.755	2.7161
10.733	2.6847
10.711	2.6990
10.689	2.6883
10.667	2.6641
10.645	2.6670
10.623	2.6557
10.602	2.6400
10.580	2.6171
10.558	2.6128
10.537	2.5577
10.516	2.5460
10.494	2.5746
10.473	2.5615
10.452	2.5451
10.431	2.5041
10.410	2.5064
10.389	2.5284
10.368	2.5167
10.348	2.4696
10.327	2.4434
10.306	2.4033
10.286	2.3997
10.266	2.4452
10.245	2.4992
10.225	2.5685
10.205	2.4956
10.185	2.3533
10.165	2.3377
10.145	2.3041
10.125	2.3257
10.106	2.3735
10.086	2.3719
10.066	2.3749
10.047	2.3478
10.027	2.3346
10.008	2.3847
9.9887	2.3714
9.9695	2.3301
9.9504	2.3096
9.9313	2.3457
9.9123	2.3475
9.8934	2.3200
9.8746	2.3247
9.8558	2.3494
9.8371	2.4070
9.8185	2.4007
9.7999	2.3639
9.7814	2.3395
9.7630	2.3121
9.7447	2.2837
9.7264	2.2857
9.7082	2.2912
9.6900	2.3737
9.6719	2.4075
9.6539	2.2894
9.6360	2.2697
9.6181	2.2657
9.6003	2.2540
9.5825	2.2423
9.5649	2.2554
9.5472	2.2917
9.5297	2.3194
9.5122	2.2906
9.4948	2.2746
9.4774	2.2212
9.4601	2.2411
9.4429	2.2507
9.4257	2.2730
9.4086	2.2966
9.3916	2.2760
9.3746	2.2863
9.3577	2.3517
9.3408	2.3988
9.3240	2.4103
9.3073	2.3909
9.2906	2.4031
9.2740	2.3892
9.2574	2.3076
9.2409	2.2439
9.2245	2.2903
9.2081	2.3977
9.1918	2.3672
9.1755	2.2704
9.1593	2.2296
9.1431	2.2538
9.1270	2.3041
9.1110	2.2896
9.0950	2.2568
9.0791	2.2233
9.0632	2.2062
9.0474	2.2088
9.0316	2.1686
9.0159	2.1618
9.0003	2.1774
8.9847	2.1958
8.9691	2.2064
8.9536	2.1012
8.9382	1.9860
8.9228	2.0124
8.9075	2.0278
8.8922	1.9345
8.8770	1.8483
8.8618	1.8314
8.8467	1.8112
8.8316	1.7646
8.8166	1.6976
8.8016	1.6584
8.7867	1.6467
8.7718	1.5631
8.7570	1.4909
8.7422	1.5075
8.7275	1.5169
8.7129	1.5049
8.6982	1.4986
8.6837	1.4883
8.6692	1.4503
8.6547	1.4402
8.6403	1.4634
8.6259	1.4439
8.6116	1.4463
8.5973	1.4245
8.5830	1.3999
8.5688	1.3823
8.5547	1.3509
8.5406	1.3664
8.5266	1.3720
8.5126	1.3618
8.4986	1.3280
8.4847	1.3109
8.4708	1.3265
8.4570	1.3690
8.4432	1.3844
8.4295	1.3596
8.4158	1.3465
8.4022	1.3577
8.3886	1.3568
8.3750	1.3701
8.3615	1.3727
8.3481	1.3312
8.3347	1.3026
8.3213	1.3080
8.3079	1.3104
8.2946	1.2940
8.2814	1.2443
8.2682	1.1637
8.2550	1.1374
8.2419	1.1506
8.2288	1.1436
8.2158	1.1314
8.2028	1.1337
8.1898	1.1151
8.1769	1.1091
8.1640	1.1011
8.1512	1.0540
8.1384	1.0483
8.1256	1.1104
8.1129	1.1364
8.1002	1.1051
8.0876	1.1124
8.0750	1.1571
8.0624	1.1981
8.0499	1.2670
8.0374	1.3216
8.0250	1.3514
8.0126	1.3927
8.0002	1.4688
7.9879	1.5197
7.9756	1.5600
7.9634	1.6350
7.9512	1.7163
7.9390	1.8258
7.9268	1.8816
7.9147	1.9423
7.9027	2.0402
7.8906	2.1436
7.8786	2.2395
7.8667	2.3288
7.8548	2.4275
7.8429	2.5239
7.8310	2.6372
7.8192	2.7729
7.8075	2.8647
7.7957	2.9576
7.7840	3.0546
7.7723	3.1823
7.7607	3.3094
7.7491	3.3994
7.7375	3.5247
7.7260	3.6914
7.7145	3.7982
7.7031	3.9052
7.6916	4.0535
7.6802	4.1909
7.6689	4.4125
7.6575	4.6997
7.6462	4.7192
7.6350	4.7529
7.6238	4.8909
7.6126	5.0400
7.6014	5.1408
7.5903	5.2668
7.5792	5.4129
7.5681	5.5706
7.5571	5.7371
7.5461	5.8852
7.5351	6.0274
7.5242	6.1493
7.5133	6.2719
7.5024	6.4068
7.4916	6.5698
7.4807	6.6808
7.4700	6.8168
7.4592	6.9916
7.4485	7.1271
7.4378	7.2517
7.4272	7.3932
7.4165	7.5321
7.4059	7.6730
7.3954	7.8132
7.3848	7.9312
7.3743	8.0433
7.3639	8.1756
7.3534	8.3245
7.3430	8.4537
7.3326	8.5571
7.3223	8.6740
7.3119	8.8057
7.3016	8.9107
7.2914	9.0208
7.2811	9.1306
7.2709	9.2493
7.2607	9.3563
7.2506	9.4760
7.2404	9.5984
7.2303	9.6930
7.2203	9.7982
7.2102	9.9319
7.2002	10.057
7.1902	10.151
7.1803	10.222
7.1703	10.305
7.1604	10.438
7.1506	10.571
7.1407	10.653
7.1309	10.738
7.1211	10.861
7.1113	10.976
7.1016	11.091
7.0919	11.200
7.0822	11.307
7.0725	11.389
7.0629	11.474
7.0533	11.558
7.0437	11.665
7.0341	11.802
7.0246	11.909
7.0151	12.002
7.0056	12.098
6.9962	12.203
6.9867	12.301
6.9773	12.378
6.9679	12.461
6.9586	12.577
6.9493	12.671
6.9400	12.738
6.9307	12.820
6.9214	12.881
6.9122	12.965
6.9030	13.068
6.8938	13.125
6.8847	13.163
6.8755	13.249
6.8664	13.324
6.8573	13.372
6.8483	13.411
6.8393	13.497
6.8302	13.600
6.8213	13.632
6.8123	13.652
6.8034	13.735
6.7944	13.774
6.7855	13.792
6.7767	13.826
6.7678	13.876
6.7590	13.888
6.7502	13.896
6.7414	13.927
6.7327	13.944
6.7239	13.941
6.7152	13.938
6.7065	13.946
6.6979	13.941
6.6892	13.923
6.6806	13.918
6.6720	13.929
6.6634	13.928
6.6549	13.938
6.6464	13.929
6.6378	13.950
6.6294	13.982
6.6209	14.018
6.6124	14.063
6.6040	14.060
6.5956	14.044
6.5872	14.051
6.5789	14.057
6.5705	14.073
6.5622	14.112
6.5539	14.108
6.5456	14.100
6.5374	14.108
6.5292	14.154
6.5209	14.143
6.5128	14.129
6.5046	14.170
6.4964	14.160
6.4883	14.167
6.4802	14.223
6.4721	14.253
6.4640	14.282
6.4560	14.311
6.4480	14.340
6.4399	14.376
6.4320	14.413
6.4240	14.443
6.4160	14.419
6.4081	14.458
6.4002	14.563
6.3923	14.615
6.3844	14.624
6.3766	14.655
6.3687	14.671
6.3609	14.720
6.3531	14.736
6.3454	14.762
6.3376	14.786
6.3299	14.816
6.3221	14.856
6.3144	14.872
6.3068	14.898
6.2991	14.913
6.2914	14.931
6.2838	14.937
6.2762	14.951
6.2686	14.955
6.2611	14.970
6.2535	15.003
6.2460	15.036
6.2385	15.081
6.2310	15.141
6.2235	15.189
6.2160	15.182
6.2086	15.211
6.2011	15.274
6.1937	15.325
6.1863	15.362
6.1790	15.445
6.1716	15.492
6.1643	15.512
6.1570	15.548
6.1496	15.569
6.1424	15.613
6.1351	15.707
6.1278	15.761
6.1206	15.761
6.1134	15.777
6.1062	15.788
6.0990	15.818
6.0918	15.892
6.0847	15.940
6.0776	15.918
6.0704	15.962
6.0633	16.038
6.0563	16.077
6.0492	16.070
6.0421	16.123
6.0351	16.203
6.0281	16.263
6.0211	16.304
6.0141	16.362
6.0071	16.472
6.0002	16.585
5.9932	16.624
5.9863	16.680
5.9794	16.750
5.9725	16.819
5.9657	16.919
5.9588	17.007
5.9520	17.087
5.9451	17.183
5.9383	17.275
5.9315	17.332
5.9247	17.418
5.9180	17.534
5.9112	17.662
5.9045	17.748
5.8978	17.786
5.8911	17.876
5.8844	17.963
5.8777	18.035
5.8711	18.123
5.8644	18.235
5.8578	18.306
5.8512	18.330
5.8446	18.390
5.8380	18.482
5.8314	18.550
5.8249	18.609
5.8184	18.690
5.8118	18.734
5.8053	18.799
5.7988	18.910
5.7923	19.004
5.7859	19.077
5.7794	19.145
5.7730	19.199
5.7666	19.263
5.7602	19.333
5.7538	19.394
5.7474	19.459
5.7410	19.472
5.7347	19.497
5.7283	19.554
5.7220	19.586
5.7157	19.613
5.7094	19.660
5.7031	19.700
5.6969	19.727
5.6906	19.733
5.6844	19.756
5.6782	19.775
5.6719	19.794
5.6657	19.843
5.6596	19.885
5.6534	19.915
5.6472	19.981
5.6411	20.039
5.6349	20.056
5.6288	20.094
5.6227	20.168
5.6166	20.243
5.6106	20.295
5.6045	20.351
5.5984	20.414
5.5924	20.452
5.5864	20.488
5.5804	20.528
5.5744	20.606
5.5684	20.664
5.5624	20.698
5.5564	20.736
5.5505	20.782
5.5445	20.814
5.5386	20.845
5.5327	20.889
5.5268	20.937
5.5209	20.968
5.5151	21.004
5.5092	21.047
5.5033	21.088
5.4975	21.129
5.4917	21.148
5.4859	21.184
5.4801	21.220
5.4743	21.265
5.4685	21.299
5.4628	21.330
5.4570	21.360
5.4513	21.406
5.4455	21.449
5.4398	21.454
5.4341	21.476
5.4284	21.540
5.4228	21.581
5.4171	21.616
5.4114	21.650
5.4058	21.717
5.4002	21.756
5.3945	21.795
5.3889	21.848
5.3833	21.892
5.3778	21.929
5.3722	21.971
5.3666	22.023
5.3611	22.054
5.3555	22.083
5.3500	22.117
5.3445	22.166
5.3390	22.190
5.3335	22.224
5.3280	22.274
5.3225	22.325
5.3171	22.355
5.3116	22.358
5.3062	22.405
5.3008	22.456
5.2954	22.497
5.2900	22.544
5.2846	22.608
5.2792	22.668
5.2738	22.704
5.2684	22.750
5.2631	22.806
5.2578	22.865
5.2524	22.939
5.2471	23.018
5.2418	23.122
5.2365	23.170
5.2312	23.206
5.2260	23.269
5.2207	23.336
5.2154	23.400
5.2102	23.489
5.2050	23.579
5.1998	23.632
5.1945	23.674
5.1893	23.759
5.1842	23.828
5.1790	23.890
5.1738	23.967
5.1686	24.043
5.1635	24.118
5.1584	24.176
5.1532	24.241
5.1481	24.309
5.1430	24.390
5.1379	24.497
5.1328	24.578
5.1277	24.648
5.1227	24.717
5.1176	24.783
5.1126	24.875
5.1075	24.986
5.1025	25.063
5.0975	25.111
5.0925	25.190
5.0875	25.289
5.0825	25.390
5.0775	25.469
5.0726	25.565
5.0676	25.674
5.0627	25.796
5.0577	25.928
5.0528	26.052
5.0479	26.174
5.0430	26.332
5.0380	26.476
5.0332	26.608
5.0283	26.754
5.0234	26.895
5.0185	27.021
5.0137	27.164
5.0088	27.304
5.0040	27.461
4.9992	27.592
4.9944	27.726
4.9896	27.851
4.9848	27.973
4.9800	28.118
4.9752	28.267
4.9704	28.360
4.9657	28.451
4.9609	28.586
4.9562	28.729
4.9514	28.892
4.9467	29.018
4.9420	29.118
4.9373	29.240
4.9326	29.365
4.9279	29.467
4.9232	29.566
4.9186	29.680
4.9139	29.789
4.9092	29.881
4.9046	29.989
4.9000	30.098
4.8953	30.198
4.8907	30.295
4.8861	30.396
4.8815	30.522
4.8769	30.649
4.8723	30.731
4.8678	30.809
4.8632	30.892
4.8586	31.020
4.8541	31.141
4.8495	31.208
4.8450	31.315
4.8405	31.417
4.8360	31.487
4.8315	31.620
4.8270	31.732
4.8225	31.784
4.8180	31.871
4.8135	31.993
4.8090	32.069
4.8046	32.123
4.8001	32.211
4.7957	32.307
4.7913	32.413
4.7868	32.492
4.7824	32.557
4.7780	32.641
4.7736	32.727
4.7692	32.802
4.7648	32.879
4.7605	32.995
4.7561	33.097
4.7517	33.160
4.7474	33.215
4.7431	33.320
4.7387	33.419
4.7344	33.506
4.7301	33.595
4.7258	33.697
4.7215	33.801
4.7172	33.828
4.7129	33.861
4.7086	34.013
4.7043	34.124
4.7000	34.194
4.6958	34.304
4.6915	34.396
4.6873	34.482
4.6831	34.573
4.6788	34.652
4.6746	34.731
4.6704	34.841
4.6662	34.944
4.6620	35.035
4.6578	35.122
4.6536	35.206
4.6495	35.293
4.6453	35.402
4.6411	35.502
4.6370	35.569
4.6328	35.628
4.6287	35.716
4.6246	35.784
4.6205	35.874
4.6163	35.963
4.6122	36.043
4.6081	36.128
4.6040	36.219
4.6000	36.277
4.5959	36.371
4.5918	36.467
4.5877	36.558
4.5837	36.622
4.5796	36.704
4.5756	36.769
4.5716	36.854
4.5675	36.919
4.5635	36.959
4.5595	37.052
4.5555	37.133
4.5515	37.150
4.5475	37.230
4.5435	37.322
4.5395	37.383
4.5356	37.455
4.5316	37.521
4.5276	37.557
4.5237	37.620
4.5197	37.678
4.5158	37.731
4.5119	37.775
4.5080	37.844
4.5040	37.898
4.5001	37.927
4.4962	37.958
4.4923	38.012
4.4884	38.063
4.4846	38.137
4.4807	38.167
4.4768	38.164
4.4730	38.176
4.4691	38.217
4.4652	38.260
4.4614	38.305
4.4576	38.335
4.4537	38.380
4.4499	38.427
4.4461	38.447
4.4423	38.481
4.4385	38.522
4.4347	38.550
4.4309	38.577
4.4271	38.618
4.4233	38.652
4.4196	38.684
4.4158	38.719
4.4120	38.748
4.4083	38.791
4.4045	38.800
4.4008	38.810
4.3971	38.875
4.3934	38.894
4.3896	38.904
4.3859	38.925
4.3822	38.942
4.3785	38.990
4.3748	39.035
4.3711	39.062
4.3674	39.062
4.3638	39.092
4.3601	39.127
4.3564	39.119
4.3528	39.137
4.3491	39.196
4.3455	39.262
4.3418	39.269
4.3382	39.251
4.3346	39.276
4.3310	39.307
4.3273	39.335
4.3237	39.364
4.3201	39.390
4.3165	39.404
4.3129	39.419
4.3094	39.472
4.3058	39.512
4.3022	39.519
4.2986	39.522
4.2951	39.556
4.2915	39.612
4.2880	39.614
4.2844	39.618
4.2809	39.666
4.2774	39.713
4.2738	39.710
4.2703	39.695
4.2668	39.702
4.2633	39.720
4.2598	39.736
4.2563	39.758
4.2528	39.780
4.2493	39.793
4.2458	39.816
4.2424	39.852
4.2389	39.869
4.2354	39.882
4.2320	39.879
4.2285	39.891
4.2251	39.916
4.2216	39.943
4.2182	39.952
4.2148	39.967
4.2113	39.982
4.2079	39.980
4.2045	39.980
4.2011	39.977
4.1977	39.993
4.1943	40.019
4.1909	40.043
4.1875	40.009
4.1841	40.000
4.1808	40.052
4.1774	40.067
4.1740	40.088
4.1707	40.082
4.1673	40.076
4.1640	40.074
4.1606	40.062
4.1573	40.083
4.1540	40.103
4.1506	40.139
4.1473	40.159
4.1440	40.133
4.1407	40.146
4.1374	40.195
4.1341	40.168
4.1308	40.152
4.1275	40.189
4.1242	40.218
4.1209	40.194
4.1177	40.197
4.1144	40.231
4.1111	40.234
4.1079	40.211
4.1046	40.200
4.1014	40.208
4.0981	40.229
4.0949	40.247
4.0917	40.243
4.0884	40.235
4.0852	40.251
4.0820	40.276
4.0788	40.287
4.0756	40.269
4.0724	40.244
4.0692	40.248
4.0660	40.271
4.0628	40.290
4.0596	40.299
4.0565	40.291
4.0533	40.285
4.0501	40.270
4.0470	40.262
4.0438	40.266
4.0406	40.277
4.0375	40.292
4.0344	40.292
4.0312	40.296
4.0281	40.324
4.0250	40.340
4.0218	40.298
4.0187	40.265
4.0156	40.291
4.0125	40.291
4.0094	40.274
4.0063	40.266
4.0032	40.256
4.0001	40.269
3.9970	40.260
3.9940	40.258
3.9909	40.282
3.9878	40.286
3.9847	40.265
3.9817	40.264
3.9786	40.282
3.9756	40.258
3.9725	40.249
3.9695	40.261
3.9665	40.232
3.9634	40.219
3.9604	40.223
3.9574	40.225
3.9544	40.247
3.9513	40.238
3.9483	40.207
3.9453	40.238
3.9423	40.260
3.9393	40.249
3.9363	40.223
3.9333	40.200
3.9304	40.178
3.9274	40.179
3.9244	40.188
3.9214	40.182
3.9185	40.202
3.9155	40.201
3.9126	40.178
3.9096	40.145
3.9067	40.130
3.9037	40.110
3.9008	40.123
3.8979	40.127
3.8949	40.102
3.8920	40.104
3.8891	40.111
3.8862	40.099
3.8833	40.085
3.8804	40.067
3.8775	40.063
3.8746	40.046
3.8717	40.058
3.8688	40.034
3.8659	40.033
3.8630	40.056
3.8601	40.022
3.8573	39.972
3.8544	39.956
3.8515	39.933
3.8487	39.924
3.8458	39.933
3.8430	39.932
3.8401	39.934
3.8373	39.911
3.8344	39.903
3.8316	39.910
3.8288	39.879
3.8259	39.845
3.8231	39.890
3.8203	39.890
3.8175	39.836
3.8147	39.829
3.8119	39.835
3.8091	39.814
3.8063	39.793
3.8035	39.759
3.8007	39.745
3.7979	39.718
3.7951	39.697
3.7924	39.712
3.7896	39.696
3.7868	39.686
3.7841	39.675
3.7813	39.631
3.7785	39.600
3.7758	39.606
3.7730	39.594
3.7703	39.585
3.7676	39.544
3.7648	39.500
3.7621	39.527
3.7594	39.532
3.7566	39.485
3.7539	39.471
3.7512	39.477
3.7485	39.486
3.7458	39.478
3.7431	39.457
3.7404	39.424
3.7377	39.378
3.7350	39.363
3.7323	39.331
3.7296	39.292
3.7269	39.300
3.7242	39.282
3.7216	39.288
3.7189	39.270
3.7162	39.254
3.7136	39.253
3.7109	39.224
3.7083	39.166
3.7056	39.151
3.7030	39.167
3.7003	39.160
3.6977	39.122
3.6950	39.096
3.6924	39.069
3.6898	39.062
3.6872	39.056
3.6845	39.013
3.6819	38.973
3.6793	38.982
3.6767	38.975
3.6741	38.959
3.6715	38.912
3.6689	38.878
3.6663	38.858
3.6637	38.846
3.6611	38.831
3.6585	38.841
3.6560	38.828
3.6534	38.774
3.6508	38.758
3.6482	38.726
3.6457	38.711
3.6431	38.682
3.6406	38.633
3.6380	38.622
3.6355	38.654
3.6329	38.631
3.6304	38.583
3.6278	38.542
3.6253	38.522
3.6227	38.505
3.6202	38.495
3.6177	38.489
3.6152	38.439
3.6127	38.394
3.6101	38.384
3.6076	38.386
3.6051	38.373
3.6026	38.359
3.6001	38.324
3.5976	38.292
3.5951	38.244
3.5926	38.233
3.5901	38.226
3.5876	38.188
3.5852	38.180
3.5827	38.164
3.5802	38.136
3.5777	38.086
3.5753	38.066
3.5728	38.052
3.5704	38.023
3.5679	37.972
3.5654	37.967
3.5630	37.974
3.5605	37.933
3.5581	37.897
3.5557	37.860
3.5532	37.846
3.5508	37.845
3.5484	37.791
3.5459	37.731
3.5435	37.747
3.5411	37.750
3.5387	37.658
3.5363	37.623
3.5338	37.634
3.5314	37.613
3.5290	37.589
3.5266	37.530
3.5242	37.464
3.5218	37.444
3.5195	37.429
3.5171	37.399
3.5147	37.336
3.5123	37.313
3.5099	37.294
3.5075	37.281
3.5052	37.291
3.5028	37.248
3.5004	37.184
3.4981	37.144
3.4957	37.133
3.4934	37.102
3.4910	37.076
3.4887	37.061
3.4863	37.019
3.4840	37.015
3.4816	37.015
3.4793	37.025
3.4770	36.980
3.4746	36.955
3.4723	36.923
3.4700	36.863
3.4677	36.871
3.4653	36.827
3.4630	36.772
3.4607	36.754
3.4584	36.755
3.4561	36.804
3.4538	36.797
3.4515	36.731
3.4492	36.681
3.4469	36.650
3.4446	36.623
3.4423	36.631
3.4400	36.571
3.4378	36.497
3.4355	36.453
3.4332	36.448
3.4309	36.455
3.4287	36.393
3.4264	36.341
3.4241	36.289
3.4219	36.275
3.4196	36.272
3.4174	36.218
3.4151	36.168
3.4129	36.153
3.4106	36.101
3.4084	36.066
3.4061	36.046
3.4039	36.050
3.4017	36.072
3.3994	36.074
3.3972	36.046
3.3950	35.966
3.3928	35.910
3.3906	35.926
3.3883	35.947
3.3861	35.923
3.3839	35.880
3.3817	35.847
3.3795	35.808
3.3773	35.768
3.3751	35.751
3.3729	35.734
3.3707	35.740
3.3685	35.692
3.3663	35.653
3.3641	35.644
3.3620	35.628
3.3598	35.599
3.3576	35.594
3.3554	35.577
3.3533	35.545
3.3511	35.495
3.3489	35.459
3.3468	35.451
3.3446	35.427
3.3425	35.383
3.3403	35.332
3.3382	35.354
3.3360	35.329
3.3339	35.265
3.3317	35.249
3.3296	35.259
3.3274	35.239
3.3253	35.239
3.3232	35.241
3.3210	35.184
3.3189	35.117
3.3168	35.118
3.3147	35.085
3.3126	35.012
3.3104	35.000
3.3083	34.974
3.3062	34.931
3.3041	34.919
3.3020	34.900
3.2999	34.853
3.2978	34.835
3.2957	34.801
3.2936	34.786
3.2915	34.788
3.2894	34.710
3.2874	34.639
3.2853	34.661
3.2832	34.632
3.2811	34.590
3.2790	34.569
3.2770	34.533
3.2749	34.498
3.2728	34.468
3.2708	34.414
3.2687	34.394
3.2666	34.338
3.2646	34.303
3.2625	34.311
3.2605	34.293
3.2584	34.276
3.2564	34.225
3.2543	34.168
3.2523	34.124
3.2503	34.074
3.2482	34.060
3.2462	34.047
3.2442	34.019
3.2421	33.951
3.2401	33.907
3.2381	33.892
3.2361	33.868
3.2340	33.830
3.2320	33.809
3.2300	33.776
3.2280	33.722
3.2260	33.700
3.2240	33.710
3.2220	33.686
3.2200	33.610
3.2180	33.549
3.2160	33.529
3.2140	33.532
3.2120	33.481
3.2100	33.443
3.2080	33.438
3.2060	33.423
3.2040	33.375
3.2021	33.323
3.2001	33.273
3.1981	33.234
3.1961	33.246
3.1942	33.219
3.1922	33.190
3.1902	33.175
3.1883	33.166
3.1863	33.138
3.1844	33.043
3.1824	32.983
3.1805	32.968
3.1785	32.944
3.1766	32.890
3.1746	32.867
3.1727	32.817
3.1707	32.769
3.1688	32.754
3.1669	32.745
3.1649	32.723
3.1630	32.662
3.1611	32.617
3.1591	32.618
3.1572	32.607
3.1553	32.575
3.1534	32.527
3.1515	32.476
3.1495	32.492
3.1476	32.478
3.1457	32.406
3.1438	32.339
3.1419	32.334
3.1400	32.322
3.1381	32.275
3.1362	32.221
3.1343	32.208
3.1324	32.170
