Name: Quartz Monzonite
Type: Rocks
Class: Igneous
Subclass: Intermediate
Particle Size: 0-75 micrometers
Sample No.: Qmonzonite.H1
Owner: JHU
Wavelength range: All
Origin: Santa Rita Mountains, Arizona, via Smithsonian (Cat. No. NMNH 
113640-18)
Description: Powder derived from light gray medium-grained rock 
composed of pink feldspar, grayish plagioclase, quartz and biotite.




Measurement: Directional (10 degree) hemispherical reflectance
First Column: X
Second Column: Y
X Units: Wavelength (micrometers)
Y Units: Reflectance (percent)
First X Value: 14.0112
Last X Value: 0.4000
Number of X Values: 2844
Additional information: qmonzo1a.txt

14.011	2.7018
13.973	0.9994
13.936	0.0000
13.899	1.9294
13.861	2.4150
13.824	2.5575
13.788	2.9963
13.751	2.7488
13.715	2.4413
13.679	2.2800
13.643	1.6068
13.607	1.9068
13.571	2.2050
13.536	2.0250
13.500	1.8262
13.465	2.1075
13.430	2.3250
13.396	2.1459
13.361	1.6332
13.327	1.8684
13.293	3.0328
13.259	3.3234
13.225	2.6981
13.191	2.4684
13.158	2.9100
13.124	2.4530
13.091	1.7579
13.058	2.0161
13.026	2.1347
12.993	2.1586
12.960	2.2167
12.928	2.3484
12.896	2.4375
12.864	2.3644
12.832	2.2429
12.800	2.2312
12.769	2.1096
12.737	2.1000
12.706	2.0777
12.675	1.9652
12.644	1.8828
12.614	1.9613
12.583	2.0083
12.552	2.1797
12.522	2.5512
12.492	2.7253
12.462	2.7302
12.432	2.7229
12.402	2.9175
12.373	2.8859
12.343	2.8041
12.314	3.0108
12.285	3.3490
12.256	3.5569
12.227	3.9506
12.198	4.3784
12.169	4.7665
12.141	5.0733
12.113	5.5008
12.084	5.8378
12.056	6.0949
12.028	6.3133
12.000	6.5325
11.973	6.7922
11.945	6.9351
11.918	7.0688
11.890	7.2047
11.863	7.2337
11.836	7.3355
11.809	7.4109
11.782	7.3917
11.755	7.4606
11.729	7.5089
11.702	7.5077
11.676	7.5353
11.650	7.5706
11.624	7.5992
11.598	7.5935
11.572	7.5408
11.546	7.5190
11.520	7.5454
11.495	7.5166
11.469	7.5304
11.444	7.5612
11.419	7.5815
11.394	7.5727
11.369	7.5740
11.344	7.5543
11.319	7.4480
11.294	7.3406
11.270	7.2828
11.245	7.2295
11.221	7.0696
11.197	6.9714
11.173	6.8901
11.149	6.7767
11.125	6.6530
11.101	6.5189
11.077	6.4359
11.054	6.3558
11.030	6.2431
11.007	6.1444
10.983	6.0169
10.960	5.9435
10.937	5.8753
10.914	5.7249
10.891	5.6296
10.868	5.5167
10.846	5.4291
10.823	5.3452
10.800	5.2638
10.778	5.1694
10.755	5.1091
10.733	5.0125
10.711	4.9547
10.689	4.8820
10.667	4.8244
10.645	4.7245
10.623	4.6158
10.602	4.5717
10.580	4.5286
10.558	4.4561
10.537	4.4083
10.516	4.4304
10.494	4.3908
10.473	4.3141
10.452	4.2717
10.431	4.2971
10.410	4.2942
10.389	4.2420
10.368	4.2060
10.348	4.2483
10.327	4.2682
10.306	4.2558
10.286	4.2872
10.266	4.3376
10.245	4.3615
10.225	4.3793
10.205	4.4946
10.185	4.5543
10.165	4.5759
10.145	4.6348
10.125	4.7091
10.106	4.7393
10.086	4.7519
10.066	4.8195
10.047	4.8921
10.027	4.9675
10.008	5.0484
9.9887	5.1281
9.9695	5.1898
9.9504	5.2163
9.9313	5.2512
9.9123	5.3200
9.8934	5.3771
9.8746	5.3789
9.8558	5.3317
9.8371	5.3011
9.8185	5.2706
9.7999	5.2282
9.7814	5.1895
9.7630	5.1832
9.7447	5.2210
9.7264	5.2675
9.7082	5.3114
9.6900	5.3798
9.6719	5.3873
9.6539	5.4127
9.6360	5.4546
9.6181	5.4963
9.6003	5.5429
9.5825	5.5608
9.5649	5.5392
9.5472	5.5013
9.5297	5.5169
9.5122	5.5638
9.4948	5.5675
9.4774	5.5711
9.4601	5.6348
9.4429	5.7229
9.4257	5.8139
9.4086	5.9580
9.3916	6.1662
9.3746	6.3928
9.3577	6.6546
9.3408	6.8984
9.3240	7.0751
9.3073	7.1592
9.2906	7.2180
9.2740	7.2665
9.2574	7.2546
9.2409	7.2059
9.2245	7.2148
9.2081	7.1011
9.1918	6.9940
9.1755	7.0584
9.1593	7.0252
9.1431	6.9371
9.1270	6.8273
9.1110	6.7953
9.0950	6.7547
9.0791	6.6499
9.0632	6.5792
9.0474	6.5906
9.0316	6.5243
9.0159	6.4345
9.0003	6.4249
8.9847	6.4472
8.9691	6.4223
8.9536	6.4010
8.9382	6.4667
8.9228	6.5128
8.9075	6.4743
8.8922	6.4730
8.8770	6.4886
8.8618	6.5334
8.8467	6.6084
8.8316	6.6534
8.8166	6.6703
8.8016	6.6488
8.7867	6.6597
8.7718	6.6759
8.7570	6.6987
8.7422	6.6782
8.7275	6.6086
8.7129	6.5920
8.6982	6.5686
8.6837	6.4875
8.6692	6.3093
8.6547	6.0621
8.6403	5.8371
8.6259	5.8015
8.6116	5.9800
8.5973	6.3249
8.5830	6.7062
8.5688	6.9654
8.5547	7.1032
8.5406	7.2286
8.5266	7.2982
8.5126	7.3356
8.4986	7.3699
8.4847	7.3980
8.4708	7.4306
8.4570	7.4644
8.4432	7.4651
8.4295	7.4847
8.4158	7.5467
8.4022	7.5394
8.3886	7.5389
8.3750	7.5649
8.3615	7.5192
8.3481	7.5135
8.3347	7.5325
8.3213	7.5026
8.3079	7.4841
8.2946	7.4988
8.2814	7.5396
8.2682	7.5633
8.2550	7.5696
8.2419	7.5506
8.2288	7.5398
8.2158	7.5291
8.2028	7.4522
8.1898	7.3376
8.1769	7.1963
8.1640	6.9665
8.1512	6.6961
8.1384	6.3706
8.1256	6.0037
8.1129	5.6704
8.1002	5.3556
8.0876	5.0442
8.0750	4.7597
8.0624	4.4498
8.0499	4.1899
8.0374	3.9764
8.0250	3.7237
8.0126	3.5168
8.0002	3.4052
7.9879	3.2205
7.9756	2.9431
7.9634	2.7537
7.9512	2.5933
7.9390	2.4169
7.9268	2.2247
7.9147	2.0582
7.9027	1.9029
7.8906	1.7815
7.8786	1.6985
7.8667	1.5912
7.8548	1.5026
7.8429	1.4088
7.8310	1.3207
7.8192	1.2755
7.8075	1.2220
7.7957	1.1974
7.7840	1.2014
7.7723	1.1649
7.7607	1.1098
7.7491	1.0819
7.7375	1.0535
7.7260	1.0509
7.7145	1.0308
7.7031	0.9914
7.6916	0.9719
7.6802	0.9480
7.6689	0.9255
7.6575	0.9375
7.6462	0.9539
7.6350	0.9307
7.6238	0.9052
7.6126	0.9028
7.6014	0.9379
7.5903	0.9563
7.5792	0.9553
7.5681	0.9797
7.5571	1.0130
7.5461	1.0535
7.5351	1.0517
7.5242	1.0519
7.5133	1.1041
7.5024	1.1478
7.4916	1.1499
7.4807	1.1510
7.4700	1.2005
7.4592	1.2180
7.4485	1.2483
7.4378	1.2994
7.4272	1.3512
7.4165	1.3948
7.4059	1.4480
7.3954	1.5018
7.3848	1.5450
7.3743	1.5724
7.3639	1.6148
7.3534	1.6889
7.3430	1.7561
7.3326	1.8150
7.3223	1.8829
7.3119	1.9289
7.3016	1.9802
7.2914	2.0883
7.2811	2.1841
7.2709	2.2355
7.2607	2.3288
7.2506	2.4696
7.2404	2.5657
7.2303	2.6473
7.2203	2.7375
7.2102	2.8296
7.2002	2.9192
7.1902	2.9988
7.1803	3.1034
7.1703	3.2081
7.1604	3.3232
7.1506	3.4369
7.1407	3.5578
7.1309	3.6701
7.1211	3.7922
7.1113	3.9178
7.1016	4.0364
7.0919	4.0945
7.0822	4.1452
7.0725	4.2190
7.0629	4.3083
7.0533	4.4098
7.0437	4.4930
7.0341	4.5806
7.0246	4.6600
7.0151	4.7275
7.0056	4.8150
6.9962	4.9143
6.9867	4.9927
6.9773	5.0636
6.9679	5.1471
6.9586	5.2472
6.9493	5.3320
6.9400	5.4153
6.9307	5.5104
6.9214	5.5772
6.9122	5.6374
6.9030	5.7106
6.8938	5.7717
6.8847	5.8146
6.8755	5.8394
6.8664	5.8547
6.8573	5.8929
6.8483	5.9384
6.8393	5.9543
6.8302	5.9841
6.8213	6.0127
6.8123	6.0384
6.8034	6.0424
6.7944	6.0223
6.7855	6.0389
6.7767	6.0363
6.7678	6.0253
6.7590	6.0140
6.7502	6.0110
6.7414	6.0215
6.7327	6.0506
6.7239	6.0780
6.7152	6.1193
6.7065	6.1664
6.6979	6.2296
6.6892	6.3169
6.6806	6.4075
6.6720	6.4976
6.6634	6.6133
6.6549	6.7139
6.6464	6.7924
6.6378	6.8348
6.6294	6.8243
6.6209	6.8325
6.6124	6.8460
6.6040	6.8728
6.5956	6.8871
6.5872	6.8709
6.5789	6.8535
6.5705	6.8431
6.5622	6.8468
6.5539	6.8894
6.5456	6.9732
6.5374	7.0589
6.5292	7.2232
6.5209	7.4555
6.5128	7.7057
6.5046	7.9277
6.4964	8.1384
6.4883	8.3812
6.4802	8.5959
6.4721	8.7412
6.4640	8.8643
6.4560	9.0065
6.4480	9.1012
6.4399	9.1431
6.4320	9.1720
6.4240	9.1673
6.4160	9.1558
6.4081	9.1335
6.4002	9.0714
6.3923	8.9854
6.3844	8.8452
6.3766	8.6960
6.3687	8.5452
6.3609	8.3960
6.3531	8.2638
6.3454	8.1042
6.3376	7.9643
6.3299	7.8206
6.3221	7.6452
6.3144	7.4798
6.3068	7.3252
6.2991	7.1857
6.2914	7.0446
6.2838	6.9054
6.2762	6.7737
6.2686	6.6462
6.2611	6.5390
6.2535	6.4394
6.2460	6.3274
6.2385	6.2456
6.2310	6.2029
6.2235	6.1493
6.2160	6.1038
6.2086	6.1003
6.2011	6.1488
6.1937	6.2070
6.1863	6.2979
6.1790	6.4223
6.1716	6.5794
6.1643	6.7999
6.1570	7.0213
6.1496	7.2579
6.1424	7.5173
6.1351	7.7571
6.1278	7.9537
6.1206	8.1766
6.1134	8.3890
6.1062	8.5596
6.0990	8.7330
6.0918	8.9233
6.0847	9.0703
6.0776	9.1572
6.0704	9.2606
6.0633	9.3560
6.0563	9.3979
6.0492	9.4282
6.0421	9.4835
6.0351	9.5416
6.0281	9.5849
6.0211	9.6173
6.0141	9.6236
6.0071	9.5986
6.0002	9.5489
5.9932	9.5018
5.9863	9.4289
5.9794	9.3295
5.9725	9.2327
5.9657	9.1545
5.9588	9.0712
5.9520	8.9888
5.9451	8.9166
5.9383	8.8802
5.9315	8.9433
5.9247	9.0485
5.9180	9.1216
5.9112	9.2477
5.9045	9.4256
5.8978	9.5604
5.8911	9.7184
5.8844	9.8941
5.8777	10.065
5.8711	10.232
5.8644	10.374
5.8578	10.518
5.8512	10.663
5.8446	10.798
5.8380	10.895
5.8314	10.960
5.8249	11.038
5.8184	11.126
5.8118	11.216
5.8053	11.283
5.7988	11.323
5.7923	11.347
5.7859	11.409
5.7794	11.480
5.7730	11.505
5.7666	11.526
5.7602	11.557
5.7538	11.592
5.7474	11.633
5.7410	11.671
5.7347	11.683
5.7283	11.675
5.7220	11.693
5.7157	11.693
5.7094	11.663
5.7031	11.626
5.6969	11.573
5.6906	11.502
5.6844	11.398
5.6782	11.276
5.6719	11.116
5.6657	10.950
5.6596	10.774
5.6534	10.563
5.6472	10.343
5.6411	10.157
5.6349	10.005
5.6288	9.8937
5.6227	9.7999
5.6166	9.7410
5.6106	9.7067
5.6045	9.6841
5.5984	9.6761
5.5924	9.6628
5.5864	9.6693
5.5804	9.7249
5.5744	9.7729
5.5684	9.8369
5.5624	9.9311
5.5564	10.053
5.5505	10.231
5.5445	10.422
5.5386	10.651
5.5327	10.929
5.5268	11.220
5.5209	11.528
5.5151	11.823
5.5092	12.135
5.5033	12.416
5.4975	12.669
5.4917	12.941
5.4859	13.198
5.4801	13.412
5.4743	13.628
5.4685	13.846
5.4628	14.014
5.4570	14.153
5.4513	14.264
5.4455	14.321
5.4398	14.340
5.4341	14.298
5.4284	14.169
5.4228	14.005
5.4171	13.800
5.4114	13.531
5.4058	13.195
5.4002	12.835
5.3945	12.465
5.3889	12.066
5.3833	11.666
5.3778	11.373
5.3722	11.144
5.3666	10.941
5.3611	10.788
5.3555	10.695
5.3500	10.661
5.3445	10.693
5.3390	10.761
5.3335	10.845
5.3280	10.920
5.3225	11.027
5.3171	11.135
5.3116	11.232
5.3062	11.337
5.3008	11.463
5.2954	11.623
5.2900	11.809
5.2846	12.010
5.2792	12.257
5.2738	12.557
5.2684	12.869
5.2631	13.177
5.2578	13.505
5.2524	13.880
5.2471	14.295
5.2418	14.762
5.2365	15.252
5.2312	15.739
5.2260	16.255
5.2207	16.776
5.2154	17.214
5.2102	17.592
5.2050	17.917
5.1998	18.179
5.1945	18.387
5.1893	18.544
5.1842	18.652
5.1790	18.738
5.1738	18.831
5.1686	18.944
5.1635	19.051
5.1584	19.121
5.1532	19.203
5.1481	19.278
5.1430	19.362
5.1379	19.430
5.1328	19.530
5.1277	19.653
5.1227	19.784
5.1176	19.953
5.1126	20.081
5.1075	20.170
5.1025	20.228
5.0975	20.229
5.0925	20.192
5.0875	20.116
5.0825	20.035
5.0775	19.950
5.0726	19.900
5.0676	19.896
5.0627	19.894
5.0577	19.898
5.0528	19.935
5.0479	19.983
5.0430	20.016
5.0380	20.073
5.0332	20.131
5.0283	20.147
5.0234	20.181
5.0185	20.200
5.0137	20.245
5.0088	20.328
5.0040	20.445
4.9992	20.592
4.9944	20.792
4.9896	21.052
4.9848	21.363
4.9800	21.753
4.9752	22.204
4.9704	22.780
4.9657	23.384
4.9609	23.916
4.9562	24.396
4.9514	24.790
4.9467	25.090
4.9420	25.319
4.9373	25.517
4.9326	25.700
4.9279	25.916
4.9232	26.245
4.9186	26.665
4.9139	27.171
4.9092	27.781
4.9046	28.493
4.9000	29.288
4.8953	30.080
4.8907	30.826
4.8861	31.520
4.8815	32.142
4.8769	32.684
4.8723	33.148
4.8678	33.569
4.8632	33.969
4.8586	34.330
4.8541	34.636
4.8495	34.895
4.8450	35.146
4.8405	35.375
4.8360	35.567
4.8315	35.754
4.8270	35.886
4.8225	35.984
4.8180	36.075
4.8135	36.151
4.8090	36.215
4.8046	36.257
4.8001	36.247
4.7957	36.255
4.7913	36.300
4.7868	36.364
4.7824	36.389
4.7780	36.449
4.7736	36.545
4.7692	36.676
4.7648	36.793
4.7605	36.932
4.7561	37.093
4.7517	37.246
4.7474	37.400
4.7431	37.558
4.7387	37.700
4.7344	37.837
4.7301	37.916
4.7258	37.980
4.7215	38.068
4.7172	38.174
4.7129	38.209
4.7086	38.145
4.7043	38.082
4.7000	38.012
4.6958	37.931
4.6915	37.857
4.6873	37.813
4.6831	37.815
4.6788	37.905
4.6746	38.077
4.6704	38.278
4.6662	38.531
4.6620	38.778
4.6578	39.006
4.6536	39.233
4.6495	39.459
4.6453	39.729
4.6411	40.015
4.6370	40.293
4.6328	40.570
4.6287	40.861
4.6246	41.155
4.6205	41.429
4.6163	41.677
4.6122	41.907
4.6081	42.173
4.6040	42.430
4.6000	42.652
4.5959	42.836
4.5918	43.040
4.5877	43.270
4.5837	43.475
4.5796	43.715
4.5756	43.929
4.5716	44.138
4.5675	44.338
4.5635	44.542
4.5595	44.697
4.5555	44.855
4.5515	45.040
4.5475	45.195
4.5435	45.318
4.5395	45.442
4.5356	45.514
4.5316	45.540
4.5276	45.577
4.5237	45.603
4.5197	45.583
4.5158	45.532
4.5119	45.440
4.5080	45.349
4.5040	45.265
4.5001	45.196
4.4962	45.161
4.4923	45.162
4.4884	45.199
4.4846	45.265
4.4807	45.343
4.4768	45.417
4.4730	45.495
4.4691	45.598
4.4652	45.782
4.4614	46.033
4.4576	46.317
4.4537	46.623
4.4499	46.904
4.4461	47.176
4.4423	47.431
4.4385	47.647
4.4347	47.874
4.4309	48.068
4.4271	48.293
4.4233	48.549
4.4196	48.783
4.4158	49.030
4.4120	49.286
4.4083	49.557
4.4045	49.827
4.4008	50.109
4.3971	50.409
4.3934	50.723
4.3896	51.028
4.3859	51.342
4.3822	51.649
4.3785	51.952
4.3748	52.272
4.3711	52.593
4.3674	52.886
4.3638	53.142
4.3601	53.438
4.3564	53.731
4.3528	53.972
4.3491	54.194
4.3455	54.400
4.3418	54.611
4.3382	54.842
4.3346	55.060
4.3310	55.236
4.3273	55.432
4.3237	55.614
4.3201	55.737
4.3165	55.862
4.3129	55.979
4.3094	56.099
4.3058	56.208
4.3022	56.295
4.2986	56.397
4.2951	56.502
4.2915	56.624
4.2880	56.772
4.2844	56.896
4.2809	57.012
4.2774	57.184
4.2738	57.332
4.2703	57.432
4.2668	57.577
4.2633	57.765
4.2598	57.976
4.2563	58.136
4.2528	58.244
4.2493	58.331
4.2458	58.418
4.2424	58.497
4.2389	58.578
4.2354	58.644
4.2320	58.710
4.2285	58.788
4.2251	58.877
4.2216	58.983
4.2182	59.077
4.2148	59.160
4.2113	59.216
4.2079	59.272
4.2045	59.313
4.2011	59.351
4.1977	59.402
4.1943	59.489
4.1909	59.566
4.1875	59.642
4.1841	59.759
4.1808	59.890
4.1774	59.965
4.1740	60.063
4.1707	60.162
4.1673	60.251
4.1640	60.338
4.1606	60.444
4.1573	60.541
4.1540	60.571
4.1506	60.622
4.1473	60.701
4.1440	60.772
4.1407	60.870
4.1374	60.937
4.1341	61.003
4.1308	61.086
4.1275	61.169
4.1242	61.239
4.1209	61.313
4.1177	61.401
4.1144	61.476
4.1111	61.537
4.1079	61.625
4.1046	61.705
4.1014	61.799
4.0981	61.885
4.0949	61.935
4.0917	61.999
4.0884	62.067
4.0852	62.143
4.0820	62.164
4.0788	62.206
4.0756	62.271
4.0724	62.320
4.0692	62.361
4.0660	62.421
4.0628	62.442
4.0596	62.452
4.0565	62.454
4.0533	62.474
4.0501	62.479
4.0470	62.462
4.0438	62.477
4.0406	62.499
4.0375	62.485
4.0344	62.465
4.0312	62.459
4.0281	62.471
4.0250	62.479
4.0218	62.452
4.0187	62.468
4.0156	62.465
4.0125	62.482
4.0094	62.524
4.0063	62.519
4.0032	62.521
4.0001	62.517
3.9970	62.525
3.9940	62.533
3.9909	62.569
3.9878	62.593
3.9847	62.627
3.9817	62.672
3.9786	62.718
3.9756	62.770
3.9725	62.794
3.9695	62.814
3.9665	62.865
3.9634	62.926
3.9604	62.976
3.9574	63.032
3.9544	63.058
3.9513	63.102
3.9483	63.186
3.9453	63.264
3.9423	63.277
3.9393	63.261
3.9363	63.294
3.9333	63.333
3.9304	63.384
3.9274	63.433
3.9244	63.458
3.9214	63.472
3.9185	63.451
3.9155	63.446
3.9126	63.481
3.9096	63.500
3.9067	63.497
3.9037	63.488
3.9008	63.468
3.8979	63.486
3.8949	63.493
3.8920	63.495
3.8891	63.462
3.8862	63.410
3.8833	63.380
3.8804	63.376
3.8775	63.377
3.8746	63.347
3.8717	63.340
3.8688	63.330
3.8659	63.323
3.8630	63.335
3.8601	63.323
3.8573	63.312
3.8544	63.316
3.8515	63.330
3.8487	63.352
3.8458	63.373
3.8430	63.403
3.8401	63.410
3.8373	63.439
3.8344	63.440
3.8316	63.430
3.8288	63.490
3.8259	63.534
3.8231	63.537
3.8203	63.527
3.8175	63.528
3.8147	63.579
3.8119	63.609
3.8091	63.619
3.8063	63.637
3.8035	63.644
3.8007	63.635
3.7979	63.609
3.7951	63.607
3.7924	63.622
3.7896	63.632
3.7868	63.601
3.7841	63.557
3.7813	63.547
3.7785	63.509
3.7758	63.465
3.7730	63.486
3.7703	63.454
3.7676	63.432
3.7648	63.408
3.7621	63.376
3.7594	63.340
3.7566	63.311
3.7539	63.301
3.7512	63.260
3.7485	63.208
3.7458	63.206
3.7431	63.204
3.7404	63.194
3.7377	63.180
3.7350	63.182
3.7323	63.176
3.7296	63.156
3.7269	63.167
3.7242	63.186
3.7216	63.194
3.7189	63.198
3.7162	63.234
3.7136	63.241
3.7109	63.256
3.7083	63.261
3.7056	63.280
3.7030	63.293
3.7003	63.298
3.6977	63.317
3.6950	63.344
3.6924	63.383
3.6898	63.382
3.6872	63.403
3.6845	63.428
3.6819	63.413
3.6793	63.380
3.6767	63.407
3.6741	63.450
3.6715	63.473
3.6689	63.487
3.6663	63.465
3.6637	63.442
3.6611	63.431
3.6585	63.411
3.6560	63.421
3.6534	63.414
3.6508	63.395
3.6482	63.357
3.6457	63.337
3.6431	63.329
3.6406	63.315
3.6380	63.278
3.6355	63.236
3.6329	63.192
3.6304	63.157
3.6278	63.150
3.6253	63.139
3.6227	63.121
3.6202	63.071
3.6177	63.015
3.6152	62.990
3.6127	62.976
3.6101	62.959
3.6076	62.945
3.6051	62.905
3.6026	62.867
3.6001	62.795
3.5976	62.748
3.5951	62.723
3.5926	62.678
3.5901	62.655
3.5876	62.612
3.5852	62.591
3.5827	62.535
3.5802	62.469
3.5777	62.435
3.5753	62.375
3.5728	62.312
3.5704	62.297
3.5679	62.270
3.5654	62.204
3.5630	62.144
3.5605	62.109
3.5581	62.078
3.5557	62.016
3.5532	61.934
3.5508	61.900
3.5484	61.850
3.5459	61.780
3.5435	61.729
3.5411	61.672
3.5387	61.583
3.5363	61.520
3.5338	61.425
3.5314	61.339
3.5290	61.251
3.5266	61.125
3.5242	61.002
3.5218	60.892
3.5195	60.752
3.5171	60.566
3.5147	60.329
3.5123	60.076
3.5099	59.828
3.5075	59.580
3.5052	59.351
3.5028	59.232
3.5004	59.211
3.4981	59.212
3.4957	59.277
3.4934	59.372
3.4910	59.436
3.4887	59.432
3.4863	59.383
3.4840	59.360
3.4816	59.286
3.4793	59.225
3.4770	59.217
3.4746	59.224
3.4723	59.215
3.4700	59.197
3.4677	59.164
3.4653	59.128
3.4630	59.049
3.4607	59.001
3.4584	58.965
3.4561	58.908
3.4538	58.786
3.4515	58.650
3.4492	58.534
3.4469	58.409
3.4446	58.225
3.4423	58.095
3.4400	57.965
3.4378	57.831
3.4355	57.663
3.4332	57.448
3.4309	57.208
3.4287	56.958
3.4264	56.703
3.4241	56.426
3.4219	56.134
3.4196	55.920
3.4174	55.780
3.4151	55.739
3.4129	55.731
3.4106	55.699
3.4084	55.733
3.4061	55.849
3.4039	55.922
3.4017	55.981
3.3994	56.063
3.3972	56.141
3.3950	56.159
3.3928	56.170
3.3906	56.156
3.3883	56.109
3.3861	56.008
3.3839	55.867
3.3817	55.782
3.3795	55.676
3.3773	55.602
3.3751	55.559
3.3729	55.534
3.3707	55.530
3.3685	55.553
3.3663	55.576
3.3641	55.602
3.3620	55.649
3.3598	55.682
3.3576	55.717
3.3554	55.735
3.3533	55.708
3.3511	55.686
3.3489	55.641
3.3468	55.604
3.3446	55.569
3.3425	55.513
3.3403	55.472
3.3382	55.404
3.3360	55.348
3.3339	55.268
3.3317	55.196
3.3296	55.123
3.3274	55.037
3.3253	54.936
3.3232	54.854
3.3210	54.766
3.3189	54.680
3.3168	54.609
3.3147	54.535
3.3126	54.422
3.3104	54.314
3.3083	54.213
3.3062	54.098
3.3041	54.014
3.3020	53.924
3.2999	53.807
3.2978	53.716
3.2957	53.612
3.2936	53.512
3.2915	53.399
3.2894	53.270
3.2874	53.131
3.2853	53.033
3.2832	52.971
3.2811	52.823
3.2790	52.655
3.2770	52.572
3.2749	52.482
3.2728	52.361
3.2708	52.250
3.2687	52.130
3.2666	52.021
3.2646	51.890
3.2625	51.766
3.2605	51.690
3.2584	51.590
3.2564	51.472
3.2543	51.328
3.2523	51.201
3.2503	51.115
3.2482	50.986
3.2462	50.836
3.2442	50.702
3.2421	50.610
3.2401	50.495
3.2381	50.359
3.2361	50.241
3.2340	50.139
3.2320	50.036
3.2300	49.865
3.2280	49.725
3.2260	49.652
3.2240	49.524
3.2220	49.354
3.2200	49.194
3.2180	49.099
3.2160	48.992
3.2140	48.878
3.2120	48.712
3.2100	48.553
3.2080	48.457
3.2060	48.361
3.2040	48.200
3.2021	48.063
3.2001	47.944
3.1981	47.821
3.1961	47.616
3.1942	47.479
3.1922	47.415
3.1902	47.252
3.1883	47.063
3.1863	46.945
3.1844	46.799
3.1824	46.669
3.1805	46.520
3.1785	46.365
3.1766	46.243
3.1746	46.103
3.1727	45.946
3.1707	45.801
3.1688	45.641
3.1669	45.476
3.1649	45.338
3.1630	45.195
3.1611	45.043
3.1591	44.917
3.1572	44.762
3.1553	44.640
3.1534	44.494
3.1515	44.333
3.1495	44.194
3.1476	44.043
3.1457	43.900
3.1438	43.730
3.1419	43.589
3.1400	43.432
3.1381	43.276
3.1362	43.151
3.1343	43.026
3.1324	42.853
3.1305	42.739
3.1286	42.591
