Name: Graphite Schist 
Type:  Rocks
Class:  Metamorphic 
Subclass: Schist 
Particle Size:  0-75 Micrometer
Sample No.:   schist10.doc
Owner:  JHU
Wavelength Range:  All
Origin:  Sample No. 397, The Hunt and Salisbury Collection at the U.S. 
Geological Survey, Denver, Co.
Description: This rock contains coarse, irregular bands of brown, tan and gray 
material.  Microscopically there are finer grains of calcite surrounded and 
enmeshed in a network of graphite bands and veins. There are also larger 
recrystallized calcite grains which are not associated with the graphite.  Modes 
for this rock gave 62.5% calcite and 37.5% graphite.  

Measurement:  Directional (10 Degree) Hemispherical Reflectance
First Column:  X
Second Column:  Y  
X Units:  Wavelength (micrometers)
Y Units:  Reflectance (percent)
First X Value: 14.9831	
Last X Value:  0.4
Number of X Values: 2868
Additional Information:  None

14.983	15.792
14.940	15.932
14.897	16.209
14.854	16.490
14.812	16.664
14.770	16.756
14.728	16.813
14.686	16.856
14.645	16.891
14.603	16.957
14.562	17.054
14.521	17.089
14.481	17.022
14.441	16.889
14.400	16.709
14.361	16.440
14.321	15.992
14.281	15.265
14.242	14.096
14.203	12.341
14.164	10.030
14.126	7.4216
14.087	4.9802
14.049	3.2250
14.011	2.5671
13.973	3.1695
13.936	4.8666
13.899	7.2350
13.861	9.7746
13.824	12.067
13.788	13.888
13.751	15.201
13.715	16.096
13.679	16.705
13.643	17.143
13.607	17.479
13.571	17.743
13.536	17.949
13.500	18.099
13.465	18.206
13.430	18.285
13.396	18.339
13.361	18.377
13.327	18.402
13.293	18.412
13.259	18.403
13.225	18.376
13.191	18.331
13.158	18.266
13.124	18.176
13.091	18.065
13.058	17.934
13.026	17.791
12.993	17.645
12.960	17.507
12.928	17.385
12.896	17.277
12.864	17.179
12.832	17.091
12.800	17.012
12.769	16.950
12.737	16.915
12.706	16.916
12.675	16.955
12.644	17.017
12.614	17.082
12.583	17.139
12.552	17.180
12.522	17.208
12.492	17.228
12.462	17.250
12.432	17.272
12.402	17.287
12.373	17.290
12.343	17.285
12.314	17.282
12.285	17.285
12.256	17.295
12.227	17.317
12.198	17.343
12.169	17.367
12.141	17.382
12.113	17.385
12.084	17.374
12.056	17.339
12.028	17.289
12.000	17.290
11.973	17.348
11.945	17.278
11.918	16.882
11.890	16.095
11.863	14.989
11.836	13.768
11.809	12.757
11.782	12.356
11.755	12.667
11.729	13.326
11.702	13.933
11.676	14.208
11.650	13.968
11.624	13.148
11.598	11.850
11.572	10.298
11.546	8.6561
11.520	7.0112
11.495	5.5401
11.469	4.4107
11.444	3.6666
11.419	3.2733
11.394	3.2145
11.369	3.5032
11.344	4.1684
11.319	5.2251
11.294	6.6356
11.270	8.2324
11.245	9.7322
11.221	10.904
11.197	11.683
11.173	12.120
11.149	12.332
11.125	12.447
11.101	12.569
11.077	12.725
11.054	12.884
11.030	13.025
11.007	13.160
10.983	13.295
10.960	13.426
10.937	13.538
10.914	13.629
10.891	13.689
10.868	13.712
10.846	13.698
10.823	13.655
10.800	13.593
10.778	13.519
10.755	13.442
10.733	13.377
10.711	13.332
10.689	13.306
10.667	13.295
10.645	13.296
10.623	13.298
10.602	13.293
10.580	13.284
10.558	13.279
10.537	13.284
10.516	13.304
10.494	13.344
10.473	13.396
10.452	13.448
10.431	13.492
10.410	13.523
10.389	13.539
10.368	13.541
10.348	13.535
10.327	13.521
10.306	13.494
10.286	13.447
10.266	13.382
10.245	13.312
10.225	13.255
10.205	13.225
10.185	13.219
10.165	13.224
10.145	13.221
10.125	13.197
10.106	13.149
10.086	13.092
10.066	13.044
10.047	13.017
10.027	13.007
10.008	13.005
9.9887	12.998
9.9695	12.973
9.9504	12.929
9.9313	12.874
9.9123	12.819
9.8934	12.778
9.8746	12.763
9.8558	12.783
9.8371	12.833
9.8185	12.900
9.7999	12.976
9.7814	13.060
9.7630	13.152
9.7447	13.266
9.7264	13.416
9.7082	13.602
9.6900	13.813
9.6719	14.022
9.6539	14.208
9.6360	14.362
9.6181	14.493
9.6003	14.615
9.5825	14.751
9.5649	14.914
9.5472	15.101
9.5297	15.300
9.5122	15.490
9.4948	15.661
9.4774	15.805
9.4601	15.914
9.4429	15.989
9.4257	16.034
9.4086	16.057
9.3916	16.079
9.3746	16.125
9.3577	16.217
9.3408	16.365
9.3240	16.559
9.3073	16.776
9.2906	16.980
9.2740	17.148
9.2574	17.269
9.2409	17.356
9.2245	17.433
9.2081	17.529
9.1918	17.671
9.1755	17.864
9.1593	18.104
9.1431	18.370
9.1270	18.640
9.1110	18.894
9.0950	19.121
9.0791	19.320
9.0632	19.497
9.0474	19.656
9.0316	19.795
9.0159	19.916
9.0003	20.016
8.9847	20.100
8.9691	20.166
8.9536	20.221
8.9382	20.272
8.9228	20.317
8.9075	20.358
8.8922	20.395
8.8770	20.434
8.8618	20.473
8.8467	20.507
8.8316	20.530
8.8166	20.528
8.8016	20.487
8.7867	20.394
8.7718	20.244
8.7570	20.040
8.7422	19.793
8.7275	19.515
8.7129	19.212
8.6982	18.877
8.6837	18.490
8.6692	18.032
8.6547	17.505
8.6403	16.932
8.6259	16.374
8.6116	15.905
8.5973	15.578
8.5830	15.410
8.5688	15.366
8.5547	15.380
8.5406	15.383
8.5266	15.338
8.5126	15.253
8.4986	15.167
8.4847	15.126
8.4708	15.165
8.4570	15.283
8.4432	15.458
8.4295	15.667
8.4158	15.897
8.4022	16.143
8.3886	16.399
8.3750	16.665
8.3615	16.930
8.3481	17.180
8.3347	17.404
8.3213	17.604
8.3079	17.787
8.2946	17.955
8.2814	18.111
8.2682	18.255
8.2550	18.387
8.2419	18.498
8.2288	18.581
8.2158	18.627
8.2028	18.631
8.1898	18.596
8.1769	18.527
8.1640	18.430
8.1512	18.299
8.1384	18.118
8.1256	17.880
8.1129	17.597
8.1002	17.312
8.0876	17.095
8.0750	17.013
8.0624	17.101
8.0499	17.335
8.0374	17.652
8.0250	17.975
8.0126	18.240
8.0002	18.404
7.9879	18.454
7.9756	18.400
7.9634	18.254
7.9512	18.031
7.9390	17.761
7.9268	17.490
7.9147	17.270
7.9027	17.133
7.8906	17.092
7.8786	17.121
7.8667	17.165
7.8548	17.168
7.8429	17.097
7.8310	16.953
7.8192	16.766
7.8075	16.579
7.7957	16.433
7.7840	16.336
7.7723	16.272
7.7607	16.209
7.7491	16.117
7.7375	15.971
7.7260	15.760
7.7145	15.486
7.7031	15.156
7.6916	14.780
7.6802	14.369
7.6689	13.937
7.6575	13.506
7.6462	13.092
7.6350	12.708
7.6238	12.363
7.6126	12.062
7.6014	11.811
7.5903	11.609
7.5792	11.452
7.5681	11.333
7.5571	11.241
7.5461	11.157
7.5351	11.071
7.5242	10.973
7.5133	10.857
7.5024	10.721
7.4916	10.567
7.4807	10.393
7.4700	10.197
7.4592	9.9853
7.4485	9.7663
7.4378	9.5463
7.4272	9.3289
7.4165	9.1162
7.4059	8.9055
7.3954	8.6850
7.3848	8.4404
7.3743	8.1668
7.3639	7.8651
7.3534	7.5369
7.3430	7.1890
7.3326	6.8324
7.3223	6.4790
7.3119	6.1383
7.3016	5.8207
7.2914	5.5377
7.2811	5.2957
7.2709	5.0932
7.2607	4.9225
7.2506	4.7709
7.2404	4.6269
7.2303	4.4832
7.2203	4.3418
7.2102	4.2111
7.2002	4.0979
7.1902	4.0060
7.1803	3.9340
7.1703	3.8819
7.1604	3.8539
7.1506	3.8565
7.1407	3.9015
7.1309	3.9934
7.1211	4.1230
7.1113	4.2698
7.1016	4.4029
7.0919	4.4964
7.0822	4.5402
7.0725	4.5369
7.0629	4.5012
7.0533	4.4507
7.0437	4.3996
7.0341	4.3579
7.0246	4.3243
7.0151	4.2954
7.0056	4.2700
6.9962	4.2449
6.9867	4.2184
6.9773	4.1928
6.9679	4.1703
6.9586	4.1528
6.9493	4.1421
6.9400	4.1393
6.9307	4.1438
6.9214	4.1514
6.9122	4.1592
6.9030	4.1680
6.8938	4.1762
6.8847	4.1850
6.8755	4.1966
6.8664	4.2146
6.8573	4.2435
6.8483	4.2807
6.8393	4.3212
6.8302	4.3591
6.8213	4.3925
6.8123	4.4216
6.8034	4.4474
6.7944	4.4732
6.7855	4.5054
6.7767	4.5459
6.7678	4.5902
6.7590	4.6350
6.7502	4.6816
6.7414	4.7330
6.7327	4.7891
6.7239	4.8509
6.7152	4.9196
6.7065	4.9952
6.6979	5.0752
6.6892	5.1560
6.6806	5.2348
6.6720	5.3096
6.6634	5.3802
6.6549	5.4489
6.6464	5.5199
6.6378	5.6042
6.6294	5.7139
6.6209	5.8477
6.6124	5.9978
6.6040	6.1556
6.5956	6.3149
6.5872	6.4719
6.5789	6.6289
6.5705	6.7928
6.5622	6.9709
6.5539	7.1620
6.5456	7.3605
6.5374	7.5554
6.5292	7.7361
6.5209	7.8995
6.5128	8.0522
6.5046	8.2057
6.4964	8.3809
6.4883	8.6023
6.4802	8.8723
6.4721	9.1690
6.4640	9.4466
6.4560	9.6472
6.4480	9.7244
6.4399	9.6552
6.4320	9.4553
6.4240	9.1693
6.4160	8.8465
6.4081	8.5348
6.4002	8.2549
6.3923	8.0001
6.3844	7.7555
6.3766	7.5000
6.3687	7.2163
6.3609	6.8958
6.3531	6.5411
6.3454	6.1688
6.3376	5.7987
6.3299	5.4541
6.3221	5.1605
6.3144	4.9338
6.3068	4.7808
6.2991	4.6991
6.2914	4.6769
6.2838	4.6939
6.2762	4.7242
6.2686	4.7505
6.2611	4.7583
6.2535	4.7413
6.2460	4.7032
6.2385	4.6539
6.2310	4.6023
6.2235	4.5497
6.2160	4.4974
6.2086	4.4495
6.2011	4.4048
6.1937	4.3664
6.1863	4.3430
6.1790	4.3389
6.1716	4.3515
6.1643	4.3790
6.1570	4.4209
6.1496	4.4742
6.1424	4.5322
6.1351	4.5947
6.1278	4.6641
6.1206	4.7375
6.1134	4.8128
6.1062	4.8943
6.0990	4.9843
6.0918	5.0771
6.0847	5.1661
6.0776	5.2493
6.0704	5.3312
6.0633	5.4188
6.0563	5.5206
6.0492	5.6462
6.0421	5.7977
6.0351	5.9647
6.0281	6.1307
6.0211	6.2879
6.0141	6.4340
6.0071	6.5660
6.0002	6.6858
5.9932	6.7973
5.9863	6.9084
5.9794	7.0214
5.9725	7.1338
5.9657	7.2466
5.9588	7.3550
5.9520	7.4547
5.9451	7.5547
5.9383	7.6626
5.9315	7.7920
5.9247	7.9468
5.9180	8.1124
5.9112	8.2767
5.9045	8.4250
5.8978	8.5535
5.8911	8.6734
5.8844	8.7901
5.8777	8.9154
5.8711	9.0511
5.8644	9.1790
5.8578	9.2851
5.8512	9.3575
5.8446	9.3990
5.8380	9.4203
5.8314	9.4355
5.8249	9.4660
5.8184	9.5302
5.8118	9.6251
5.8053	9.7284
5.7988	9.8165
5.7923	9.8766
5.7859	9.9051
5.7794	9.9112
5.7730	9.9219
5.7666	9.9735
5.7602	10.091
5.7538	10.272
5.7474	10.503
5.7410	10.769
5.7347	11.052
5.7283	11.335
5.7220	11.616
5.7157	11.898
5.7094	12.190
5.7031	12.495
5.6969	12.813
5.6906	13.155
5.6844	13.533
5.6782	13.946
5.6719	14.385
5.6657	14.827
5.6596	15.242
5.6534	15.599
5.6472	15.864
5.6411	16.021
5.6349	16.057
5.6288	15.926
5.6227	15.550
5.6166	14.814
5.6106	13.627
5.6045	11.986
5.5984	10.001
5.5924	7.8822
5.5864	5.8863
5.5804	4.2681
5.5744	3.2224
5.5684	2.8522
5.5624	3.2062
5.5564	4.3006
5.5505	6.0892
5.5445	8.4181
5.5386	11.034
5.5327	13.662
5.5268	16.070
5.5209	18.113
5.5151	19.762
5.5092	21.087
5.5033	22.196
5.4975	23.166
5.4917	24.036
5.4859	24.830
5.4801	25.567
5.4743	26.254
5.4685	26.884
5.4628	27.460
5.4570	27.986
5.4513	28.463
5.4455	28.915
5.4398	29.381
5.4341	29.895
5.4284	30.458
5.4228	31.046
5.4171	31.638
5.4114	32.198
5.4058	32.696
5.4002	33.129
5.3945	33.516
5.3889	33.879
5.3833	34.221
5.3778	34.537
5.3722	34.826
5.3666	35.087
5.3611	35.322
5.3555	35.544
5.3500	35.773
5.3445	36.020
5.3390	36.278
5.3335	36.532
5.3280	36.773
5.3225	36.994
5.3171	37.194
5.3116	37.376
5.3062	37.546
5.3008	37.708
5.2954	37.864
5.2900	38.012
5.2846	38.152
5.2792	38.283
5.2738	38.411
5.2684	38.534
5.2631	38.654
5.2578	38.771
5.2524	38.889
5.2471	39.007
5.2418	39.120
5.2365	39.226
5.2312	39.324
5.2260	39.413
5.2207	39.496
5.2154	39.581
5.2102	39.678
5.2050	39.789
5.1998	39.907
5.1945	40.026
5.1893	40.139
5.1842	40.242
5.1790	40.336
5.1738	40.422
5.1686	40.504
5.1635	40.585
5.1584	40.666
5.1532	40.744
5.1481	40.826
5.1430	40.922
5.1379	41.038
5.1328	41.141
5.1277	41.150
5.1227	40.992
5.1176	40.655
5.1126	40.198
5.1075	39.748
5.1025	39.478
5.0975	39.531
5.0925	39.919
5.0875	40.499
5.0825	41.103
5.0775	41.601
5.0726	41.924
5.0676	42.074
5.0627	42.120
5.0577	42.141
5.0528	42.173
5.0479	42.206
5.0430	42.234
5.0380	42.255
5.0332	42.266
5.0283	42.271
5.0234	42.272
5.0185	42.275
5.0137	42.287
5.0088	42.308
5.0040	42.338
4.9992	42.371
4.9944	42.400
4.9896	42.421
4.9848	42.434
4.9800	42.439
4.9752	42.439
4.9704	42.438
4.9657	42.440
4.9609	42.447
4.9562	42.457
4.9514	42.470
4.9467	42.483
4.9420	42.495
4.9373	42.505
4.9326	42.519
4.9279	42.539
4.9232	42.562
4.9186	42.589
4.9139	42.616
4.9092	42.641
4.9046	42.661
4.9000	42.678
4.8953	42.696
4.8907	42.715
4.8861	42.732
4.8815	42.752
4.8769	42.773
4.8723	42.797
4.8678	42.821
4.8632	42.846
4.8586	42.868
4.8541	42.887
4.8495	42.898
4.8450	42.907
4.8405	42.918
4.8360	42.934
4.8315	42.954
4.8270	42.975
4.8225	42.994
4.8180	43.007
4.8135	43.011
4.8090	43.008
4.8046	43.003
4.8001	42.998
4.7957	42.993
4.7913	42.988
4.7868	42.977
4.7824	42.958
4.7780	42.925
4.7736	42.879
4.7692	42.816
4.7648	42.741
4.7605	42.657
4.7561	42.571
4.7517	42.481
4.7474	42.386
4.7431	42.278
4.7387	42.138
4.7344	41.937
4.7301	41.646
4.7258	41.235
4.7215	40.690
4.7172	40.016
4.7129	39.247
4.7086	38.434
4.7043	37.633
4.7000	36.893
4.6958	36.248
4.6915	35.714
4.6873	35.293
4.6831	34.976
4.6788	34.759
4.6746	34.643
4.6704	34.628
4.6662	34.726
4.6620	34.948
4.6578	35.301
4.6536	35.783
4.6495	36.373
4.6453	37.035
4.6411	37.721
4.6370	38.379
4.6328	38.972
4.6287	39.475
4.6246	39.885
4.6205	40.214
4.6163	40.470
4.6122	40.667
4.6081	40.814
4.6040	40.923
4.6000	41.005
4.5959	41.069
4.5918	41.124
4.5877	41.172
4.5837	41.213
4.5796	41.248
4.5756	41.277
4.5716	41.301
4.5675	41.325
4.5635	41.347
4.5595	41.367
4.5555	41.384
4.5515	41.397
4.5475	41.407
4.5435	41.415
4.5395	41.422
4.5356	41.427
4.5316	41.430
4.5276	41.433
4.5237	41.440
4.5197	41.451
4.5158	41.471
4.5119	41.502
4.5080	41.546
4.5040	41.603
4.5001	41.673
4.4962	41.758
4.4923	41.859
4.4884	41.971
4.4846	42.092
4.4807	42.219
4.4768	42.347
4.4730	42.470
4.4691	42.585
4.4652	42.688
4.4614	42.779
4.4576	42.863
4.4537	42.946
4.4499	43.032
4.4461	43.123
4.4423	43.216
4.4385	43.304
4.4347	43.382
4.4309	43.448
4.4271	43.505
4.4233	43.553
4.4196	43.595
4.4158	43.634
4.4120	43.667
4.4083	43.689
4.4045	43.702
4.4008	43.710
4.3971	43.719
4.3934	43.730
4.3896	43.746
4.3859	43.764
4.3822	43.782
4.3785	43.786
4.3748	43.770
4.3711	43.735
4.3674	43.676
4.3638	43.597
4.3601	43.507
4.3564	43.413
4.3528	43.323
4.3491	43.240
4.3455	43.167
4.3418	43.104
4.3382	43.043
4.3346	42.979
4.3310	42.908
4.3273	42.825
4.3237	42.728
4.3201	42.614
4.3165	42.486
4.3129	42.343
4.3094	42.183
4.3058	41.993
4.3022	41.760
4.2986	41.472
4.2951	41.126
4.2915	40.724
4.2880	40.276
4.2844	39.805
4.2809	39.331
4.2774	38.878
4.2738	38.475
4.2703	38.152
4.2668	37.934
4.2633	37.834
4.2598	37.841
4.2563	37.933
4.2528	38.082
4.2493	38.266
4.2458	38.471
4.2424	38.694
4.2389	38.945
4.2354	39.229
4.2320	39.539
4.2285	39.860
4.2251	40.181
4.2216	40.485
4.2182	40.756
4.2148	40.990
4.2113	41.190
4.2079	41.361
4.2045	41.501
4.2011	41.615
4.1977	41.704
4.1943	41.766
4.1909	41.803
4.1875	41.820
4.1841	41.821
4.1808	41.809
4.1774	41.786
4.1740	41.755
4.1707	41.717
4.1673	41.672
4.1640	41.617
4.1606	41.552
4.1573	41.474
4.1540	41.379
4.1506	41.269
4.1473	41.143
4.1440	41.003
4.1407	40.851
4.1374	40.690
4.1341	40.522
4.1308	40.346
4.1275	40.160
4.1242	39.967
4.1209	39.767
4.1177	39.559
4.1144	39.344
4.1111	39.128
4.1079	38.910
4.1046	38.689
4.1014	38.461
4.0981	38.226
4.0949	37.980
4.0917	37.720
4.0884	37.441
4.0852	37.143
4.0820	36.823
4.0788	36.478
4.0756	36.108
4.0724	35.718
4.0692	35.308
4.0660	34.877
4.0628	34.408
4.0596	33.875
4.0565	33.235
4.0533	32.450
4.0501	31.500
4.0470	30.392
4.0438	29.165
4.0406	27.879
4.0375	26.605
4.0344	25.401
4.0312	24.291
4.0281	23.256
4.0250	22.241
4.0218	21.168
4.0187	19.958
4.0156	18.566
4.0125	17.006
4.0094	15.352
4.0063	13.712
4.0032	12.190
4.0001	10.858
3.9970	9.7499
3.9940	8.8635
3.9909	8.1808
3.9878	7.6823
3.9847	7.3543
3.9817	7.1810
3.9786	7.1376
3.9756	7.1947
3.9725	7.3273
3.9695	7.5265
3.9665	7.8026
3.9634	8.1720
3.9604	8.6556
3.9574	9.2822
3.9544	10.077
3.9513	11.042
3.9483	12.136
3.9453	13.282
3.9423	14.379
3.9393	15.320
3.9363	16.033
3.9333	16.513
3.9304	16.825
3.9274	17.051
3.9244	17.257
3.9214	17.471
3.9185	17.694
3.9155	17.910
3.9126	18.095
3.9096	18.243
3.9067	18.365
3.9037	18.474
3.9008	18.573
3.8979	18.662
3.8949	18.747
3.8920	18.833
3.8891	18.920
3.8862	19.005
3.8833	19.086
3.8804	19.158
3.8775	19.219
3.8746	19.268
3.8717	19.313
3.8688	19.364
3.8659	19.423
3.8630	19.494
3.8601	19.580
3.8573	19.681
3.8544	19.795
3.8515	19.930
3.8487	20.103
3.8458	20.336
3.8430	20.655
3.8401	21.081
3.8373	21.628
3.8344	22.288
3.8316	23.033
3.8288	23.833
3.8259	24.654
3.8231	25.477
3.8203	26.295
3.8175	27.116
3.8147	27.955
3.8119	28.831
3.8091	29.757
3.8063	30.736
3.8035	31.759
3.8007	32.802
3.7979	33.826
3.7951	34.787
3.7924	35.641
3.7896	36.359
3.7868	36.930
3.7841	37.364
3.7813	37.687
3.7785	37.929
3.7758	38.119
3.7730	38.275
3.7703	38.410
3.7676	38.527
3.7648	38.625
3.7621	38.706
3.7594	38.768
3.7566	38.815
3.7539	38.850
3.7512	38.881
3.7485	38.915
3.7458	38.954
3.7431	39.000
3.7404	39.050
3.7377	39.101
3.7350	39.148
3.7323	39.188
3.7296	39.221
3.7269	39.246
3.7242	39.262
3.7216	39.269
3.7189	39.268
3.7162	39.263
3.7136	39.254
3.7109	39.240
3.7083	39.222
3.7056	39.202
3.7030	39.179
3.7003	39.150
3.6977	39.118
3.6950	39.086
3.6924	39.054
3.6898	39.018
3.6872	38.977
3.6845	38.933
3.6819	38.887
3.6793	38.834
3.6767	38.779
3.6741	38.726
3.6715	38.675
3.6689	38.622
3.6663	38.565
3.6637	38.508
3.6611	38.449
3.6585	38.392
3.6560	38.341
3.6534	38.300
3.6508	38.263
3.6482	38.221
3.6457	38.172
3.6431	38.117
3.6406	38.056
3.6380	37.992
3.6355	37.928
3.6329	37.864
3.6304	37.800
3.6278	37.732
3.6253	37.662
3.6227	37.592
3.6202	37.518
3.6177	37.437
3.6152	37.344
3.6127	37.239
3.6101	37.125
3.6076	37.006
3.6051	36.885
3.6026	36.763
3.6001	36.632
3.5976	36.486
3.5951	36.314
3.5926	36.109
3.5901	35.866
3.5876	35.579
3.5852	35.245
3.5827	34.877
3.5802	34.501
3.5777	34.151
3.5753	33.860
3.5728	33.656
3.5704	33.542
3.5679	33.494
3.5654	33.473
3.5630	33.441
3.5605	33.373
3.5581	33.249
3.5557	33.063
3.5532	32.820
3.5508	32.526
3.5484	32.174
3.5459	31.761
3.5435	31.280
3.5411	30.726
3.5387	30.080
3.5363	29.318
3.5338	28.418
3.5314	27.364
3.5290	26.155
3.5266	24.823
3.5242	23.427
3.5218	22.049
3.5195	20.772
3.5171	19.655
3.5147	18.726
3.5123	17.978
3.5099	17.376
3.5075	16.874
3.5052	16.420
3.5028	15.980
3.5004	15.539
3.4981	15.089
3.4957	14.631
3.4934	14.175
3.4910	13.727
3.4887	13.292
3.4863	12.880
3.4840	12.520
3.4816	12.263
3.4793	12.175
3.4770	12.324
3.4746	12.753
3.4723	13.451
3.4700	14.351
3.4677	15.341
3.4653	16.299
3.4630	17.120
3.4607	17.747
3.4584	18.177
3.4561	18.443
3.4538	18.593
3.4515	18.673
3.4492	18.716
3.4469	18.740
3.4446	18.745
3.4423	18.729
3.4400	18.696
3.4378	18.654
3.4355	18.605
3.4332	18.556
3.4309	18.510
3.4287	18.465
3.4264	18.411
3.4241	18.347
3.4219	18.283
3.4196	18.227
3.4174	18.181
3.4151	18.149
3.4129	18.129
3.4106	18.113
3.4084	18.093
3.4061	18.060
3.4039	18.019
3.4017	17.967
3.3994	17.902
3.3972	17.824
3.3950	17.735
3.3928	17.636
3.3906	17.526
3.3883	17.408
3.3861	17.289
3.3839	17.179
3.3817	17.088
3.3795	17.028
3.3773	17.005
3.3751	17.000
3.3729	16.991
3.3707	16.951
3.3685	16.861
3.3663	16.704
3.3641	16.477
3.3620	16.191
3.3598	15.864
3.3576	15.526
3.3554	15.240
3.3533	15.105
3.3511	15.237
3.3489	15.734
3.3468	16.638
3.3446	17.917
3.3425	19.458
3.3403	21.087
3.3382	22.631
3.3360	23.966
3.3339	25.036
3.3317	25.847
3.3296	26.444
3.3274	26.887
3.3253	27.229
3.3232	27.504
3.3210	27.727
3.3189	27.913
3.3168	28.077
3.3147	28.223
3.3126	28.352
3.3104	28.466
3.3083	28.569
3.3062	28.660
3.3041	28.737
3.3020	28.806
3.2999	28.869
3.2978	28.923
3.2957	28.967
3.2936	29.004
3.2915	29.037
3.2894	29.063
3.2874	29.080
3.2853	29.090
3.2832	29.096
3.2811	29.101
3.2790	29.105
3.2770	29.117
3.2749	29.136
3.2728	29.154
3.2708	29.166
3.2687	29.173
3.2666	29.181
3.2646	29.192
3.2625	29.205
3.2605	29.224
3.2584	29.244
3.2564	29.254
3.2543	29.253
3.2523	29.247
3.2503	29.237
3.2482	29.232
3.2462	29.233
3.2442	29.243
3.2421	29.256
3.2401	29.266
3.2381	29.270
3.2361	29.266
3.2340	29.251
3.2320	29.228
3.2300	29.201
3.2280	29.172
3.2260	29.146
3.2240	29.125
3.2220	29.113
3.2200	29.107
3.2180	29.100
3.2160	29.086
3.2140	29.066
3.2120	29.037
3.2100	29.003
3.2080	28.970
