Name: Shale (Calcareous)
Type:  Rocks
Class:  Sedimentary
Subclass: Shale 
Particle Size:  500 - 1500 Micrometers
Sample No.:  shale.3
Owner:  JHU
Wavelength Range:  All
Origin:  Sample No. 383,  The Hunt and Salisbury Collection at the U.S. 
Geological Survey, Denver, Co.
Description: Sample consists of a brownish fine-grained to 
microcrystalline groundmass with recrystallized(?), foraminiferid 
tests. Tests are biserial, uniserial, planispiral/trochospiral and 
fusilinid types. The groundmass consists of brown clay, carbonate, 
and lesser amounts of fine quartz. Additionally, there are scattered 
flecks and small lenses of opaque material.
Measurement:  Directional (10 Degree) Hemispherical Reflectance
First Column:  X
Second Column:  Y  
X Units:  Wavelength (micrometers)
Y Units:  Reflectance (percent)
First X Value: 14.0112
Last X Value:  0.4
Number of X Values: 2844
Additional Information:  None

14.0112	1.687
13.9734	1.5875
13.9359	1.5683
13.8985	1.6277
13.8614	1.7444
13.8244	1.8858
13.7876	2.0211
13.7511	2.1291
13.7147	2.205
13.6785	2.2543
13.6425	2.2873
13.6067	2.3141
13.5711	2.3416
13.5356	2.3718
13.5004	2.4027
13.4653	2.4321
13.4304	2.4586
13.3957	2.4814
13.3612	2.5003
13.3269	2.5165
13.2927	2.532
13.2587	2.5478
13.2249	2.5655
13.1912	2.5866
13.1577	2.611
13.1244	2.6374
13.0913	2.6618
13.0583	2.6794
13.0255	2.6857
12.9929	2.6778
12.9604	2.6565
12.9281	2.6258
12.8959	2.5924
12.8639	2.5634
12.8321	2.5436
12.8004	2.5352
12.7688	2.5366
12.7375	2.544
12.7063	2.5512
12.6752	2.5521
12.6443	2.5421
12.6135	2.5201
12.5829	2.4873
12.5524	2.4493
12.5221	2.4136
12.4919	2.3888
12.4619	2.3794
12.432	2.3871
12.4023	2.4088
12.3727	2.4395
12.3432	2.4729
12.3139	2.5046
12.2847	2.5325
12.2557	2.5567
12.2268	2.577
12.198	2.5936
12.1694	2.6067
12.1409	2.6177
12.1125	2.6288
12.0843	2.6437
12.0562	2.667
12.0282	2.7003
12.0003	2.7416
11.9726	2.785
11.945	2.8215
11.9176	2.8431
11.8903	2.8467
11.8631	2.8376
11.836	2.8273
11.809	2.8306
11.7822	2.8613
11.7555	2.9277
11.7289	3.0306
11.7024	3.1644
11.676	3.319
11.6498	3.4798
11.6237	3.6267
11.5977	3.7362
11.5718	3.7836
11.546	3.7492
11.5203	3.625
11.4948	3.424
11.4694	3.1802
11.444	2.9448
11.4188	2.7783
11.3937	2.7352
11.3688	2.8502
11.3439	3.1237
11.3191	3.518
11.2944	3.9643
11.2699	4.3781
11.2455	4.682
11.2211	4.8291
11.1969	4.8139
11.1727	4.667
11.1487	4.442
11.1248	4.1942
11.101	3.9655
11.0773	3.7764
11.0536	3.6284
11.0301	3.5135
11.0067	3.4235
10.9834	3.3522
10.9602	3.2977
10.937	3.2599
10.914	3.2383
10.8911	3.2305
10.8682	3.2315
10.8455	3.2365
10.8229	3.2413
10.8003	3.2439
10.7779	3.2448
10.7555	3.2458
10.7332	3.2496
10.7111	3.2575
10.689	3.2692
10.667	3.2826
10.6451	3.2944
10.6233	3.3017
10.6015	3.3042
10.5799	3.303
10.5584	3.3008
10.5369	3.3008
10.5155	3.3039
10.4942	3.3092
10.473	3.3145
10.4519	3.3163
10.4309	3.313
10.4099	3.3047
10.3891	3.2917
10.3683	3.2761
10.3476	3.2584
10.327	3.2386
10.3065	3.2164
10.286	3.1915
10.2656	3.1644
10.2454	3.1369
10.2251	3.1111
10.205	3.0879
10.185	3.0668
10.165	3.0467
10.1451	3.0263
10.1253	3.0041
10.1056	2.9802
10.0859	2.9568
10.0663	2.9359
10.0468	2.9209
10.0274	2.913
10.008	2.9125
9.9887	2.9175
9.9695	2.9244
9.9504	2.9297
9.9313	2.9299
9.9123	2.9239
9.8934	2.9125
9.8746	2.8993
9.8558	2.8884
9.8371	2.8836
9.8185	2.8869
9.7999	2.8986
9.7814	2.9163
9.763	2.9362
9.7447	2.9556
9.7264	2.9735
9.7082	2.9895
9.69	3.0051
9.6719	3.0218
9.6539	3.0412
9.636	3.0635
9.6181	3.0876
9.6003	3.1115
9.5825	3.1337
9.5649	3.1525
9.5472	3.1668
9.5297	3.1783
9.5122	3.1895
9.4948	3.2039
9.4774	3.2255
9.4601	3.2575
9.4429	3.3022
9.4257	3.3616
9.4086	3.4348
9.3916	3.52
9.3746	3.6138
9.3577	3.7102
9.3408	3.802
9.324	3.8827
9.3073	3.9468
9.2906	3.992
9.274	4.0188
9.2574	4.0319
9.2409	4.0375
9.2245	4.0422
9.2081	4.0516
9.1918	4.0681
9.1755	4.0903
9.1593	4.1145
9.1431	4.1346
9.127	4.1466
9.111	4.1476
9.095	4.1381
9.0791	4.1215
9.0632	4.1011
9.0474	4.0808
9.0316	4.0624
9.0159	4.0473
9.0003	4.0355
8.9847	4.0269
8.9691	4.0209
8.9536	4.0171
8.9382	4.0159
8.9228	4.0181
8.9075	4.0248
8.8922	4.0382
8.877	4.0597
8.8618	4.0898
8.8467	4.126
8.8316	4.165
8.8166	4.2035
8.8016	4.2394
8.7867	4.2736
8.7718	4.3091
8.757	4.3489
8.7422	4.3942
8.7275	4.4414
8.7129	4.4834
8.6982	4.5107
8.6837	4.5155
8.6692	4.4957
8.6547	4.4562
8.6403	4.4093
8.6259	4.37
8.6116	4.3528
8.5973	4.3669
8.583	4.415
8.5688	4.492
8.5547	4.5888
8.5406	4.6937
8.5266	4.7976
8.5126	4.894
8.4986	4.9807
8.4847	5.0595
8.4708	5.1354
8.457	5.2137
8.4432	5.2997
8.4295	5.3988
8.4158	5.5132
8.4022	5.6428
8.3886	5.7854
8.375	5.9376
8.3615	6.0948
8.3481	6.2535
8.3347	6.4117
8.3213	6.5695
8.3079	6.7289
8.2946	6.8918
8.2814	7.0588
8.2682	7.2282
8.255	7.3968
8.2419	7.56
8.2288	7.7125
8.2158	7.8498
8.2028	7.968
8.1898	8.0646
8.1769	8.1386
8.164	8.1891
8.1512	8.2183
8.1384	8.2288
8.1256	8.2259
8.1129	8.2151
8.1002	8.2032
8.0876	8.1962
8.075	8.2001
8.0624	8.2188
8.0499	8.2543
8.0374	8.3056
8.025	8.3685
8.0126	8.4357
8.0002	8.4982
7.9879	8.5473
7.9756	8.576
7.9634	8.5812
7.9512	8.5649
7.939	8.5338
7.9268	8.4982
7.9147	8.4676
7.9027	8.4499
7.8906	8.4475
7.8786	8.458
7.8667	8.4749
7.8548	8.4907
7.8429	8.501
7.831	8.5048
7.8192	8.5056
7.8075	8.5089
7.7957	8.5197
7.784	8.5403
7.7723	8.5685
7.7607	8.5989
7.7491	8.6248
7.7375	8.6386
7.726	8.6353
7.7145	8.6123
7.7031	8.5697
7.6916	8.5096
7.6802	8.4354
7.6689	8.3516
7.6575	8.2623
7.6462	8.1728
7.635	8.0874
7.6238	8.0101
7.6126	7.9448
7.6014	7.8938
7.5903	7.8596
7.5792	7.8428
7.5681	7.8426
7.5571	7.8563
7.5461	7.8792
7.5351	7.9056
7.5242	7.9283
7.5133	7.9419
7.5024	7.9426
7.4916	7.93
7.4807	7.9062
7.47	7.8752
7.4592	7.8407
7.4485	7.805
7.4378	7.7687
7.4272	7.7306
7.4165	7.6881
7.4059	7.637
7.3954	7.5739
7.3848	7.4945
7.3743	7.3952
7.3639	7.2743
7.3534	7.1316
7.343	6.9696
7.3326	6.792
7.3223	6.6044
7.3119	6.413
7.3016	6.225
7.2914	6.046
7.2811	5.88
7.2709	5.7281
7.2607	5.5872
7.2506	5.4527
7.2404	5.3191
7.2303	5.183
7.2203	5.0443
7.2102	4.906
7.2002	4.7742
7.1902	4.6543
7.1803	4.5533
7.1703	4.4765
7.1604	4.4299
7.1506	4.4174
7.1407	4.4394
7.1309	4.4908
7.1211	4.56
7.1113	4.6303
7.1016	4.6839
7.0919	4.7069
7.0822	4.6935
7.0725	4.6483
7.0629	4.583
7.0533	4.5136
7.0437	4.4525
7.0341	4.4069
7.0246	4.3748
7.0151	4.3494
7.0056	4.3232
6.9962	4.2908
6.9867	4.2518
6.9773	4.2105
6.9679	4.1733
6.9586	4.1463
6.9493	4.1318
6.94	4.1291
6.9307	4.1343
6.9214	4.1423
6.9122	4.1468
6.903	4.1444
6.8938	4.1356
6.8847	4.124
6.8755	4.1159
6.8664	4.1179
6.8573	4.1343
6.8483	4.1647
6.8393	4.203
6.8302	4.242
6.8213	4.276
6.8123	4.304
6.8034	4.3284
6.7944	4.3544
6.7855	4.3882
6.7767	4.4306
6.7678	4.4791
6.759	4.5294
6.7502	4.5772
6.7414	4.6213
6.7327	4.6628
6.7239	4.7062
6.7152	4.7557
6.7065	4.8145
6.6979	4.8826
6.6892	4.9553
6.6806	5.0275
6.672	5.0954
6.6634	5.1606
6.6549	5.2285
6.6464	5.3098
6.6378	5.4146
6.6294	5.5467
6.6209	5.7008
6.6124	5.8649
6.604	6.0266
6.5956	6.1791
6.5872	6.324
6.5789	6.4712
6.5705	6.6318
6.5622	6.8102
6.5539	6.9995
6.5456	7.1825
6.5374	7.3376
6.5292	7.4488
6.5209	7.515
6.5128	7.5533
6.5046	7.594
6.4964	7.6727
6.4883	7.8146
6.4802	8.0233
6.4721	8.2759
6.464	8.5276
6.456	8.7259
6.448	8.8278
6.4399	8.8152
6.432	8.6987
6.424	8.5111
6.416	8.2924
6.4081	8.0749
6.4002	7.8704
6.3923	7.6704
6.3844	7.4543
6.3766	7.2019
6.3687	6.9018
6.3609	6.5566
6.3531	6.18
6.3454	5.7932
6.3376	5.417
6.3299	5.0691
6.3221	4.7634
6.3144	4.5091
6.3068	4.3112
6.2991	4.1683
6.2914	4.0727
6.2838	4.0114
6.2762	3.9673
6.2686	3.9233
6.2611	3.8669
6.2535	3.7917
6.246	3.6982
6.2385	3.591
6.231	3.4766
6.2235	3.3594
6.216	3.2429
6.2086	3.1283
6.2011	3.0182
6.1937	2.9149
6.1863	2.8218
6.179	2.7412
6.1716	2.6737
6.1643	2.618
6.157	2.5703
6.1496	2.5275
6.1424	2.487
6.1351	2.4476
6.1278	2.4095
6.1206	2.374
6.1134	2.3414
6.1062	2.3124
6.099	2.2857
6.0918	2.2598
6.0847	2.2332
6.0776	2.2067
6.0704	2.1825
6.0633	2.1638
6.0563	2.1545
6.0492	2.1567
6.0421	2.1691
6.0351	2.1882
6.0281	2.2078
6.0211	2.2231
6.0141	2.2318
6.0071	2.2337
6.0002	2.2309
5.9932	2.2258
5.9863	2.2203
5.9794	2.2131
5.9725	2.2022
5.9657	2.1873
5.9588	2.1705
5.952	2.1557
5.9451	2.1486
5.9383	2.1524
5.9315	2.1677
5.9247	2.1894
5.918	2.21
5.9112	2.2224
5.9045	2.2236
5.8978	2.215
5.8911	2.203
5.8844	2.1947
5.8777	2.1945
5.8711	2.2022
5.8644	2.212
5.8578	2.2174
5.8512	2.2124
5.8446	2.1959
5.838	2.1722
5.8314	2.1486
5.8249	2.1318
5.8184	2.1251
5.8118	2.1268
5.8053	2.1306
5.7988	2.1293
5.7923	2.1184
5.7859	2.0973
5.7794	2.0702
5.773	2.0442
5.7666	2.0249
5.7602	2.0158
5.7538	2.0167
5.7474	2.0251
5.741	2.0375
5.7347	2.0521
5.7283	2.0677
5.722	2.0842
5.7157	2.1019
5.7094	2.1215
5.7031	2.1431
5.6969	2.166
5.6906	2.1906
5.6844	2.2158
5.6782	2.2407
5.6719	2.2634
5.6657	2.2827
5.6596	2.2971
5.6534	2.3053
5.6472	2.3069
5.6411	2.3014
5.6349	2.2873
5.6288	2.2621
5.6227	2.2229
5.6166	2.166
5.6106	2.0885
5.6045	1.9906
5.5984	1.8755
5.5924	1.7497
5.5864	1.6229
5.5804	1.5073
5.5744	1.4167
5.5684	1.3636
5.5624	1.358
5.5564	1.4061
5.5505	1.5064
5.5445	1.6499
5.5386	1.8227
5.5327	2.0071
5.5268	2.1868
5.5209	2.3504
5.5151	2.4933
5.5092	2.6168
5.5033	2.7261
5.4975	2.8273
5.4917	2.9247
5.4859	3.0208
5.4801	3.1161
5.4743	3.2111
5.4685	3.3053
5.4628	3.3991
5.457	3.4924
5.4513	3.5841
5.4455	3.6717
5.4398	3.7532
5.4341	3.8272
5.4284	3.8925
5.4228	3.9482
5.4171	3.9942
5.4114	4.0291
5.4058	4.0521
5.4002	4.0628
5.3945	4.0626
5.3889	4.0533
5.3833	4.0382
5.3778	4.0203
5.3722	4.0025
5.3666	3.9889
5.3611	3.9829
5.3555	3.9879
5.35	4.0068
5.3445	4.0403
5.339	4.0865
5.3335	4.1416
5.328	4.2016
5.3225	4.2633
5.3171	4.325
5.3116	4.3871
5.3062	4.4514
5.3008	4.5201
5.2954	4.5954
5.29	4.6794
5.2846	4.7725
5.2792	4.8756
5.2738	4.9883
5.2684	5.1103
5.2631	5.2409
5.2578	5.3799
5.2524	5.5263
5.2471	5.6793
5.2418	5.8369
5.2365	5.996
5.2312	6.1539
5.226	6.3063
5.2207	6.4494
5.2154	6.5805
5.2102	6.697
5.205	6.798
5.1998	6.8829
5.1945	6.9528
5.1893	7.0095
5.1842	7.0557
5.179	7.0935
5.1738	7.1261
5.1686	7.155
5.1635	7.182
5.1584	7.2093
5.1532	7.2397
5.1481	7.2732
5.143	7.3067
5.1379	7.3304
5.1328	7.3289
5.1277	7.2849
5.1227	7.1873
5.1176	7.0411
5.1126	6.8708
5.1075	6.715
5.1025	6.6164
5.0975	6.6049
5.0925	6.6865
5.0875	6.8396
5.0825	7.0258
5.0775	7.2036
5.0726	7.3426
5.0676	7.4318
5.0627	7.477
5.0577	7.4943
5.0528	7.4995
5.0479	7.5029
5.043	7.5072
5.038	7.512
5.0332	7.5158
5.0283	7.5193
5.0234	7.5258
5.0185	7.539
5.0137	7.562
5.0088	7.5957
5.004	7.6405
4.9992	7.6962
4.9944	7.7639
4.9896	7.8448
4.9848	7.9404
4.98	8.0508
4.9752	8.1735
4.9704	8.303
4.9657	8.4329
4.9609	8.5568
4.9562	8.6698
4.9514	8.7695
4.9467	8.857
4.942	8.9355
4.9373	9.0107
4.9326	9.0886
4.9279	9.1769
4.9232	9.2813
4.9186	9.4052
4.9139	9.5487
4.9092	9.7086
4.9046	9.8785
4.9	10.0505
4.8953	10.217
4.8907	10.3723
4.8861	10.5123
4.8815	10.6357
4.8769	10.7436
4.8723	10.8383
4.8678	10.9226
4.8632	10.9991
4.8586	11.0707
4.8541	11.1384
4.8495	11.2028
4.845	11.2632
4.8405	11.3198
4.836	11.3716
4.8315	11.4186
4.827	11.4607
4.8225	11.4978
4.818	11.5308
4.8135	11.56
4.809	11.5858
4.8046	11.609
4.8001	11.6302
4.7957	11.649
4.7913	11.6636
4.7868	11.6717
4.7824	11.6695
4.778	11.6535
4.7736	11.62
4.7692	11.5671
4.7648	11.4941
4.7605	11.402
4.7561	11.2929
4.7517	11.1678
4.7474	11.0255
4.7431	10.8623
4.7387	10.6713
4.7344	10.4445
4.7301	10.1735
4.7258	9.8548
4.7215	9.4901
4.7172	9.0896
4.7129	8.6693
4.7086	8.2498
4.7043	7.8526
4.7	7.4962
4.6958	7.1925
4.6915	6.9475
4.6873	6.7607
4.6831	6.6274
4.6788	6.5413
4.6746	6.4973
4.6704	6.4927
4.6662	6.5291
4.662	6.6109
4.6578	6.743
4.6536	6.9289
4.6495	7.1684
4.6453	7.4551
4.6411	7.7776
4.637	8.1209
4.6328	8.4699
4.6287	8.8099
4.6246	9.1291
4.6205	9.4193
4.6163	9.6751
4.6122	9.8945
4.6081	10.0775
4.604	10.2283
4.6	10.3519
4.5959	10.4545
4.5918	10.5415
4.5877	10.617
4.5837	10.6831
4.5796	10.7412
4.5756	10.792
4.5716	10.8362
4.5675	10.8756
4.5635	10.9111
4.5595	10.9434
4.5555	10.9731
4.5515	11.0001
4.5475	11.0245
4.5435	11.0472
4.5395	11.0687
4.5356	11.0903
4.5316	11.1118
4.5276	11.1336
4.5237	11.1553
4.5197	11.1774
4.5158	11.2011
4.5119	11.2283
4.508	11.2637
4.504	11.3118
4.5001	11.3767
4.4962	11.4611
4.4923	11.5657
4.4884	11.6882
4.4846	11.8248
4.4807	11.9705
4.4768	12.1199
4.473	12.2691
4.4691	12.4155
4.4652	12.5581
4.4614	12.6979
4.4576	12.8368
4.4537	12.9776
4.4499	13.1221
4.4461	13.2714
4.4423	13.4236
4.4385	13.5759
4.4347	13.7243
4.4309	13.8647
4.4271	13.9949
4.4233	14.1133
4.4196	14.2207
4.4158	14.3176
4.412	14.4057
4.4083	14.4868
4.4045	14.5638
4.4008	14.6388
4.3971	14.7143
4.3934	14.7916
4.3896	14.8691
4.3859	14.9433
4.3822	15.0081
4.3785	15.0562
4.3748	15.0806
4.3711	15.0768
4.3674	15.0431
4.3638	14.9832
4.3601	14.9043
4.3564	14.8162
4.3528	14.7296
4.3491	14.654
4.3455	14.5951
4.3418	14.555
4.3382	14.5312
4.3346	14.5186
4.331	14.5112
4.3273	14.5033
4.3237	14.492
4.3201	14.4777
4.3165	14.4619
4.3129	14.4469
4.3094	14.4315
4.3058	14.4102
4.3022	14.3732
4.2986	14.3076
4.2951	14.2024
4.2915	14.052
4.288	13.8597
4.2844	13.6398
4.2809	13.4159
4.2774	13.2178
4.2738	13.075
4.2703	13.0108
4.2668	13.0366
4.2633	13.1489
4.2598	13.3303
4.2563	13.5537
4.2528	13.7899
4.2493	14.0125
4.2458	14.2044
4.2424	14.3578
4.2389	14.4734
4.2354	14.5569
4.232	14.6169
4.2285	14.6607
4.2251	14.6937
4.2216	14.7184
4.2182	14.7361
4.2148	14.7462
4.2113	14.748
4.2079	14.7412
4.2045	14.7249
4.2011	14.699
4.1977	14.6633
4.1943	14.6177
4.1909	14.5631
4.1875	14.5012
4.1841	14.4336
4.1808	14.3631
4.1774	14.2897
4.174	14.2133
4.1707	14.1332
4.1673	14.0475
4.164	13.9554
4.1606	13.8558
4.1573	13.7489
4.154	13.6339
4.1506	13.5102
4.1473	13.3769
4.144	13.2335
4.1407	13.0802
4.1374	12.9168
4.1341	12.745
4.1308	12.5674
4.1275	12.3858
4.1242	12.2026
4.1209	12.0193
4.1177	11.8375
4.1144	11.6568
4.1111	11.477
4.1079	11.2966
4.1046	11.1145
4.1014	10.9291
4.0981	10.7385
4.0949	10.5424
4.0917	10.3395
4.0884	10.1297
4.0852	9.9129
4.082	9.6899
4.0788	9.4621
4.0756	9.2315
4.0724	8.9996
4.0692	8.7681
4.066	8.5355
4.0628	8.298
4.0596	8.0488
4.0565	7.7816
4.0533	7.4916
4.0501	7.1787
4.047	6.8492
4.0438	6.5141
4.0406	6.1876
4.0375	5.8843
4.0344	5.6144
4.0312	5.3832
4.0281	5.1897
4.025	5.027
4.0218	4.8859
4.0187	4.755
4.0156	4.6248
4.0125	4.489
4.0094	4.3441
4.0063	4.1916
4.0032	4.0337
4.0001	3.8757
3.997	3.7233
3.994	3.5819
3.9909	3.4566
3.9878	3.3513
3.9847	3.2685
3.9817	3.2094
3.9786	3.1726
3.9756	3.1558
3.9725	3.1561
3.9695	3.1714
3.9665	3.2008
3.9634	3.2451
3.9604	3.306
3.9574	3.386
3.9544	3.486
3.9513	3.6049
3.9483	3.7381
3.9453	3.8788
3.9423	4.0169
3.9393	4.1429
3.9363	4.25
3.9333	4.3346
3.9304	4.3992
3.9274	4.4485
3.9244	4.489
3.9214	4.5255
3.9185	4.5612
3.9155	4.5956
3.9126	4.6281
3.9096	4.6576
3.9067	4.6842
3.9037	4.7086
3.9008	4.732
3.8979	4.7564
3.8949	4.7818
3.892	4.8081
3.8891	4.8338
3.8862	4.8572
3.8833	4.8778
3.8804	4.8947
3.8775	4.9086
3.8746	4.9211
3.8717	4.9337
3.8688	4.9481
3.8659	4.9651
3.863	4.9847
3.8601	5.0064
3.8573	5.029
3.8544	5.0519
3.8515	5.0758
3.8487	5.1027
3.8458	5.1359
3.843	5.1809
3.8401	5.2428
3.8373	5.3256
3.8344	5.4314
3.8316	5.5589
3.8288	5.7056
3.8259	5.8673
3.8231	6.0403
3.8203	6.2245
3.8175	6.4231
3.8147	6.6434
3.8119	6.8966
3.8091	7.1952
3.8063	7.5512
3.8035	7.9725
3.8007	8.4598
3.7979	9.0049
3.7951	9.5899
3.7924	10.1895
3.7896	10.7762
3.7868	11.324
3.7841	11.815
3.7813	12.2414
3.7785	12.6052
3.7758	12.9161
3.773	13.1855
3.7703	13.4242
3.7676	13.6389
3.7648	13.8309
3.7621	14.0006
3.7594	14.1473
3.7566	14.2734
3.7539	14.3832
3.7512	14.4839
3.7485	14.5832
3.7458	14.6866
3.7431	14.7966
3.7404	14.9132
3.7377	15.032
3.735	15.1481
3.7323	15.2558
3.7296	15.3507
3.7269	15.4314
3.7242	15.4979
3.7216	15.5529
3.7189	15.5987
3.7162	15.6369
3.7136	15.6684
3.7109	15.6938
3.7083	15.7127
3.7056	15.725
3.703	15.7314
3.7003	15.7338
3.6977	15.7326
3.695	15.7295
3.6924	15.7254
3.6898	15.7209
3.6872	15.7156
3.6845	15.7094
3.6819	15.701
3.6793	15.6888
3.6767	15.6709
3.6741	15.6457
3.6715	15.6125
3.6689	15.5713
3.6663	15.5235
3.6637	15.4709
3.6611	15.4153
3.6585	15.3596
3.656	15.3044
3.6534	15.2493
3.6508	15.1935
3.6482	15.1352
3.6457	15.0725
3.6431	15.005
3.6406	14.933
3.638	14.8576
3.6355	14.7801
3.6329	14.7012
3.6304	14.6203
3.6278	14.5368
3.6253	14.4492
3.6227	14.3574
3.6202	14.2607
3.6177	14.1594
3.6152	14.0535
3.6127	13.942
3.6101	13.8233
3.6076	13.6956
3.6051	13.5572
3.6026	13.4078
3.6001	13.247
3.5976	13.0745
3.5951	12.8888
3.5926	12.6871
3.5901	12.4653
3.5876	12.2203
3.5852	11.9526
3.5827	11.6691
3.5802	11.3834
3.5777	11.1133
3.5753	10.8766
3.5728	10.6849
3.5704	10.542
3.5679	10.4391
3.5654	10.3622
3.563	10.2935
3.5605	10.2182
3.5581	10.1256
3.5557	10.012
3.5532	9.8775
3.5508	9.7248
3.5484	9.5555
3.5459	9.3701
3.5435	9.1669
3.5411	8.9437
3.5387	8.6977
3.5363	8.4276
3.5338	8.1343
3.5314	7.8218
3.529	7.4979
3.5266	7.1729
3.5242	6.8597
3.5218	6.5702
3.5195	6.3137
3.5171	6.0948
3.5147	5.9137
3.5123	5.7663
3.5099	5.6463
3.5075	5.546
3.5052	5.4601
3.5028	5.3837
3.5004	5.3135
3.4981	5.2466
3.4957	5.1812
3.4934	5.1141
3.491	5.0438
3.4887	4.9704
3.4863	4.8964
3.484	4.8278
3.4816	4.7737
3.4793	4.7452
3.477	4.7519
3.4746	4.7999
3.4723	4.8897
3.47	5.0141
3.4677	5.1613
3.4653	5.3158
3.463	5.4627
3.4607	5.5915
3.4584	5.6956
3.4561	5.7738
3.4538	5.8292
3.4515	5.8669
3.4492	5.8922
3.4469	5.9104
3.4446	5.9255
3.4423	5.9396
3.44	5.9539
3.4378	5.9685
3.4355	5.9819
3.4332	5.9941
3.4309	6.0042
3.4287	6.0125
3.4264	6.0188
3.4241	6.0228
3.4219	6.0249
3.4196	6.0245
3.4174	6.0209
3.4151	6.0145
3.4129	6.0049
3.4106	5.9915
3.4084	5.9748
3.4061	5.9551
3.4039	5.9345
3.4017	5.9157
3.3994	5.9011
3.3972	5.8922
3.395	5.8883
3.3928	5.886
3.3906	5.8814
3.3883	5.8709
3.3861	5.8539
3.3839	5.8319
3.3817	5.809
3.3795	5.7893
3.3773	5.7752
3.3751	5.7658
3.3729	5.7587
3.3707	5.7496
3.3685	5.7338
3.3663	5.7082
3.3641	5.6704
3.362	5.6206
3.3598	5.5603
3.3576	5.4943
3.3554	5.4323
3.3533	5.3883
3.3511	5.3807
3.3489	5.428
3.3468	5.5455
3.3446	5.7393
3.3425	6.0027
3.3403	6.3183
3.3382	6.6605
3.336	7.0021
3.3339	7.3196
3.3317	7.5981
3.3296	7.8314
3.3274	8.0201
3.3253	8.1707
3.3232	8.2912
3.321	8.391
3.3189	8.4783
3.3168	8.5594
3.3147	8.6379
3.3126	8.7138
3.3104	8.7848
3.3083	8.8484
3.3062	8.9035
3.3041	8.9503
3.302	8.992
3.2999	9.0313
3.2978	9.0702
3.2957	9.1092
3.2936	9.1463
3.2915	9.1799
3.2894	9.2078
3.2874	9.2305
3.2853	9.2489
3.2832	9.265
3.2811	9.2803
3.279	9.2954
3.277	9.3102
3.2749	9.3241
3.2728	9.3358
3.2708	9.3447
3.2687	9.3499
3.2666	9.3518
3.2646	9.3512
3.2625	9.3485
3.2605	9.3459
3.2584	9.3447
3.2564	9.3461
3.2543	9.3499
3.2523	9.3555
3.2503	9.3595
3.2482	9.3595
3.2462	9.3525
3.2442	9.3384
3.2421	9.3181
3.2401	9.2939
3.2381	9.27
3.2361	9.2487
3.234	9.232
3.232	9.2184
3.23	9.2056
3.228	9.1903
3.226	9.1707
3.224	9.1465
3.222	9.1203
3.22	9.0954
3.218	9.075
3.216	9.0607
3.214	9.0497
3.212	9.0389
3.21	9.0243
3.208	9.0039
3.206	8.9786
3.204	8.9508
3.2021	8.9236
3.2001	8.8982
3.1981	8.8743
3.1961	8.8499
3.1942	8.8231
3.1922	8.7918
3.1902	8.7563
3.1883	8.7181
3.1863	8.6788
3.1844	8.6412
3.1824	8.6077
3.1805	8.5793
3.1785	8.5563
