Name: Green Schist 
Type:  Rocks
Class:  Metamorphic 
Subclass: Schist 
Particle Size:  0-75 Micrometer
Sample No.:   schist1.doc
Owner:  JHU
Wavelength Range:  All
Origin:  Sample No. 392, The Hunt and Salisbury Collection at the U.S. 
Geological Survey, Denver, Co.
Description: This is a medium to coarse-grained sample containing tremolite-
actinolite crystals and talc.  Amphibole is heavily altered to talc, and in addition to 
these phases there is quartz and some carbonate, as an alteration product, along 
with opaque grains.  There may be heavily altered plagioclase present in this 
sample as well.  Modes were 50.6% talc, 38% amphibole, 5.4% quartz, 3.6% 
calcite, 2.4% plagioclase remnants.   
Measurement:  Directional (10 Degree) Hemispherical Reflectance
First Column:  X
Second Column:  Y  
X Units:  Wavelength (micrometers)
Y Units:  Reflectance (percent)
First X Value: 14.9831	
Last X Value:  0.4
Number of X Values: 2868
Additional Information:  None

14.983	1.6023
14.940	1.5744
14.897	1.5841
14.854	1.6234
14.812	1.6745
14.770	1.7145
14.728	1.7306
14.686	1.7254
14.645	1.7141
14.603	1.7103
14.562	1.7190
14.521	1.7399
14.481	1.7683
14.441	1.7989
14.400	1.8282
14.361	1.8573
14.321	1.8879
14.281	1.9180
14.242	1.9426
14.203	1.9587
14.164	1.9668
14.126	1.9684
14.087	1.9670
14.049	1.9660
14.011	1.9665
13.973	1.9665
13.936	1.9632
13.899	1.9561
13.861	1.9473
13.824	1.9400
13.788	1.9390
13.751	1.9478
13.715	1.9670
13.679	1.9940
13.643	2.0243
13.607	2.0537
13.571	2.0778
13.536	2.0956
13.500	2.1072
13.465	2.1145
13.430	2.1188
13.396	2.1214
13.361	2.1219
13.327	2.1190
13.293	2.1117
13.259	2.0991
13.225	2.0811
13.191	2.0589
13.158	2.0354
13.124	2.0146
13.091	2.0006
13.058	1.9975
13.026	2.0077
12.993	2.0309
12.960	2.0646
12.928	2.1041
12.896	2.1441
12.864	2.1794
12.832	2.2064
12.800	2.2249
12.769	2.2379
12.737	2.2528
12.706	2.2789
12.675	2.3253
12.644	2.3985
12.614	2.4991
12.583	2.6223
12.552	2.7580
12.522	2.8946
12.492	3.0218
12.462	3.1335
12.432	3.2276
12.402	3.3064
12.373	3.3739
12.343	3.4343
12.314	3.4900
12.285	3.5418
12.256	3.5887
12.227	3.6292
12.198	3.6635
12.169	3.6929
12.141	3.7199
12.113	3.7476
12.084	3.7774
12.056	3.8089
12.028	3.8393
12.000	3.8639
11.973	3.8793
11.945	3.8840
11.918	3.8802
11.890	3.8722
11.863	3.8665
11.836	3.8691
11.809	3.8838
11.782	3.9096
11.755	3.9425
11.729	3.9754
11.702	4.0010
11.676	4.0138
11.650	4.0121
11.624	3.9986
11.598	3.9771
11.572	3.9527
11.546	3.9290
11.520	3.9084
11.495	3.8909
11.469	3.8764
11.444	3.8648
11.419	3.8561
11.394	3.8502
11.369	3.8464
11.344	3.8438
11.319	3.8409
11.294	3.8359
11.270	3.8265
11.245	3.8113
11.221	3.7883
11.197	3.7568
11.173	3.7171
11.149	3.6702
11.125	3.6183
11.101	3.5646
11.077	3.5127
11.054	3.4649
11.030	3.4220
11.007	3.3827
10.983	3.3438
10.960	3.3014
10.937	3.2522
10.914	3.1951
10.891	3.1324
10.868	3.0694
10.846	3.0135
10.823	2.9727
10.800	2.9533
10.778	2.9576
10.756	2.9841
10.733	3.0282
10.711	3.0831
10.689	3.1433
10.667	3.2051
10.645	3.2685
10.623	3.3344
10.602	3.4042
10.580	3.4772
10.558	3.5489
10.537	3.6145
10.516	3.6685
10.494	3.7081
10.473	3.7322
10.452	3.7436
10.431	3.7460
10.410	3.7441
10.389	3.7410
10.368	3.7403
10.348	3.7443
10.327	3.7559
10.306	3.7767
10.286	3.8082
10.266	3.8509
10.245	3.9032
10.225	3.9619
10.205	4.0228
10.185	4.0822
10.165	4.1365
10.145	4.1824
10.125	4.2186
10.106	4.2442
10.086	4.2587
10.066	4.2620
10.047	4.2544
10.027	4.2366
10.008	4.2096
9.9887	4.1736
9.9695	4.1282
9.9504	4.0720
9.9313	4.0031
9.9123	3.9195
9.8934	3.8220
9.8746	3.7130
9.8558	3.5994
9.8371	3.4902
9.8185	3.3964
9.7999	3.3282
9.7814	3.2925
9.7630	3.2903
9.7447	3.3168
9.7264	3.3618
9.7082	3.4123
9.6900	3.4556
9.6719	3.4836
9.6539	3.4923
9.6360	3.4847
9.6181	3.4653
9.6003	3.4405
9.5825	3.4144
9.5649	3.3893
9.5472	3.3659
9.5297	3.3455
9.5122	3.3296
9.4948	3.3206
9.4774	3.3209
9.4601	3.3303
9.4429	3.3476
9.4257	3.3687
9.4086	3.3891
9.3916	3.4049
9.3746	3.4151
9.3577	3.4194
9.3408	3.4194
9.3240	3.4175
9.3073	3.4156
9.2906	3.4144
9.2740	3.4135
9.2574	3.4116
9.2409	3.4064
9.2245	3.3950
9.2081	3.3751
9.1918	3.3453
9.1755	3.3055
9.1593	3.2562
9.1431	3.1999
9.1270	3.1399
9.1110	3.0805
9.0950	3.0265
9.0791	2.9829
9.0632	2.9531
9.0474	2.9389
9.0316	2.9386
9.0159	2.9495
9.0003	2.9666
8.9847	2.9862
8.9691	3.0061
8.9536	3.0270
8.9382	3.0514
8.9228	3.0831
8.9075	3.1243
8.8922	3.1759
8.8770	3.2363
8.8618	3.3017
8.8467	3.3680
8.8316	3.4310
8.8166	3.4869
8.8016	3.5333
8.7867	3.5686
8.7718	3.5932
8.7570	3.6084
8.7423	3.6150
8.7275	3.6138
8.7129	3.6043
8.6982	3.5844
8.6837	3.5520
8.6692	3.5063
8.6547	3.4487
8.6403	3.3832
8.6259	3.3145
8.6116	3.2479
8.5973	3.1868
8.5830	3.1326
8.5688	3.0857
8.5547	3.0459
8.5406	3.0135
8.5266	2.9898
8.5126	2.9768
8.4986	2.9758
8.4847	2.9881
8.4708	3.0125
8.4570	3.0469
8.4432	3.0895
8.4295	3.1378
8.4158	3.1901
8.4022	3.2460
8.3886	3.3038
8.3750	3.3623
8.3615	3.4196
8.3481	3.4743
8.3347	3.5257
8.3213	3.5745
8.3079	3.6223
8.2946	3.6711
8.2814	3.7225
8.2682	3.7765
8.2550	3.8322
8.2419	3.8876
8.2288	3.9399
8.2158	3.9875
8.2028	4.0294
8.1898	4.0657
8.1769	4.0972
8.1640	4.1258
8.1512	4.1533
8.1384	4.1812
8.1256	4.2108
8.1129	4.2435
8.1002	4.2797
8.0876	4.3212
8.0750	4.3693
8.0624	4.4259
8.0499	4.4926
8.0374	4.5696
8.0250	4.6560
8.0126	4.7496
8.0002	4.8474
7.9879	4.9457
7.9756	5.0425
7.9634	5.1368
7.9512	5.2291
7.9390	5.3210
7.9268	5.4143
7.9147	5.5100
7.9027	5.6087
7.8906	5.7099
7.8786	5.8124
7.8667	5.9154
7.8548	6.0184
7.8429	6.1224
7.8310	6.2280
7.8192	6.3372
7.8075	6.4516
7.7957	6.5728
7.7840	6.7007
7.7723	6.8338
7.7607	6.9695
7.7491	7.1052
7.7375	7.2378
7.7260	7.3662
7.7145	7.4902
7.7031	7.6110
7.6916	7.7290
7.6802	7.8440
7.6689	7.9556
7.6575	8.0629
7.6462	8.1656
7.6350	8.2656
7.6238	8.3650
7.6126	8.4671
7.6014	8.5732
7.5903	8.6829
7.5792	8.7939
7.5681	8.9031
7.5571	9.0073
7.5461	9.1046
7.5351	9.1948
7.5242	9.2784
7.5133	9.3568
7.5024	9.4310
7.4916	9.5013
7.4807	9.5681
7.4700	9.6304
7.4592	9.6877
7.4485	9.7407
7.4378	9.7904
7.4272	9.8387
7.4165	9.8885
7.4059	9.9415
7.3954	9.9981
7.3848	10.057
7.3743	10.117
7.3639	10.175
7.3534	10.229
7.3430	10.277
7.3326	10.319
7.3223	10.357
7.3119	10.392
7.3016	10.429
7.2914	10.467
7.2811	10.509
7.2709	10.551
7.2607	10.592
7.2506	10.627
7.2404	10.653
7.2303	10.670
7.2203	10.679
7.2102	10.685
7.2002	10.690
7.1902	10.699
7.1803	10.716
7.1703	10.744
7.1604	10.785
7.1506	10.841
7.1407	10.913
7.1309	10.997
7.1211	11.086
7.1113	11.172
7.1016	11.244
7.0919	11.296
7.0822	11.325
7.0725	11.335
7.0629	11.332
7.0533	11.326
7.0437	11.325
7.0341	11.332
7.0246	11.347
7.0151	11.368
7.0056	11.389
6.9962	11.409
6.9867	11.427
6.9773	11.445
6.9679	11.467
6.9586	11.495
6.9493	11.530
6.9400	11.568
6.9307	11.608
6.9214	11.647
6.9122	11.682
6.9030	11.714
6.8938	11.747
6.8847	11.786
6.8755	11.836
6.8664	11.899
6.8573	11.973
6.8483	12.056
6.8393	12.138
6.8302	12.214
6.8213	12.281
6.8123	12.340
6.8034	12.396
6.7944	12.457
6.7855	12.527
6.7767	12.610
6.7678	12.704
6.7590	12.807
6.7502	12.914
6.7414	13.023
6.7327	13.132
6.7239	13.243
6.7152	13.358
6.7065	13.479
6.6979	13.604
6.6892	13.732
6.6806	13.859
6.6720	13.981
6.6634	14.101
6.6549	14.220
6.6464	14.347
6.6378	14.488
6.6294	14.645
6.6209	14.815
6.6124	14.990
6.6040	15.161
6.5956	15.322
6.5872	15.472
6.5789	15.614
6.5705	15.753
6.5622	15.891
6.5539	16.026
6.5457	16.152
6.5374	16.262
6.5292	16.351
6.5209	16.420
6.5128	16.477
6.5046	16.533
6.4964	16.600
6.4883	16.686
6.4802	16.788
6.4721	16.897
6.4640	16.996
6.4560	17.069
6.4480	17.102
6.4399	17.097
6.4320	17.063
6.4240	17.016
6.4160	16.973
6.4081	16.941
6.4002	16.918
6.3923	16.893
6.3844	16.851
6.3766	16.783
6.3687	16.687
6.3609	16.568
6.3531	16.438
6.3454	16.308
6.3376	16.188
6.3299	16.082
6.3221	15.990
6.3144	15.910
6.3068	15.840
6.2991	15.779
6.2914	15.725
6.2838	15.677
6.2762	15.632
6.2686	15.589
6.2611	15.547
6.2535	15.508
6.2460	15.473
6.2385	15.444
6.2310	15.424
6.2235	15.411
6.2160	15.406
6.2086	15.408
6.2011	15.418
6.1937	15.439
6.1863	15.475
6.1790	15.526
6.1716	15.591
6.1643	15.665
6.1570	15.743
6.1496	15.819
6.1424	15.892
6.1351	15.962
6.1278	16.031
6.1206	16.104
6.1134	16.182
6.1062	16.264
6.0990	16.344
6.0918	16.415
6.0847	16.472
6.0776	16.514
6.0704	16.546
6.0633	16.576
6.0563	16.616
6.0492	16.671
6.0421	16.741
6.0351	16.817
6.0281	16.882
6.0211	16.924
6.0141	16.934
6.0071	16.911
6.0002	16.863
5.9932	16.799
5.9863	16.733
5.9794	16.667
5.9725	16.604
5.9657	16.542
5.9588	16.483
5.9520	16.430
5.9451	16.389
5.9383	16.369
5.9315	16.374
5.9247	16.403
5.9180	16.450
5.9112	16.509
5.9045	16.578
5.8978	16.657
5.8911	16.753
5.8844	16.868
5.8777	17.004
5.8711	17.152
5.8644	17.301
5.8578	17.436
5.8512	17.548
5.8446	17.634
5.8380	17.699
5.8314	17.754
5.8249	17.810
5.8184	17.873
5.8118	17.944
5.8053	18.016
5.7988	18.080
5.7923	18.130
5.7859	18.165
5.7794	18.191
5.7730	18.217
5.7666	18.250
5.7602	18.295
5.7538	18.349
5.7474	18.404
5.7410	18.452
5.7347	18.490
5.7283	18.514
5.7220	18.530
5.7157	18.542
5.7094	18.555
5.7031	18.573
5.6969	18.596
5.6906	18.625
5.6844	18.658
5.6782	18.694
5.6719	18.733
5.6657	18.774
5.6596	18.820
5.6534	18.875
5.6472	18.941
5.6411	19.021
5.6349	19.109
5.6288	19.196
5.6227	19.266
5.6166	19.300
5.6106	19.284
5.6045	19.208
5.5984	19.078
5.5924	18.914
5.5864	18.749
5.5804	18.626
5.5744	18.583
5.5684	18.651
5.5624	18.838
5.5564	19.134
5.5505	19.509
5.5445	19.923
5.5386	20.336
5.5327	20.716
5.5268	21.042
5.5209	21.309
5.5151	21.521
5.5092	21.689
5.5033	21.825
5.4975	21.939
5.4917	22.043
5.4859	22.147
5.4801	22.259
5.4743	22.386
5.4685	22.531
5.4628	22.693
5.4570	22.864
5.4513	23.033
5.4455	23.193
5.4398	23.336
5.4341	23.462
5.4284	23.575
5.4228	23.681
5.4171	23.784
5.4114	23.888
5.4058	23.990
5.4002	24.085
5.3945	24.168
5.3889	24.235
5.3833	24.281
5.3778	24.307
5.3722	24.317
5.3666	24.316
5.3611	24.311
5.3555	24.312
5.3500	24.327
5.3445	24.362
5.3390	24.418
5.3335	24.496
5.3280	24.590
5.3225	24.694
5.3171	24.800
5.3116	24.901
5.3062	24.992
5.3008	25.070
5.2954	25.134
5.2900	25.188
5.2846	25.238
5.2792	25.292
5.2738	25.357
5.2684	25.440
5.2631	25.547
5.2578	25.677
5.2524	25.827
5.2471	25.988
5.2418	26.151
5.2365	26.304
5.2312	26.441
5.2260	26.556
5.2207	26.649
5.2154	26.722
5.2102	26.778
5.2050	26.821
5.1998	26.852
5.1945	26.875
5.1893	26.892
5.1842	26.906
5.1790	26.922
5.1738	26.942
5.1686	26.969
5.1635	27.005
5.1584	27.052
5.1532	27.112
5.1481	27.187
5.1430	27.277
5.1379	27.381
5.1328	27.496
5.1277	27.617
5.1227	27.739
5.1176	27.858
5.1126	27.970
5.1075	28.074
5.1025	28.172
5.0975	28.263
5.0925	28.350
5.0875	28.431
5.0825	28.509
5.0775	28.583
5.0726	28.653
5.0676	28.718
5.0627	28.780
5.0577	28.838
5.0528	28.894
5.0479	28.949
5.0430	29.002
5.0380	29.056
5.0332	29.112
5.0283	29.169
5.0234	29.229
5.0185	29.291
5.0137	29.356
5.0088	29.424
5.0040	29.495
4.9992	29.568
4.9944	29.642
4.9896	29.715
4.9848	29.784
4.9800	29.847
4.9752	29.900
4.9704	29.943
4.9657	29.974
4.9609	29.995
4.9562	30.006
4.9514	30.011
4.9467	30.014
4.9420	30.017
4.9373	30.025
4.9326	30.042
4.9279	30.073
4.9232	30.119
4.9186	30.183
4.9139	30.265
4.9092	30.365
4.9046	30.478
4.9000	30.597
4.8953	30.716
4.8907	30.829
4.8861	30.928
4.8815	31.013
4.8769	31.083
4.8723	31.147
4.8678	31.214
4.8632	31.295
4.8586	31.401
4.8541	31.538
4.8495	31.710
4.8450	31.913
4.8405	32.143
4.8360	32.389
4.8315	32.644
4.8270	32.897
4.8225	33.142
4.8180	33.375
4.8135	33.594
4.8090	33.800
4.8046	33.996
4.8001	34.187
4.7957	34.379
4.7913	34.578
4.7868	34.793
4.7824	35.029
4.7780	35.290
4.7736	35.578
4.7692	35.894
4.7648	36.232
4.7605	36.588
4.7561	36.956
4.7517	37.329
4.7474	37.700
4.7431	38.067
4.7387	38.425
4.7344	38.772
4.7301	39.105
4.7258	39.421
4.7215	39.719
4.7172	39.997
4.7129	40.257
4.7086	40.500
4.7043	40.729
4.7000	40.947
4.6958	41.157
4.6915	41.361
4.6873	41.560
4.6831	41.754
4.6788	41.943
4.6746	42.127
4.6704	42.306
4.6662	42.479
4.6620	42.646
4.6578	42.809
4.6536	42.968
4.6495	43.124
4.6453	43.278
4.6411	43.431
4.6370	43.582
4.6328	43.732
4.6287	43.885
4.6246	44.041
4.6205	44.204
4.6163	44.375
4.6122	44.556
4.6081	44.748
4.6040	44.950
4.6000	45.164
4.5959	45.391
4.5918	45.632
4.5877	45.885
4.5837	46.152
4.5796	46.429
4.5756	46.713
4.5716	46.999
4.5675	47.282
4.5635	47.557
4.5595	47.821
4.5555	48.071
4.5515	48.306
4.5475	48.529
4.5435	48.743
4.5395	48.953
4.5356	49.162
4.5316	49.371
4.5276	49.581
4.5237	49.787
4.5197	49.990
4.5158	50.186
4.5119	50.376
4.5080	50.560
4.5040	50.741
4.5001	50.920
4.4962	51.096
4.4923	51.270
4.4884	51.440
4.4846	51.606
4.4807	51.768
4.4768	51.926
4.4730	52.082
4.4691	52.238
4.4652	52.394
4.4614	52.549
4.4576	52.703
4.4537	52.857
4.4499	53.009
4.4461	53.159
4.4423	53.306
4.4385	53.448
4.4347	53.584
4.4309	53.713
4.4271	53.835
4.4233	53.953
4.4196	54.066
4.4158	54.177
4.4120	54.285
4.4083	54.390
4.4045	54.493
4.4008	54.590
4.3971	54.685
4.3934	54.777
4.3896	54.867
4.3859	54.956
4.3822	55.043
4.3785	55.128
4.3748	55.209
4.3711	55.287
4.3674	55.363
4.3638	55.436
4.3601	55.508
4.3564	55.581
4.3528	55.654
4.3491	55.727
4.3455	55.799
4.3418	55.869
4.3382	55.937
4.3346	56.003
4.3310	56.067
4.3273	56.131
4.3237	56.195
4.3201	56.260
4.3165	56.326
4.3129	56.392
4.3094	56.459
4.3058	56.527
4.3022	56.594
4.2986	56.660
4.2951	56.723
4.2915	56.783
4.2880	56.837
4.2844	56.889
4.2809	56.938
4.2774	56.988
4.2738	57.039
4.2703	57.092
4.2668	57.147
4.2633	57.202
4.2598	57.255
4.2563	57.305
4.2528	57.351
4.2493	57.394
4.2458	57.436
4.2424	57.477
4.2389	57.520
4.2354	57.567
4.2320	57.617
4.2285	57.669
4.2251	57.722
4.2216	57.773
4.2182	57.822
4.2148	57.868
4.2113	57.912
4.2079	57.956
4.2045	58.001
4.2011	58.047
4.1977	58.093
4.1943	58.137
4.1909	58.178
4.1875	58.215
4.1841	58.249
4.1808	58.283
4.1774	58.317
4.1740	58.352
4.1707	58.389
4.1673	58.426
4.1640	58.461
4.1606	58.493
4.1573	58.522
4.1540	58.550
4.1506	58.578
4.1473	58.607
4.1440	58.636
4.1407	58.664
4.1374	58.689
4.1341	58.709
4.1308	58.723
4.1275	58.735
4.1242	58.743
4.1209	58.752
4.1177	58.761
4.1144	58.770
4.1111	58.780
4.1079	58.787
4.1046	58.792
4.1014	58.793
4.0981	58.791
4.0949	58.785
4.0917	58.776
4.0884	58.764
4.0852	58.749
4.0820	58.731
4.0788	58.710
4.0756	58.686
4.0724	58.659
4.0692	58.629
4.0660	58.593
4.0628	58.549
4.0596	58.491
4.0565	58.415
4.0533	58.314
4.0501	58.185
4.0470	58.025
4.0438	57.837
4.0406	57.624
4.0375	57.392
4.0344	57.149
4.0312	56.900
4.0281	56.648
4.0250	56.390
4.0218	56.116
4.0187	55.814
4.0156	55.470
4.0125	55.073
4.0094	54.620
4.0063	54.119
4.0032	53.585
4.0001	53.043
3.9970	52.520
3.9940	52.044
3.9909	51.639
3.9878	51.324
3.9847	51.107
3.9817	50.991
3.9786	50.966
3.9756	51.019
3.9725	51.138
3.9695	51.310
3.9665	51.531
3.9634	51.801
3.9604	52.121
3.9574	52.494
3.9544	52.915
3.9513	53.370
3.9483	53.838
3.9453	54.291
3.9423	54.697
3.9393	55.035
3.9363	55.292
3.9333	55.473
3.9304	55.593
3.9274	55.673
3.9244	55.734
3.9214	55.789
3.9185	55.844
3.9155	55.899
3.9126	55.949
3.9096	55.993
3.9067	56.027
3.9037	56.054
3.9008	56.074
3.8979	56.090
3.8949	56.104
3.8920	56.116
3.8891	56.127
3.8862	56.137
3.8833	56.146
3.8804	56.154
3.8775	56.159
3.8746	56.160
3.8717	56.160
3.8688	56.157
3.8659	56.153
3.8630	56.151
3.8601	56.151
3.8573	56.153
3.8544	56.159
3.8515	56.171
3.8487	56.190
3.8458	56.223
3.8430	56.273
3.8401	56.344
3.8373	56.437
3.8344	56.549
3.8316	56.672
3.8288	56.799
3.8259	56.925
3.8231	57.046
3.8203	57.161
3.8175	57.271
3.8147	57.376
3.8119	57.479
3.8091	57.578
3.8063	57.676
3.8035	57.771
3.8007	57.864
3.7979	57.953
3.7951	58.033
3.7924	58.102
3.7896	58.155
3.7868	58.190
3.7841	58.207
3.7813	58.209
3.7785	58.201
3.7758	58.187
3.7730	58.169
3.7703	58.149
3.7676	58.124
3.7648	58.094
3.7621	58.058
3.7594	58.017
3.7566	57.975
3.7539	57.932
3.7512	57.893
3.7485	57.857
3.7458	57.823
3.7431	57.789
3.7404	57.754
3.7377	57.718
3.7350	57.679
3.7323	57.640
3.7296	57.601
3.7269	57.561
3.7242	57.519
3.7216	57.473
3.7189	57.423
3.7162	57.368
3.7136	57.310
3.7109	57.252
3.7083	57.195
3.7056	57.143
3.7030	57.096
3.7003	57.054
3.6977	57.015
3.6950	56.979
3.6924	56.944
3.6898	56.908
3.6872	56.869
3.6845	56.827
3.6819	56.781
3.6793	56.729
3.6767	56.674
3.6741	56.615
3.6715	56.554
3.6689	56.493
3.6663	56.432
3.6637	56.371
3.6611	56.309
3.6585	56.245
3.6560	56.180
3.6534	56.112
3.6508	56.041
3.6482	55.969
3.6457	55.897
3.6431	55.824
3.6406	55.751
3.6380	55.679
3.6355	55.607
3.6329	55.534
3.6304	55.459
3.6278	55.382
3.6253	55.303
3.6227	55.224
3.6202	55.147
3.6177	55.072
3.6152	55.002
3.6127	54.933
3.6101	54.862
3.6076	54.787
3.6051	54.708
3.6026	54.623
3.6001	54.536
3.5976	54.449
3.5951	54.361
3.5926	54.269
3.5901	54.171
3.5876	54.063
3.5852	53.944
3.5827	53.816
3.5802	53.685
3.5777	53.557
3.5753	53.437
3.5728	53.328
3.5704	53.230
3.5679	53.139
3.5654	53.055
3.5630	52.972
3.5605	52.889
3.5581	52.803
3.5557	52.714
3.5532	52.619
3.5508	52.519
3.5484	52.412
3.5459	52.297
3.5435	52.174
3.5411	52.042
3.5387	51.901
3.5363	51.746
3.5338	51.574
3.5314	51.379
3.5290	51.158
3.5266	50.912
3.5242	50.644
3.5218	50.365
3.5195	50.084
3.5171	49.811
3.5147	49.554
3.5123	49.316
3.5099	49.096
3.5075	48.891
3.5052	48.698
3.5028	48.513
3.5004	48.335
3.4981	48.163
3.4957	47.996
3.4934	47.830
3.4910	47.665
3.4887	47.499
3.4863	47.337
3.4840	47.187
3.4816	47.062
3.4793	46.979
3.4770	46.949
3.4746	46.978
3.4723	47.062
3.4700	47.185
3.4677	47.324
3.4653	47.457
3.4630	47.560
3.4607	47.623
3.4584	47.640
3.4561	47.617
3.4538	47.562
3.4515	47.489
3.4492	47.406
3.4469	47.321
3.4446	47.238
3.4423	47.157
3.4400	47.075
3.4378	46.990
3.4355	46.897
3.4332	46.792
3.4309	46.675
3.4287	46.547
3.4264	46.411
3.4241	46.273
3.4219	46.139
3.4196	46.015
3.4174	45.903
3.4151	45.802
3.4129	45.710
3.4106	45.624
3.4084	45.539
3.4061	45.453
3.4039	45.364
3.4017	45.271
3.3994	45.174
3.3972	45.073
3.3950	44.967
3.3928	44.856
3.3906	44.738
3.3883	44.616
3.3861	44.489
3.3839	44.360
3.3817	44.232
3.3795	44.107
3.3773	43.985
3.3751	43.863
3.3729	43.738
3.3707	43.606
3.3685	43.463
3.3663	43.306
3.3641	43.137
3.3620	42.957
3.3598	42.773
3.3576	42.593
3.3554	42.426
3.3533	42.286
3.3511	42.184
3.3489	42.127
3.3468	42.117
3.3446	42.146
3.3425	42.201
3.3403	42.264
3.3382	42.315
3.3360	42.343
3.3339	42.338
3.3317	42.299
3.3296	42.229
3.3274	42.134
3.3253	42.019
3.3232	41.891
3.3210	41.754
3.3189	41.614
3.3168	41.475
3.3147	41.338
3.3126	41.204
3.3104	41.072
3.3083	40.940
3.3062	40.806
3.3041	40.670
3.3020	40.532
3.2999	40.395
3.2978	40.260
3.2957	40.126
3.2936	39.994
3.2915	39.862
3.2894	39.728
3.2874	39.591
3.2853	39.455
3.2832	39.321
3.2811	39.192
3.2790	39.069
3.2770	38.951
3.2749	38.834
3.2728	38.714
3.2708	38.587
3.2687	38.453
3.2666	38.312
3.2646	38.168
3.2625	38.024
3.2605	37.881
3.2584	37.737
3.2564	37.591
3.2543	37.438
3.2523	37.275
3.2503	37.103
3.2482	36.922
3.2462	36.738
3.2442	36.554
3.2421	36.371
3.2401	36.188
3.2381	36.003
3.2361	35.811
3.2340	35.609
3.2320	35.395
3.2300	35.171
3.2280	34.940
3.2260	34.704
3.2240	34.470
3.2220	34.237
3.2200	34.008
3.2180	33.781
