Name: Basaltic Andesite
Type: Rocks
Class: Igneous
Subclass: Intermediate
Particle Size: Solid
Sample No.: Andesite.H4
Owner: JHU
Wavelength range: All
Origin: Agrigan Volcano, Mariana Is., via Smithsonian (Cat. No: NMNH 
115263-19)
Description: A dark gray, porphyritic and vuggy rock. The phenocrysts are 
plagioclase laths, orangish-yellow olivine and opaques.




Measurement: Directional (10 degree) hemispherical reflectance
First Column: X
Second Column: Y
X Units: Wavelength (micrometers)
Y Units: Reflectance (percent)
First X Value: 14.0112
Last X Value: 0.4000
Number of X Values: 2844
Additional information: andesi4a.txt

14.0112	0.9750
13.9734	1.1927
13.9359	0.6921
13.8985	1.2518
13.8614	2.2366
13.8244	1.8084
13.7876	1.0706
13.7511	1.7569
13.7147	1.8543
13.6785	1.5717
13.6425	1.7398
13.6067	2.1434
13.5711	2.6049
13.5356	2.1108
13.5004	1.8904
13.4653	1.9678
13.4304	1.6764
13.3957	1.6097
13.3612	1.8073
13.3269	1.7859
13.2927	1.7958
13.2587	1.8631
13.2249	1.7686
13.1912	1.9971
13.1577	2.2047
13.1244	2.2551
13.0913	2.0044
13.0583	1.7437
13.0255	1.9592
12.9929	2.0264
12.9604	2.1855
12.9281	2.1237
12.8959	2.0660
12.8639	2.1169
12.8321	2.1588
12.8004	2.1649
12.7688	2.2418
12.7375	2.2319
12.7063	2.1241
12.6752	2.2818
12.6443	2.5195
12.6135	2.5784
12.5829	2.5800
12.5524	2.6238
12.5221	2.5948
12.4919	2.5767
12.4619	2.6452
12.4320	2.7106
12.4023	2.7464
12.3727	2.8542
12.3432	3.0112
12.3139	3.1491
12.2847	3.2501
12.2557	3.3251
12.2268	3.3349
12.1980	3.4151
12.1694	3.5696
12.1409	3.6883
12.1125	3.8151
12.0843	3.8538
12.0562	3.8660
12.0282	4.0453
12.0003	4.2063
11.9726	4.1826
11.9450	4.2670
11.9176	4.4145
11.8903	4.4808
11.8631	4.5119
11.8360	4.6064
11.8090	4.7028
11.7822	4.7519
11.7555	4.9055
11.7289	5.0880
11.7024	5.1778
11.6760	5.2350
11.6498	5.3423
11.6237	5.4652
11.5977	5.6147
11.5718	5.7445
11.5460	5.8650
11.5203	5.9257
11.4948	5.9972
11.4694	6.1685
11.4440	6.3553
11.4188	6.5367
11.3937	6.6656
11.3688	6.7781
11.3439	6.9686
11.3191	7.1498
11.2944	7.3090
11.2699	7.4629
11.2455	7.6478
11.2211	7.8255
11.1969	8.0413
11.1727	8.2514
11.1487	8.3587
11.1248	8.4919
11.1010	8.6198
11.0773	8.7501
11.0536	8.8709
11.0301	8.9995
11.0067	9.1399
10.9834	9.2784
10.9602	9.4439
10.9370	9.6148
10.9140	9.7540
10.8911	9.8508
10.8682	9.9778
10.8455	10.0880
10.8229	10.2307
10.8003	10.3413
10.7779	10.4046
10.7555	10.4148
10.7332	10.4700
10.7111	10.5180
10.6890	10.5145
10.6670	10.5420
10.6451	10.5764
10.6233	10.5537
10.6015	10.5133
10.5799	10.5255
10.5584	10.5288
10.5369	10.5114
10.5155	10.4628
10.4942	10.4114
10.4730	10.3760
10.4519	10.3548
10.4309	10.2764
10.4099	10.1711
10.3891	10.1224
10.3683	10.0033
10.3476	9.8870
10.3270	9.7641
10.3065	9.6748
10.2860	9.5810
10.2656	9.4842
10.2454	9.4070
10.2251	9.4008
10.2050	9.4282
10.1850	9.3670
10.1650	9.3506
10.1451	9.4036
10.1253	9.4446
10.1056	9.4945
10.0859	9.5296
10.0663	9.5506
10.0468	9.5662
10.0274	9.5798
10.0080	9.5704
9.9887	9.5610
9.9695	9.5512
9.9504	9.5121
9.9313	9.5100
9.9123	9.4891
9.8934	9.4847
9.8746	9.4584
9.8558	9.4418
9.8371	9.4884
9.8185	9.5125
9.7999	9.4924
9.7814	9.4725
9.7630	9.4568
9.7447	9.4340
9.7264	9.3548
9.7082	9.2870
9.6900	9.1807
9.6719	9.2168
9.6539	9.1244
9.6360	8.8753
9.6181	8.7391
9.6003	8.6369
9.5825	8.5514
9.5649	8.4787
9.5472	8.3313
9.5297	8.1872
9.5122	8.1070
9.4948	8.0217
9.4774	7.9397
9.4601	7.8806
9.4429	7.8349
9.4257	7.7932
9.4086	7.7545
9.3916	7.7480
9.3746	7.7559
9.3577	7.7317
9.3408	7.7132
9.3240	7.7343
9.3073	7.8288
9.2906	7.9106
9.2740	7.9474
9.2574	8.0564
9.2409	8.2186
9.2245	8.3189
9.2081	8.3714
9.1918	8.4340
9.1755	8.5919
9.1593	8.7197
9.1431	8.7971
9.1270	8.8938
9.1110	8.9831
9.0950	9.0436
9.0791	9.0771
9.0632	9.1390
9.0474	9.2369
9.0316	9.2704
9.0159	9.2651
9.0003	9.2758
8.9847	9.3010
8.9691	9.2948
8.9536	9.2721
8.9382	9.2529
8.9228	9.1837
8.9075	9.1343
8.8922	9.0855
8.8770	9.0206
8.8618	8.9672
8.8467	8.9194
8.8316	8.8282
8.8166	8.7042
8.8016	8.6343
8.7867	8.5912
8.7718	8.5387
8.7570	8.4916
8.7422	8.4122
8.7275	8.2990
8.7129	8.2085
8.6982	8.1644
8.6837	8.1389
8.6692	8.1454
8.6547	8.1208
8.6403	8.0815
8.6259	8.0283
8.6116	7.9802
8.5973	7.9301
8.5830	7.8494
8.5688	7.7364
8.5547	7.6324
8.5406	7.5215
8.5266	7.4454
8.5126	7.4210
8.4986	7.3212
8.4847	7.2129
8.4708	7.1304
8.4570	7.0314
8.4432	6.9232
8.4295	6.7786
8.4158	6.5850
8.4022	6.3992
8.3886	6.2330
8.3750	6.1078
8.3615	6.0971
8.3481	5.9506
8.3347	5.7059
8.3213	5.5207
8.3079	5.3171
8.2946	5.1447
8.2814	4.9439
8.2682	4.7367
8.2550	4.5115
8.2419	4.3017
8.2288	4.1290
8.2158	3.9785
8.2028	3.8364
8.1898	3.6984
8.1769	3.5449
8.1640	3.4117
8.1512	3.2847
8.1384	3.1714
8.1256	3.0649
8.1129	2.9751
8.1002	2.9081
8.0876	2.8242
8.0750	2.7522
8.0624	2.7065
8.0499	2.6578
8.0374	2.5976
8.0250	2.5680
8.0126	2.5542
8.0002	2.5076
7.9879	2.4548
7.9756	2.4755
7.9634	2.4832
7.9512	2.4516
7.9390	2.4426
7.9268	2.4171
7.9147	2.3977
7.9027	2.3834
7.8906	2.3704
7.8786	2.3508
7.8667	2.3447
7.8548	2.3076
7.8429	2.2714
7.8310	2.2549
7.8192	2.2428
7.8075	2.2332
7.7957	2.2127
7.7840	2.1839
7.7723	2.1802
7.7607	2.1569
7.7491	2.1228
7.7375	2.1283
7.7260	2.1136
7.7145	2.0964
7.7031	2.1018
7.6916	2.1039
7.6802	2.0841
7.6689	2.0341
7.6575	2.0733
7.6462	2.1115
7.6350	2.1016
7.6238	2.1016
7.6126	2.1182
7.6014	2.1436
7.5903	2.1492
7.5792	2.1436
7.5681	2.1216
7.5571	2.1190
7.5461	2.1260
7.5351	2.1232
7.5242	2.1150
7.5133	2.1377
7.5024	2.1400
7.4916	2.1286
7.4807	2.1351
7.4700	2.1712
7.4592	2.1572
7.4485	2.1398
7.4378	2.1509
7.4272	2.1682
7.4165	2.1649
7.4059	2.1663
7.3954	2.1844
7.3848	2.1977
7.3743	2.2193
7.3639	2.2184
7.3534	2.1745
7.3430	2.2111
7.3326	2.2701
7.3223	2.2652
7.3119	2.2764
7.3016	2.2873
7.2914	2.3078
7.2811	2.3367
7.2709	2.3367
7.2607	2.3283
7.2506	2.3503
7.2404	2.3550
7.2303	2.3653
7.2203	2.3796
7.2102	2.3883
7.2002	2.4091
7.1902	2.4328
7.1803	2.4410
7.1703	2.4349
7.1604	2.4317
7.1506	2.4382
7.1407	2.4335
7.1309	2.4457
7.1211	2.4553
7.1113	2.4636
7.1016	2.4612
7.0919	2.4940
7.0822	2.5249
7.0725	2.5008
7.0629	2.4984
7.0533	2.5085
7.0437	2.5104
7.0341	2.5319
7.0246	2.5556
7.0151	2.5517
7.0056	2.5685
6.9962	2.5735
6.9867	2.5680
6.9773	2.5922
6.9679	2.5906
6.9586	2.5594
6.9493	2.5275
6.9400	2.5408
6.9307	2.5512
6.9214	2.5525
6.9122	2.5716
6.9030	2.5886
6.8938	2.5957
6.8847	2.5880
6.8755	2.5786
6.8664	2.5961
6.8573	2.5898
6.8483	2.6016
6.8393	2.6151
6.8302	2.6109
6.8213	2.6062
6.8123	2.5758
6.8034	2.5411
6.7944	2.5540
6.7855	2.5688
6.7767	2.5818
6.7678	2.6013
6.7590	2.6297
6.7502	2.6433
6.7414	2.6433
6.7327	2.6522
6.7239	2.6733
6.7152	2.6850
6.7065	2.6969
6.6979	2.7143
6.6892	2.7007
6.6806	2.6838
6.6720	2.6922
6.6634	2.6662
6.6549	2.6208
6.6464	2.6154
6.6378	2.6294
6.6294	2.6459
6.6209	2.6395
6.6124	2.6463
6.6040	2.6629
6.5956	2.6618
6.5872	2.6470
6.5789	2.6632
6.5705	2.6789
6.5622	2.6717
6.5539	2.6873
6.5456	2.7180
6.5374	2.7445
6.5292	2.7276
6.5209	2.7319
6.5128	2.7368
6.5046	2.7267
6.4964	2.7375
6.4883	2.7278
6.4802	2.7119
6.4721	2.7415
6.4640	2.7314
6.4560	2.7180
6.4480	2.7150
6.4399	2.7166
6.4320	2.7302
6.4240	2.7457
6.4160	2.7616
6.4081	2.7612
6.4002	2.7564
6.3923	2.7729
6.3844	2.7804
6.3766	2.7780
6.3687	2.7994
6.3609	2.7998
6.3531	2.7736
6.3454	2.7657
6.3376	2.7727
6.3299	2.7682
6.3221	2.7689
6.3144	2.7846
6.3068	2.7556
6.2991	2.7644
6.2914	2.7878
6.2838	2.7769
6.2762	2.7631
6.2686	2.7514
6.2611	2.7333
6.2535	2.7405
6.2460	2.7581
6.2385	2.7551
6.2310	2.7464
6.2235	2.7511
6.2160	2.7431
6.2086	2.7218
6.2011	2.7112
6.1937	2.7286
6.1863	2.7539
6.1790	2.7434
6.1716	2.7408
6.1643	2.7546
6.1570	2.7660
6.1496	2.7522
6.1424	2.7478
6.1351	2.7776
6.1278	2.8036
6.1206	2.7972
6.1134	2.7804
6.1062	2.8052
6.0990	2.8200
6.0918	2.8106
6.0847	2.8324
6.0776	2.8558
6.0704	2.8572
6.0633	2.8453
6.0563	2.8413
6.0492	2.8470
6.0421	2.8462
6.0351	2.8353
6.0281	2.8397
6.0211	2.8504
6.0141	2.8530
6.0071	2.8680
6.0002	2.8903
5.9932	2.8992
5.9863	2.8906
5.9794	2.8610
5.9725	2.8746
5.9657	2.9098
5.9588	2.9238
5.9520	2.9314
5.9451	2.9356
5.9383	2.9367
5.9315	2.9200
5.9247	2.9414
5.9180	2.9649
5.9112	2.9972
5.9045	3.0270
5.8978	3.0012
5.8911	3.0068
5.8844	3.0668
5.8777	3.0710
5.8711	3.0628
5.8644	3.0717
5.8578	3.0832
5.8512	3.0867
5.8446	3.0867
5.8380	3.0998
5.8314	3.1163
5.8249	3.1336
5.8184	3.1436
5.8118	3.1525
5.8053	3.1706
5.7988	3.1621
5.7923	3.1483
5.7859	3.1652
5.7794	3.1769
5.7730	3.1908
5.7666	3.1863
5.7602	3.1823
5.7538	3.1877
5.7474	3.1915
5.7410	3.2078
5.7347	3.2372
5.7283	3.2634
5.7220	3.2758
5.7157	3.2698
5.7094	3.2702
5.7031	3.2909
5.6969	3.3190
5.6906	3.3403
5.6844	3.3473
5.6782	3.3820
5.6719	3.3954
5.6657	3.3839
5.6596	3.3914
5.6534	3.4210
5.6472	3.4356
5.6411	3.4263
5.6349	3.4076
5.6288	3.4280
5.6227	3.4577
5.6166	3.4699
5.6106	3.4746
5.6045	3.4722
5.5984	3.4844
5.5924	3.5172
5.5864	3.5205
5.5804	3.5057
5.5744	3.5023
5.5684	3.5322
5.5624	3.5491
5.5564	3.5498
5.5505	3.5651
5.5445	3.5948
5.5386	3.6070
5.5327	3.5878
5.5268	3.5824
5.5209	3.5963
5.5151	3.6166
5.5092	3.6148
5.5033	3.6002
5.4975	3.6084
5.4917	3.6347
5.4859	3.6682
5.4801	3.6771
5.4743	3.6857
5.4685	3.6867
5.4628	3.6715
5.4570	3.6698
5.4513	3.6876
5.4455	3.6971
5.4398	3.6823
5.4341	3.6816
5.4284	3.7068
5.4228	3.7156
5.4171	3.7062
5.4114	3.7169
5.4058	3.7193
5.4002	3.7068
5.3945	3.7236
5.3889	3.7282
5.3833	3.7247
5.3778	3.7312
5.3722	3.7441
5.3666	3.7380
5.3611	3.7322
5.3555	3.7355
5.3500	3.7390
5.3445	3.7566
5.3390	3.7805
5.3335	3.7873
5.3280	3.7776
5.3225	3.7720
5.3171	3.7903
5.3116	3.8065
5.3062	3.8083
5.3008	3.8264
5.2954	3.8639
5.2900	3.8728
5.2846	3.8850
5.2792	3.8939
5.2738	3.8826
5.2684	3.8972
5.2631	3.9293
5.2578	3.9434
5.2524	3.9660
5.2471	3.9797
5.2418	4.0075
5.2365	4.0356
5.2312	4.0470
5.2260	4.0514
5.2207	4.0675
5.2154	4.0769
5.2102	4.0856
5.2050	4.0955
5.1998	4.1236
5.1945	4.1496
5.1893	4.1489
5.1842	4.1559
5.1790	4.1676
5.1738	4.1747
5.1686	4.1883
5.1635	4.2060
5.1584	4.2176
5.1532	4.2241
5.1481	4.2361
5.1430	4.2595
5.1379	4.2698
5.1328	4.2612
5.1277	4.2872
5.1227	4.3176
5.1176	4.3348
5.1126	4.3216
5.1075	4.3259
5.1025	4.3701
5.0975	4.3816
5.0925	4.3847
5.0875	4.3898
5.0825	4.4145
5.0775	4.4171
5.0726	4.4044
5.0676	4.4036
5.0627	4.4236
5.0577	4.4414
5.0528	4.4449
5.0479	4.4414
5.0430	4.4463
5.0380	4.4670
5.0332	4.4909
5.0283	4.5084
5.0234	4.5106
5.0185	4.5161
5.0137	4.5239
5.0088	4.5488
5.0040	4.5579
4.9992	4.5516
4.9944	4.5703
4.9896	4.6073
4.9848	4.6099
4.9800	4.6139
4.9752	4.6364
4.9704	4.6634
4.9657	4.6542
4.9609	4.6486
4.9562	4.6643
4.9514	4.6901
4.9467	4.7184
4.9420	4.7182
4.9373	4.7133
4.9326	4.7294
4.9279	4.7691
4.9232	4.7960
4.9186	4.8035
4.9139	4.8133
4.9092	4.8337
4.9046	4.8490
4.9000	4.8876
4.8953	4.8966
4.8907	4.8989
4.8861	4.9148
4.8815	4.9282
4.8769	4.9376
4.8723	4.9582
4.8678	4.9865
4.8632	4.9889
4.8586	4.9753
4.8541	4.9818
4.8495	5.0088
4.8450	5.0271
4.8405	5.0384
4.8360	5.0480
4.8315	5.0608
4.8270	5.0665
4.8225	5.0686
4.8180	5.0728
4.8135	5.0847
4.8090	5.0878
4.8046	5.1002
4.8001	5.1091
4.7957	5.1272
4.7913	5.1691
4.7868	5.1895
4.7824	5.1665
4.7780	5.1602
4.7736	5.1694
4.7692	5.1790
4.7648	5.1924
4.7605	5.1961
4.7561	5.2275
4.7517	5.2385
4.7474	5.2195
4.7431	5.2268
4.7387	5.2434
4.7344	5.2610
4.7301	5.2933
4.7258	5.2894
4.7215	5.2807
4.7172	5.3137
4.7129	5.3452
4.7086	5.3529
4.7043	5.3779
4.7000	5.3782
4.6958	5.3725
4.6915	5.3655
4.6873	5.3735
4.6831	5.4208
4.6788	5.4368
4.6746	5.4145
4.6704	5.4129
4.6662	5.4312
4.6620	5.4483
4.6578	5.4614
4.6536	5.4652
4.6495	5.4844
4.6453	5.5109
4.6411	5.5423
4.6370	5.5571
4.6328	5.5608
4.6287	5.5716
4.6246	5.5896
4.6205	5.5917
4.6163	5.6072
4.6122	5.6367
4.6081	5.6416
4.6040	5.6594
4.6000	5.6894
4.5959	5.6896
4.5918	5.6772
4.5877	5.7023
4.5837	5.7309
4.5796	5.7426
4.5756	5.7564
4.5716	5.7761
4.5675	5.7753
4.5635	5.7714
4.5595	5.7940
4.5555	5.7989
4.5515	5.8020
4.5475	5.8314
4.5435	5.8397
4.5395	5.8350
4.5356	5.8537
4.5316	5.8860
4.5276	5.8999
4.5237	5.8971
4.5197	5.9060
4.5158	5.9221
4.5119	5.9296
4.5080	5.9243
4.5040	5.9519
4.5001	5.9751
4.4962	5.9644
4.4923	5.9465
4.4884	5.9691
4.4846	5.9784
4.4807	6.0016
4.4768	6.0164
4.4730	6.0093
4.4691	6.0194
4.4652	6.0281
4.4614	6.0164
4.4576	6.0270
4.4537	6.0560
4.4499	6.0612
4.4461	6.0506
4.4423	6.0605
4.4385	6.0618
4.4347	6.0790
4.4309	6.1021
4.4271	6.1052
4.4233	6.1043
4.4196	6.1031
4.4158	6.0963
4.4120	6.1143
4.4083	6.1317
4.4045	6.1324
4.4008	6.1397
4.3971	6.1397
4.3934	6.1329
4.3896	6.1449
4.3859	6.1624
4.3822	6.1739
4.3785	6.1751
4.3748	6.1917
4.3711	6.2013
4.3674	6.2013
4.3638	6.2198
4.3601	6.2224
4.3564	6.2121
4.3528	6.2317
4.3491	6.2678
4.3455	6.2625
4.3418	6.2470
4.3382	6.2676
4.3346	6.2969
4.3310	6.3077
4.3273	6.3129
4.3237	6.3106
4.3201	6.3330
4.3165	6.3488
4.3129	6.3429
4.3094	6.3537
4.3058	6.3569
4.3022	6.3764
4.2986	6.3839
4.2951	6.3909
4.2915	6.4172
4.2880	6.4282
4.2844	6.4104
4.2809	6.4104
4.2774	6.4263
4.2738	6.4397
4.2703	6.4429
4.2668	6.4620
4.2633	6.4849
4.2598	6.5032
4.2563	6.4948
4.2528	6.5025
4.2493	6.5133
4.2458	6.5203
4.2424	6.5416
4.2389	6.5423
4.2354	6.5486
4.2320	6.5553
4.2285	6.5660
4.2251	6.5667
4.2216	6.5452
4.2182	6.5564
4.2148	6.5772
4.2113	6.5871
4.2079	6.5838
4.2045	6.5850
4.2011	6.5916
4.1977	6.5901
4.1943	6.6044
4.1909	6.6070
4.1875	6.5974
4.1841	6.6110
4.1808	6.6345
4.1774	6.6302
4.1740	6.6143
4.1707	6.6206
4.1673	6.6270
4.1640	6.6330
4.1606	6.6309
4.1573	6.6361
4.1540	6.6501
4.1506	6.6496
4.1473	6.6635
4.1440	6.6888
4.1407	6.6740
4.1374	6.6612
4.1341	6.6764
4.1308	6.6902
4.1275	6.6761
4.1242	6.6717
4.1209	6.6735
4.1177	6.6818
4.1144	6.6849
4.1111	6.6919
4.1079	6.6870
4.1046	6.6974
4.1014	6.7106
4.0981	6.7146
4.0949	6.7024
4.0917	6.6968
4.0884	6.6974
4.0852	6.7184
4.0820	6.7286
4.0788	6.7322
4.0756	6.7184
4.0724	6.6935
4.0692	6.7148
4.0660	6.7286
4.0628	6.7413
4.0596	6.7498
4.0565	6.7387
4.0533	6.7376
4.0501	6.7470
4.0470	6.7509
4.0438	6.7600
4.0406	6.7556
4.0375	6.7371
4.0344	6.7457
4.0312	6.7696
4.0281	6.7605
4.0250	6.7657
4.0218	6.7873
4.0187	6.7709
4.0156	6.7629
4.0125	6.7683
4.0094	6.7816
4.0063	6.7821
4.0032	6.7716
4.0001	6.7730
3.9970	6.7908
3.9940	6.7945
3.9909	6.7859
3.9878	6.7748
3.9847	6.7603
3.9817	6.7739
3.9786	6.7982
3.9756	6.7914
3.9725	6.7849
3.9695	6.7999
3.9665	6.7835
3.9634	6.7854
3.9604	6.8147
3.9574	6.8130
3.9544	6.8039
3.9513	6.7994
3.9483	6.7955
3.9453	6.7992
3.9423	6.8369
3.9393	6.8283
3.9363	6.8008
3.9333	6.8055
3.9304	6.8132
3.9274	6.8273
3.9244	6.8386
3.9214	6.8322
3.9185	6.8435
3.9155	6.8374
3.9126	6.8259
3.9096	6.8273
3.9067	6.8475
3.9037	6.8473
3.9008	6.8512
3.8979	6.8555
3.8949	6.8611
3.8920	6.8498
3.8891	6.8477
3.8862	6.8615
3.8833	6.8913
3.8804	6.8997
3.8775	6.8800
3.8746	6.8618
3.8717	6.8753
3.8688	6.8831
3.8659	6.8686
3.8630	6.8548
3.8601	6.8691
3.8573	6.8662
3.8544	6.8618
3.8515	6.8787
3.8487	6.8792
3.8458	6.8913
3.8430	6.8911
3.8401	6.8951
3.8373	6.8997
3.8344	6.8969
3.8316	6.8758
3.8288	6.8749
3.8259	6.8805
3.8231	6.8974
3.8203	6.9156
3.8175	6.9202
3.8147	6.9143
3.8119	6.9063
3.8091	6.9288
3.8063	6.9307
3.8035	6.9309
3.8007	6.9431
3.7979	6.9255
3.7951	6.9072
3.7924	6.9194
3.7896	6.9283
3.7868	6.9405
3.7841	6.9483
3.7813	6.9420
3.7785	6.9309
3.7758	6.9371
3.7730	6.9293
3.7703	6.9255
3.7676	6.9621
3.7648	6.9581
3.7621	6.9236
3.7594	6.9475
3.7566	6.9590
3.7539	6.9471
3.7512	6.9567
3.7485	6.9766
3.7458	6.9755
3.7431	6.9701
3.7404	6.9748
3.7377	6.9787
3.7350	6.9581
3.7323	6.9478
3.7296	6.9564
3.7269	6.9717
3.7242	6.9878
3.7216	6.9878
3.7189	6.9771
3.7162	6.9745
3.7136	6.9675
3.7109	6.9597
3.7083	6.9756
3.7056	6.9872
3.7030	6.9886
3.7003	6.9712
3.6977	6.9647
3.6950	6.9839
3.6924	6.9925
3.6898	6.9828
3.6872	6.9656
3.6845	6.9755
3.6819	6.9932
3.6793	6.9940
3.6767	6.9712
3.6741	6.9804
3.6715	6.9881
3.6689	6.9872
3.6663	6.9832
3.6637	6.9878
3.6611	6.9928
3.6585	6.9764
3.6560	6.9686
3.6534	6.9698
3.6508	6.9665
3.6482	6.9895
3.6457	7.0008
3.6431	7.0036
3.6406	7.0184
3.6380	7.0130
3.6355	6.9972
3.6329	6.9928
3.6304	6.9919
3.6278	7.0052
3.6253	6.9992
3.6227	6.9972
3.6202	7.0045
3.6177	6.9979
3.6152	7.0059
3.6127	7.0134
3.6101	7.0104
3.6076	7.0125
3.6051	7.0000
3.6026	7.0008
3.6001	7.0213
3.5976	7.0332
3.5951	7.0155
3.5926	6.9963
3.5901	6.9886
3.5876	6.9919
3.5852	6.9904
3.5827	7.0071
3.5802	7.0333
3.5777	7.0071
3.5753	6.9888
3.5728	7.0029
3.5704	7.0195
3.5679	7.0306
3.5654	7.0090
3.5630	7.0092
3.5605	7.0054
3.5581	7.0047
3.5557	7.0249
3.5532	7.0289
3.5508	7.0120
3.5484	6.9883
3.5459	6.9792
3.5435	6.9862
3.5411	6.9693
3.5387	6.9530
3.5363	6.9480
3.5338	6.9501
3.5314	6.9438
3.5290	6.9447
3.5266	6.9291
3.5242	6.9150
3.5218	6.9103
3.5195	6.8988
3.5171	6.8704
3.5147	6.8285
3.5123	6.7662
3.5099	6.7371
3.5075	6.7270
3.5052	6.7139
3.5028	6.7064
3.5004	6.7029
3.4981	6.7078
3.4957	6.7054
3.4934	6.6945
3.4910	6.6846
3.4887	6.6733
3.4863	6.6691
3.4840	6.6654
3.4816	6.6501
3.4793	6.6719
3.4770	6.6940
3.4746	6.6956
3.4723	6.7101
3.4700	6.7148
3.4677	6.7218
3.4653	6.7254
3.4630	6.7329
3.4607	6.7275
3.4584	6.6963
3.4561	6.6712
3.4538	6.6693
3.4515	6.6475
3.4492	6.6459
3.4469	6.6581
3.4446	6.6459
3.4423	6.6192
3.4400	6.5826
3.4378	6.5646
3.4355	6.5810
3.4332	6.5909
3.4309	6.5508
3.4287	6.4948
3.4264	6.4633
3.4241	6.4692
3.4219	6.4521
3.4196	6.4146
3.4174	6.4017
3.4151	6.4120
3.4129	6.4259
3.4106	6.4169
3.4084	6.4059
3.4061	6.4488
3.4039	6.5013
3.4017	6.5210
3.3994	6.5264
3.3972	6.5078
3.3950	6.5049
3.3928	6.5275
3.3906	6.5135
3.3883	6.4704
3.3861	6.4730
3.3839	6.4774
3.3817	6.4849
3.3795	6.4880
3.3773	6.4788
3.3751	6.4969
3.3729	6.5163
3.3707	6.5463
3.3685	6.5569
3.3663	6.5749
3.3641	6.6244
3.3620	6.6642
3.3598	6.7057
3.3576	6.7212
3.3554	6.7493
3.3533	6.7818
3.3511	6.7873
3.3489	6.7802
3.3468	6.8125
3.3446	6.8273
3.3425	6.8259
3.3403	6.8384
3.3382	6.8740
3.3360	6.8953
3.3339	6.9068
3.3317	6.9033
3.3296	6.8845
3.3274	6.8859
3.3253	6.8972
3.3232	6.9039
3.3210	6.9199
3.3189	6.9005
3.3168	6.8958
3.3147	6.9049
3.3126	6.9194
3.3104	6.9321
3.3083	6.9257
3.3062	6.9228
3.3041	6.9431
3.3020	6.9420
3.2999	6.9161
3.2978	6.8992
3.2957	6.9199
3.2936	6.8995
3.2915	6.8771
3.2894	6.8916
3.2874	6.8990
3.2853	6.9013
3.2832	6.9133
3.2811	6.8916
3.2790	6.8810
3.2770	6.8909
3.2749	6.8880
3.2728	6.8969
3.2708	6.8824
3.2687	6.8463
3.2666	6.8412
3.2646	6.8768
3.2625	6.8843
3.2605	6.8564
3.2584	6.8803
3.2564	6.8611
3.2543	6.8210
3.2523	6.8124
3.2503	6.8447
3.2482	6.8691
3.2462	6.8564
3.2442	6.8459
3.2421	6.8456
3.2401	6.8508
3.2381	6.8428
3.2361	6.8392
3.2340	6.8192
3.2320	6.8231
3.2300	6.8418
3.2280	6.8449
3.2260	6.8149
3.2240	6.8132
3.2220	6.8330
3.2200	6.8049
3.2180	6.7802
3.2160	6.8020
3.2140	6.8473
3.2120	6.8512
3.2100	6.8194
3.2080	6.7730
3.2060	6.7875
3.2040	6.8285
3.2021	6.8290
3.2001	6.8238
3.1981	6.8081
3.1961	6.7788
3.1942	6.7720
3.1922	6.7692
3.1902	6.7413
3.1883	6.7474
3.1863	6.7792
3.1844	6.7743
3.1824	6.7545
3.1805	6.7425
3.1785	6.7650
3.1766	6.7537
3.1746	6.7192
3.1727	6.7273
3.1707	6.7624
3.1688	6.7551
3.1669	6.6992
3.1649	6.6613
3.1630	6.6753
3.1611	6.6974
3.1591	6.6987
3.1572	6.6748
3.1553	6.6820
3.1534	6.6825
3.1515	6.6525
3.1495	6.6539
