Name: Chiastolic Slate
Type:  Rocks
Class:  Metamorphic 
Subclass: Slate
Particle Size:  0-75 Micrometer
Sample No.:   slate3.doc
Owner:  JHU
Wavelength Range:  All
Origin:  Sample No. 462, The Hunt and Salisbury Collection at the U.S. 
Geological Survey, Denver, Co.
Description: This dark lineated rock is composed of porphyroblasts of chiastolic 
andalusite set in a matrix of angular quartz fragments, abundant carbonaceous 
granules, and either muscovite or illite (hydromuscovite) with a few biotite grains 
present as well.  The phyllosilicate shows typical 001 cleavage and nearly 
parallel extinction, but unlike muscovite the birefringence is gray, possibly due 
either to the thinness of the crystals or abundant small carbonaceous material.  
Measurement:  Directional (10 Degree) Hemispherical Reflectance
First Column:  X
Second Column:  Y  
X Units:  Wavelength (micrometers)
Y Units:  Reflectance (percent)
First X Value: 14.0112	
Last X Value:  0.4
Number of X Values: 2844
Additional Information:  None

14.983	2.4667
14.940	2.4823
14.897	2.4913
14.854	2.4944
14.812	2.4896
14.770	2.4745
14.728	2.4477
14.686	2.4110
14.645	2.3667
14.603	2.3168
14.562	2.2623
14.521	2.2043
14.481	2.1446
14.441	2.0887
14.400	2.0449
14.361	2.0219
14.321	2.0269
14.281	2.0622
14.242	2.1240
14.203	2.2029
14.164	2.2865
14.126	2.3625
14.087	2.4210
14.049	2.4567
14.011	2.4688
13.973	2.4610
13.936	2.4397
13.899	2.4129
13.861	2.3881
13.824	2.3715
13.788	2.3663
13.751	2.3724
13.715	2.3864
13.679	2.4030
13.643	2.4155
13.607	2.4191
13.571	2.4110
13.536	2.3916
13.500	2.3648
13.465	2.3352
13.430	2.3082
13.396	2.2869
13.361	2.2732
13.327	2.2656
13.293	2.2628
13.259	2.2621
13.225	2.2623
13.191	2.2640
13.158	2.2680
13.124	2.2763
13.091	2.2898
13.058	2.3082
13.026	2.3296
12.993	2.3499
12.960	2.3651
12.928	2.3708
12.896	2.3632
12.864	2.3412
12.832	2.3054
12.800	2.2597
12.769	2.2095
12.737	2.1614
12.706	2.1212
12.675	2.0925
12.644	2.0759
12.614	2.0688
12.583	2.0660
12.552	2.0622
12.522	2.0537
12.492	2.0395
12.462	2.0222
12.432	2.0073
12.402	2.0011
12.373	2.0089
12.343	2.0340
12.314	2.0764
12.285	2.1335
12.256	2.2003
12.227	2.2720
12.198	2.3440
12.169	2.4136
12.141	2.4802
12.113	2.5455
12.084	2.6121
12.056	2.6829
12.028	2.7608
12.000	2.8472
11.973	2.9415
11.945	3.0414
11.918	3.1437
11.890	3.2441
11.863	3.3389
11.836	3.4258
11.809	3.5027
11.782	3.5695
11.755	3.6268
11.729	3.6749
11.702	3.7145
11.676	3.7460
11.650	3.7689
11.624	3.7841
11.598	3.7914
11.572	3.7928
11.546	3.7895
11.520	3.7836
11.495	3.7770
11.469	3.7708
11.444	3.7654
11.419	3.7599
11.394	3.7540
11.369	3.7462
11.344	3.7358
11.319	3.7218
11.294	3.7038
11.270	3.6811
11.245	3.6531
11.221	3.6190
11.197	3.5788
11.173	3.5326
11.149	3.4812
11.125	3.4270
11.101	3.3718
11.077	3.3185
11.054	3.2695
11.030	3.2261
11.007	3.1894
10.983	3.1596
10.960	3.1354
10.937	3.1163
10.914	3.1002
10.891	3.0867
10.868	3.0741
10.846	3.0627
10.823	3.0523
10.800	3.0424
10.778	3.0336
10.755	3.0258
10.733	3.0189
10.711	3.0125
10.689	3.0073
10.667	3.0031
10.645	3.0002
10.623	2.9995
10.602	3.0009
10.580	3.0047
10.558	3.0099
10.537	3.0161
10.516	3.0218
10.494	3.0258
10.473	3.0275
10.452	3.0265
10.431	3.0227
10.410	3.0173
10.389	3.0111
10.368	3.0054
10.348	3.0014
10.327	3.0005
10.306	3.0028
10.286	3.0092
10.266	3.0194
10.245	3.0329
10.225	3.0490
10.205	3.0670
10.185	3.0857
10.165	3.1039
10.145	3.1212
10.125	3.1369
10.106	3.1511
10.086	3.1639
10.066	3.1755
10.047	3.1864
10.027	3.1963
10.008	3.2055
9.9887	3.2138
9.9695	3.2205
9.9504	3.2250
9.9313	3.2271
9.9123	3.2266
9.8934	3.2240
9.8746	3.2200
9.8558	3.2162
9.8371	3.2148
9.8185	3.2179
9.7999	3.2283
9.7814	3.2472
9.7630	3.2761
9.7447	3.3140
9.7264	3.3592
9.7082	3.4087
9.6900	3.4587
9.6719	3.5049
9.6539	3.5435
9.6360	3.5717
9.6181	3.5875
9.6003	3.5908
9.5825	3.5823
9.5649	3.5634
9.5472	3.5373
9.5297	3.5084
9.5122	3.4819
9.4948	3.4644
9.4774	3.4625
9.4601	3.4828
9.4429	3.5300
9.4257	3.6050
9.4086	3.7062
9.3916	3.8274
9.3746	3.9603
9.3577	4.0938
9.3408	4.2186
9.3240	4.3259
9.3073	4.4107
9.2906	4.4716
9.2740	4.5097
9.2574	4.5291
9.2409	4.5345
9.2245	4.5303
9.2081	4.5199
9.1918	4.5054
9.1755	4.4879
9.1593	4.4673
9.1431	4.4434
9.1270	4.4164
9.1110	4.3865
9.0950	4.3543
9.0791	4.3202
9.0632	4.2857
9.0474	4.2516
9.0316	4.2191
9.0159	4.1897
9.0003	4.1642
8.9847	4.1429
8.9691	4.1253
8.9536	4.1104
8.9382	4.0960
8.9228	4.0803
8.9075	4.0614
8.8922	4.0372
8.8770	4.0079
8.8618	3.9735
8.8467	3.9349
8.8316	3.8942
8.8166	3.8532
8.8016	3.8134
8.7867	3.7753
8.7718	3.7372
8.7570	3.6960
8.7422	3.6479
8.7275	3.5885
8.7129	3.5158
8.6982	3.4319
8.6837	3.3434
8.6692	3.2600
8.6547	3.1939
8.6403	3.1558
8.6259	3.1520
8.6116	3.1828
8.5973	3.2415
8.5830	3.3168
8.5688	3.3962
8.5547	3.4675
8.5406	3.5233
8.5266	3.5610
8.5126	3.5821
8.4986	3.5906
8.4847	3.5927
8.4708	3.5927
8.4570	3.5944
8.4432	3.5998
8.4295	3.6093
8.4158	3.6230
8.4022	3.6410
8.3886	3.6626
8.3750	3.6882
8.3615	3.7182
8.3481	3.7533
8.3347	3.7943
8.3213	3.8416
8.3079	3.8959
8.2946	3.9565
8.2814	4.0223
8.2682	4.0908
8.2550	4.1585
8.2419	4.2205
8.2288	4.2717
8.2158	4.3067
8.2028	4.3214
8.1898	4.3127
8.1769	4.2793
8.1640	4.2215
8.1512	4.1421
8.1384	4.0453
8.1256	3.9366
8.1129	3.8217
8.1002	3.7059
8.0876	3.5942
8.0750	3.4895
8.0624	3.3943
8.0499	3.3090
8.0374	3.2332
8.0250	3.1658
8.0126	3.1051
8.0002	3.0492
7.9879	2.9962
7.9756	2.9453
7.9634	2.8955
7.9512	2.8470
7.9390	2.7996
7.9268	2.7544
7.9147	2.7123
7.9027	2.6739
7.8906	2.6400
7.8786	2.6111
7.8667	2.5874
7.8548	2.5692
7.8429	2.5571
7.8310	2.5510
7.8192	2.5507
7.8075	2.5557
7.7957	2.5650
7.7840	2.5773
7.7723	2.5912
7.7607	2.6057
7.7491	2.6199
7.7375	2.6334
7.7260	2.6459
7.7145	2.6580
7.7031	2.6694
7.6916	2.6805
7.6802	2.6909
7.6689	2.7009
7.6575	2.7101
7.6462	2.7186
7.6350	2.7269
7.6238	2.7350
7.6126	2.7435
7.6014	2.7532
7.5903	2.7641
7.5792	2.7764
7.5681	2.7899
7.5571	2.8044
7.5461	2.8191
7.5351	2.8330
7.5242	2.8463
7.5133	2.8584
7.5024	2.8695
7.4916	2.8799
7.4807	2.8901
7.4700	2.9008
7.4592	2.9124
7.4485	2.9249
7.4378	2.9386
7.4272	2.9531
7.4165	2.9680
7.4059	2.9832
7.3954	2.9976
7.3848	3.0118
7.3743	3.0256
7.3639	3.0391
7.3534	3.0523
7.3430	3.0658
7.3326	3.0796
7.3223	3.0940
7.3119	3.1092
7.3016	3.1248
7.2914	3.1414
7.2811	3.1584
7.2709	3.1759
7.2607	3.1939
7.2506	3.2117
7.2404	3.2287
7.2303	3.2441
7.2203	3.2574
7.2102	3.2676
7.2002	3.2745
7.1902	3.2778
7.1803	3.2775
7.1703	3.2749
7.1604	3.2702
7.1506	3.2645
7.1407	3.2586
7.1309	3.2531
7.1211	3.2486
7.1113	3.2446
7.1016	3.2411
7.0919	3.2375
7.0822	3.2342
7.0725	3.2311
7.0629	3.2287
7.0533	3.2273
7.0437	3.2280
7.0341	3.2309
7.0246	3.2359
7.0151	3.2430
7.0056	3.2522
6.9962	3.2631
6.9867	3.2763
6.9773	3.2917
6.9679	3.3100
6.9586	3.3313
6.9493	3.3552
6.9400	3.3815
6.9307	3.4087
6.9214	3.4360
6.9122	3.4620
6.9030	3.4857
6.8938	3.5075
6.8847	3.5281
6.8755	3.5484
6.8664	3.5702
6.8573	3.5939
6.8483	3.6195
6.8393	3.6458
6.8302	3.6716
6.8213	3.6955
6.8123	3.7168
6.8034	3.7358
6.7944	3.7531
6.7855	3.7692
6.7767	3.7850
6.7678	3.8002
6.7590	3.8149
6.7502	3.8284
6.7414	3.8407
6.7327	3.8523
6.7239	3.8634
6.7152	3.8750
6.7065	3.8876
6.6979	3.9008
6.6892	3.9134
6.6806	3.9245
6.6720	3.9333
6.6634	3.9401
6.6549	3.9458
6.6464	3.9520
6.6378	3.9596
6.6294	3.9690
6.6209	3.9799
6.6124	3.9908
6.6040	4.0003
6.5956	4.0076
6.5872	4.0136
6.5789	4.0190
6.5705	4.0256
6.5622	4.0346
6.5539	4.0462
6.5456	4.0602
6.5374	4.0747
6.5292	4.0886
6.5209	4.1019
6.5128	4.1151
6.5046	4.1301
6.4964	4.1481
6.4883	4.1699
6.4802	4.1945
6.4721	4.2193
6.4640	4.2414
6.4560	4.2575
6.4480	4.2667
6.4399	4.2691
6.4320	4.2674
6.4240	4.2648
6.4160	4.2641
6.4081	4.2665
6.4002	4.2712
6.3923	4.2764
6.3844	4.2793
6.3766	4.2781
6.3687	4.2722
6.3609	4.2624
6.3531	4.2506
6.3454	4.2383
6.3376	4.2267
6.3299	4.2158
6.3221	4.2047
6.3144	4.1924
6.3068	4.1784
6.2991	4.1627
6.2914	4.1462
6.2838	4.1301
6.2762	4.1154
6.2686	4.1028
6.2611	4.0924
6.2535	4.0841
6.2460	4.0773
6.2385	4.0718
6.2310	4.0673
6.2235	4.0638
6.2160	4.0621
6.2086	4.0630
6.2011	4.0678
6.1937	4.0775
6.1863	4.0924
6.1790	4.1130
6.1716	4.1381
6.1643	4.1665
6.1570	4.1959
6.1496	4.2246
6.1424	4.2511
6.1351	4.2750
6.1278	4.2968
6.1206	4.3169
6.1134	4.3359
6.1062	4.3534
6.0990	4.3683
6.0918	4.3792
6.0847	4.3856
6.0776	4.3877
6.0704	4.3877
6.0633	4.3882
6.0563	4.3920
6.0492	4.4012
6.0421	4.4159
6.0351	4.4341
6.0281	4.4536
6.0211	4.4708
6.0141	4.4839
6.0071	4.4917
6.0002	4.4950
5.9932	4.4950
5.9863	4.4926
5.9794	4.4896
5.9725	4.4862
5.9657	4.4832
5.9588	4.4813
5.9520	4.4817
5.9451	4.4851
5.9383	4.4919
5.9315	4.5021
5.9247	4.5147
5.9180	4.5284
5.9112	4.5424
5.9045	4.5568
5.8978	4.5724
5.8911	4.5909
5.8844	4.6136
5.8777	4.6406
5.8711	4.6705
5.8644	4.7008
5.8578	4.7285
5.8512	4.7519
5.8446	4.7704
5.8380	4.7853
5.8314	4.7988
5.8249	4.8133
5.8184	4.8296
5.8118	4.8479
5.8053	4.8659
5.7988	4.8812
5.7923	4.8924
5.7859	4.8990
5.7794	4.9026
5.7730	4.9052
5.7666	4.9092
5.7602	4.9163
5.7538	4.9265
5.7474	4.9383
5.7410	4.9504
5.7347	4.9606
5.7283	4.9684
5.7220	4.9738
5.7157	4.9779
5.7094	4.9814
5.7031	4.9850
5.6969	4.9885
5.6906	4.9909
5.6844	4.9914
5.6782	4.9883
5.6719	4.9817
5.6657	4.9715
5.6596	4.9592
5.6534	4.9461
5.6472	4.9343
5.6411	4.9246
5.6349	4.9175
5.6288	4.9130
5.6227	4.9099
5.6166	4.9071
5.6106	4.9035
5.6045	4.8990
5.5984	4.8940
5.5924	4.8895
5.5864	4.8865
5.5804	4.8860
5.5744	4.8891
5.5684	4.8962
5.5624	4.9071
5.5564	4.9210
5.5505	4.9374
5.5445	4.9554
5.5386	4.9743
5.5327	4.9937
5.5268	5.0134
5.5209	5.0333
5.5151	5.0529
5.5092	5.0724
5.5033	5.0908
5.4975	5.1081
5.4917	5.1242
5.4859	5.1394
5.4801	5.1541
5.4743	5.1687
5.4685	5.1837
5.4628	5.1986
5.4570	5.2126
5.4513	5.2246
5.4455	5.2332
5.4398	5.2374
5.4341	5.2369
5.4284	5.2322
5.4228	5.2234
5.4171	5.2116
5.4114	5.1967
5.4058	5.1792
5.4002	5.1586
5.3945	5.1346
5.3889	5.1081
5.3833	5.0797
5.3778	5.0508
5.3722	5.0236
5.3666	4.9997
5.3611	4.9812
5.3555	4.9693
5.3500	4.9644
5.3445	4.9663
5.3390	4.9736
5.3335	4.9850
5.3280	4.9989
5.3225	5.0136
5.3171	5.0283
5.3116	5.0430
5.3062	5.0579
5.3008	5.0740
5.2954	5.0920
5.2900	5.1126
5.2846	5.1358
5.2792	5.1616
5.2738	5.1893
5.2684	5.2187
5.2631	5.2493
5.2578	5.2808
5.2524	5.3132
5.2471	5.3461
5.2418	5.3790
5.2365	5.4112
5.2312	5.4418
5.2260	5.4702
5.2207	5.4958
5.2154	5.5188
5.2102	5.5384
5.2050	5.5555
5.1998	5.5701
5.1945	5.5827
5.1893	5.5934
5.1842	5.6028
5.1790	5.6116
5.1738	5.6194
5.1686	5.6265
5.1635	5.6331
5.1584	5.6393
5.1532	5.6450
5.1481	5.6509
5.1430	5.6571
5.1379	5.6637
5.1328	5.6715
5.1277	5.6798
5.1227	5.6883
5.1176	5.6966
5.1126	5.7032
5.1075	5.7080
5.1025	5.7099
5.0975	5.7089
5.0925	5.7058
5.0875	5.7011
5.0825	5.6961
5.0775	5.6921
5.0726	5.6895
5.0676	5.6893
5.0627	5.6909
5.0577	5.6942
5.0528	5.6980
5.0479	5.7016
5.0430	5.7042
5.0380	5.7058
5.0332	5.7068
5.0283	5.7075
5.0234	5.7087
5.0185	5.7106
5.0137	5.7139
5.0088	5.7186
5.0040	5.7248
4.9992	5.7326
4.9944	5.7423
4.9896	5.7539
4.9848	5.7679
4.9800	5.7845
4.9752	5.8029
4.9704	5.8233
4.9657	5.8441
4.9609	5.8645
4.9562	5.8835
4.9514	5.9003
4.9467	5.9149
4.9420	5.9277
4.9373	5.9398
4.9326	5.9517
4.9279	5.9647
4.9232	5.9791
4.9186	5.9955
4.9139	6.0135
4.9092	6.0329
4.9046	6.0523
4.9000	6.0715
4.8953	6.0892
4.8907	6.1056
4.8861	6.1203
4.8815	6.1335
4.8769	6.1458
4.8723	6.1579
4.8678	6.1693
4.8632	6.1807
4.8586	6.1913
4.8541	6.2008
4.8495	6.2093
4.8450	6.2164
4.8405	6.2226
4.8360	6.2283
4.8315	6.2335
4.8270	6.2389
4.8225	6.2446
4.8180	6.2508
4.8135	6.2569
4.8090	6.2628
4.8046	6.2685
4.8001	6.2737
4.7957	6.2787
4.7913	6.2839
4.7868	6.2896
4.7824	6.2955
4.7780	6.3021
4.7736	6.3090
4.7692	6.3161
4.7648	6.3235
4.7605	6.3310
4.7561	6.3388
4.7517	6.3474
4.7474	6.3566
4.7431	6.3661
4.7387	6.3758
4.7344	6.3853
4.7301	6.3933
4.7258	6.4002
4.7215	6.4056
4.7172	6.4099
4.7129	6.4134
4.7086	6.4168
4.7043	6.4208
4.7000	6.4253
4.6958	6.4305
4.6915	6.4364
4.6873	6.4426
4.6831	6.4490
4.6788	6.4551
4.6746	6.4613
4.6704	6.4672
4.6662	6.4729
4.6620	6.4788
4.6578	6.4850
4.6536	6.4916
4.6495	6.4985
4.6453	6.5056
4.6411	6.5124
4.6370	6.5191
4.6328	6.5252
4.6287	6.5311
4.6246	6.5368
4.6205	6.5425
4.6163	6.5480
4.6122	6.5539
4.6081	6.5593
4.6040	6.5648
4.6000	6.5700
4.5959	6.5750
4.5918	6.5799
4.5877	6.5849
4.5837	6.5903
4.5796	6.5963
4.5756	6.6020
4.5716	6.6079
4.5675	6.6136
4.5635	6.6190
4.5595	6.6240
4.5555	6.6282
4.5515	6.6323
4.5475	6.6353
4.5435	6.6382
4.5395	6.6403
4.5356	6.6420
4.5316	6.6434
4.5276	6.6451
4.5237	6.6469
4.5197	6.6493
4.5158	6.6526
4.5119	6.6567
4.5080	6.6614
4.5040	6.6664
4.5001	6.6716
4.4962	6.6765
4.4923	6.6810
4.4884	6.6848
4.4846	6.6882
4.4807	6.6910
4.4768	6.6936
4.4730	6.6962
4.4691	6.6995
4.4652	6.7031
4.4614	6.7069
4.4576	6.7111
4.4537	6.7159
4.4499	6.7204
4.4461	6.7253
4.4423	6.7301
4.4385	6.7350
4.4347	6.7398
4.4309	6.7448
4.4271	6.7495
4.4233	6.7540
4.4196	6.7585
4.4158	6.7630
4.4120	6.7675
4.4083	6.7717
4.4045	6.7760
4.4008	6.7800
4.3971	6.7841
4.3934	6.7876
4.3896	6.7909
4.3859	6.7942
4.3822	6.7980
4.3785	6.8018
4.3748	6.8066
4.3711	6.8118
4.3674	6.8175
4.3638	6.8234
4.3601	6.8291
4.3564	6.8343
4.3528	6.8388
4.3491	6.8423
4.3455	6.8454
4.3418	6.8485
4.3382	6.8518
4.3346	6.8551
4.3310	6.8587
4.3273	6.8622
4.3237	6.8653
4.3201	6.8679
4.3165	6.8698
4.3129	6.8714
4.3094	6.8729
4.3058	6.8745
4.3022	6.8764
4.2986	6.8790
4.2951	6.8821
4.2915	6.8852
4.2880	6.8887
4.2844	6.8921
4.2809	6.8951
4.2774	6.8980
4.2738	6.9003
4.2703	6.9022
4.2668	6.9044
4.2633	6.9063
4.2598	6.9084
4.2563	6.9110
4.2528	6.9138
4.2493	6.9169
4.2458	6.9202
4.2424	6.9235
4.2389	6.9271
4.2354	6.9307
4.2320	6.9342
4.2285	6.9378
4.2251	6.9411
4.2216	6.9441
4.2182	6.9468
4.2148	6.9489
4.2113	6.9505
4.2079	6.9520
4.2045	6.9534
4.2011	6.9550
4.1977	6.9569
4.1943	6.9595
4.1909	6.9626
4.1875	6.9657
4.1841	6.9688
4.1808	6.9716
4.1774	6.9740
4.1740	6.9759
4.1707	6.9775
4.1673	6.9794
4.1640	6.9818
4.1606	6.9849
4.1573	6.9887
4.1540	6.9927
4.1506	6.9967
4.1473	7.0003
4.1440	7.0029
4.1407	7.0045
4.1374	7.0057
4.1341	7.0067
4.1308	7.0079
4.1275	7.0100
4.1242	7.0133
4.1209	7.0176
4.1177	7.0223
4.1144	7.0275
4.1111	7.0322
4.1079	7.0363
4.1046	7.0396
4.1014	7.0422
4.0981	7.0441
4.0949	7.0457
4.0917	7.0469
4.0884	7.0481
4.0852	7.0491
4.0820	7.0502
4.0788	7.0517
4.0756	7.0536
4.0724	7.0557
4.0692	7.0585
4.0660	7.0618
4.0628	7.0656
4.0596	7.0697
4.0565	7.0732
4.0533	7.0765
4.0501	7.0789
4.0470	7.0808
4.0438	7.0820
4.0406	7.0829
4.0375	7.0836
4.0344	7.0846
4.0312	7.0860
4.0281	7.0881
4.0250	7.0907
4.0218	7.0938
4.0187	7.0969
4.0156	7.0997
4.0125	7.1021
4.0094	7.1040
4.0063	7.1057
4.0032	7.1073
4.0001	7.1094
3.9970	7.1121
3.9940	7.1154
3.9909	7.1192
3.9878	7.1232
3.9847	7.1270
3.9817	7.1303
3.9786	7.1331
3.9756	7.1350
3.9725	7.1362
3.9695	7.1369
3.9665	7.1369
3.9634	7.1367
3.9604	7.1364
3.9574	7.1364
3.9544	7.1369
3.9513	7.1383
3.9483	7.1405
3.9453	7.1433
3.9423	7.1464
3.9393	7.1495
3.9363	7.1523
3.9333	7.1549
3.9304	7.1570
3.9274	7.1589
3.9244	7.1613
3.9214	7.1637
3.9185	7.1665
3.9155	7.1694
3.9126	7.1717
3.9096	7.1741
3.9067	7.1760
3.9037	7.1772
3.9008	7.1784
3.8979	7.1791
3.8949	7.1798
3.8920	7.1803
3.8891	7.1807
3.8862	7.1812
3.8833	7.1821
3.8804	7.1838
3.8775	7.1862
3.8746	7.1893
3.8717	7.1930
3.8688	7.1971
3.8659	7.2009
3.8630	7.2037
3.8601	7.2056
3.8573	7.2063
3.8544	7.2058
3.8515	7.2046
3.8487	7.2035
3.8458	7.2028
3.8430	7.2028
3.8401	7.2037
3.8373	7.2051
3.8344	7.2073
3.8316	7.2094
3.8288	7.2110
3.8259	7.2122
3.8231	7.2132
3.8203	7.2139
3.8175	7.2148
3.8147	7.2163
3.8119	7.2184
3.8091	7.2208
3.8063	7.2236
3.8035	7.2262
3.8007	7.2288
3.7979	7.2307
3.7951	7.2321
3.7924	7.2335
3.7896	7.2350
3.7868	7.2361
3.7841	7.2371
3.7813	7.2376
3.7785	7.2371
3.7758	7.2359
3.7730	7.2345
3.7703	7.2333
3.7676	7.2331
3.7648	7.2342
3.7621	7.2364
3.7594	7.2392
3.7566	7.2418
3.7539	7.2435
3.7512	7.2437
3.7485	7.2425
3.7458	7.2399
3.7431	7.2366
3.7404	7.2338
3.7377	7.2316
3.7350	7.2312
3.7323	7.2319
3.7296	7.2340
3.7269	7.2369
3.7242	7.2397
3.7216	7.2423
3.7189	7.2442
3.7162	7.2454
3.7136	7.2456
3.7109	7.2451
3.7083	7.2444
3.7056	7.2437
3.7030	7.2437
3.7003	7.2442
3.6977	7.2454
3.6950	7.2473
3.6924	7.2487
3.6898	7.2496
3.6872	7.2499
3.6845	7.2492
3.6819	7.2477
3.6793	7.2466
3.6767	7.2456
3.6741	7.2459
3.6715	7.2466
3.6689	7.2480
3.6663	7.2489
3.6637	7.2494
3.6611	7.2485
3.6585	7.2463
3.6560	7.2435
3.6534	7.2402
3.6508	7.2376
3.6482	7.2361
3.6457	7.2361
3.6431	7.2373
3.6406	7.2395
3.6380	7.2416
3.6355	7.2428
3.6329	7.2425
3.6304	7.2411
3.6278	7.2385
3.6253	7.2359
3.6227	7.2338
3.6202	7.2326
3.6177	7.2324
3.6152	7.2331
3.6127	7.2342
3.6101	7.2350
3.6076	7.2347
3.6051	7.2338
3.6026	7.2314
3.6001	7.2283
3.5976	7.2243
3.5951	7.2198
3.5926	7.2151
3.5901	7.2103
3.5876	7.2058
3.5852	7.2018
3.5827	7.1985
3.5802	7.1956
3.5777	7.1928
3.5753	7.1904
3.5728	7.1878
3.5704	7.1852
3.5679	7.1826
3.5654	7.1800
3.5630	7.1777
3.5605	7.1758
3.5581	7.1741
3.5557	7.1727
3.5532	7.1715
3.5508	7.1705
3.5484	7.1696
3.5459	7.1679
3.5435	7.1653
3.5411	7.1620
3.5387	7.1580
3.5363	7.1540
3.5338	7.1507
3.5314	7.1492
3.5290	7.1499
3.5266	7.1533
3.5242	7.1580
3.5218	7.1632
3.5195	7.1677
3.5171	7.1708
3.5147	7.1722
3.5123	7.1720
3.5099	7.1708
3.5075	7.1701
3.5052	7.1701
3.5028	7.1710
3.5004	7.1729
3.4981	7.1748
3.4957	7.1762
3.4934	7.1765
3.4910	7.1753
3.4887	7.1729
3.4863	7.1701
3.4840	7.1668
3.4816	7.1642
3.4793	7.1620
3.4770	7.1606
3.4746	7.1601
3.4723	7.1601
3.4700	7.1601
3.4677	7.1597
3.4653	7.1587
3.4630	7.1570
3.4607	7.1547
3.4584	7.1523
3.4561	7.1502
3.4538	7.1488
3.4515	7.1476
3.4492	7.1469
3.4469	7.1464
3.4446	7.1457
3.4423	7.1447
3.4400	7.1438
3.4378	7.1428
3.4355	7.1419
3.4332	7.1412
3.4309	7.1402
3.4287	7.1388
3.4264	7.1364
3.4241	7.1331
3.4219	7.1289
3.4196	7.1239
3.4174	7.1182
3.4151	7.1123
3.4129	7.1066
3.4106	7.1012
3.4084	7.0959
3.4061	7.0912
3.4039	7.0862
3.4017	7.0815
3.3994	7.0763
3.3972	7.0706
3.3950	7.0647
3.3928	7.0583
3.3906	7.0521
3.3883	7.0460
3.3861	7.0401
3.3839	7.0349
3.3817	7.0299
3.3795	7.0251
3.3773	7.0204
3.3751	7.0150
3.3729	7.0090
3.3707	7.0019
3.3685	6.9936
3.3663	6.9839
3.3641	6.9733
3.3620	6.9619
3.3598	6.9501
3.3576	6.9387
3.3554	6.9285
3.3533	6.9200
3.3511	6.9131
3.3489	6.9082
3.3468	6.9039
3.3446	6.8999
3.3425	6.8951
3.3403	6.8892
3.3382	6.8823
3.3360	6.8748
3.3339	6.8674
3.3317	6.8610
3.3296	6.8556
3.3274	6.8508
3.3253	6.8466
3.3232	6.8421
3.3210	6.8371
3.3189	6.8312
3.3168	6.8253
3.3147	6.8193
3.3126	6.8144
3.3104	6.8101
3.3083	6.8070
3.3062	6.8047
3.3041	6.8023
3.3020	6.7997
3.2999	6.7961
3.2978	6.7914
3.2957	6.7852
3.2936	6.7784
3.2915	6.7715
3.2894	6.7651
3.2874	6.7594
3.2853	6.7549
3.2832	6.7514
3.2811	6.7478
3.2790	6.7443
3.2770	6.7407
3.2749	6.7376
3.2728	6.7358
3.2708	6.7353
3.2687	6.7369
3.2666	6.7403
3.2646	6.7448
3.2625	6.7490
3.2605	6.7523
3.2584	6.7540
3.2564	6.7540
3.2543	6.7526
3.2523	6.7504
3.2503	6.7476
3.2482	6.7448
3.2462	6.7421
3.2442	6.7391
3.2421	6.7360
3.2401	6.7322
3.2381	6.7282
3.2361	6.7239
3.2340	6.7196
3.2320	6.7151
3.2300	6.7106
3.2280	6.7059
3.2260	6.7007
3.2240	6.6948
