Name:  Happy Canyon
Type:  Stony Meteorites
Class:  Enstatite Chondrite
Subclass:  E6
Particle Size:  0-75 micrometers
Sample No.:  Happy Canyon
Owner:  JHU
Wavelength range:  IR
Origin:  Meteorite found in 1971.  Smithsonian sample No. USNM 5820.

Description:  None.





Measurement:  Bidirectional reflectance
First Column:  X
Second Column:  Y
X Units:  Wavelength (micrometers)
Y Units:  Reflectance (percent)
First X Value:  25.044
Last X Value:  2.0795
Number of X Values:  2286
Additional information:  None

25.044	0.83180
24.924	0.84860
24.805	0.83540
24.686	0.78930
24.569	0.74100
24.454	0.70140
24.339	0.66260
24.225	0.63210
24.112	0.61380
24.001	0.59810
23.890	0.57740
23.781	0.55810
23.672	0.55130
23.564	0.55660
23.458	0.57640
23.352	0.61600
23.247	0.66240
23.144	0.69650
23.041	0.71390
22.939	0.71750
22.838	0.71360
22.738	0.71120
22.638	0.71750
22.540	0.73070
22.442	0.74190
22.345	0.74560
22.250	0.74170
22.154	0.73220
22.060	0.72440
21.967	0.72390
21.874	0.72560
21.782	0.72410
21.691	0.71780
21.601	0.70920
21.511	0.69580
21.422	0.67580
21.334	0.65500
21.247	0.63890
21.160	0.62550
21.074	0.62080
20.988	0.63040
20.904	0.65190
20.820	0.67380
20.737	0.69260
20.654	0.71170
20.572	0.73270
20.491	0.75120
20.410	0.77170
20.330	0.79570
20.251	0.81590
20.172	0.82860
20.094	0.83810
20.016	0.85030
19.939	0.86790
19.863	0.88770
19.787	0.90820
19.712	0.92480
19.637	0.93110
19.563	0.92720
19.489	0.91700
19.416	0.90280
19.344	0.88840
19.272	0.87160
19.201	0.84990
19.130	0.82030
19.059	0.78390
18.990	0.74680
18.920	0.71290
18.851	0.68630
18.783	0.67140
18.715	0.66630
18.648	0.66670
18.581	0.66920
18.515	0.67280
18.449	0.67900
18.384	0.68580
18.319	0.69340
18.254	0.70170
18.190	0.70780
18.126	0.70950
18.063	0.70390
18.001	0.69090
17.938	0.67240
17.876	0.64970
17.815	0.62550
17.754	0.60520
17.693	0.59330
17.633	0.59280
17.573	0.60200
17.514	0.61890
17.455	0.63990
17.396	0.65940
17.338	0.67140
17.280	0.67630
17.223	0.67500
17.166	0.67020
17.109	0.66260
17.053	0.65410
16.997	0.64750
16.942	0.64280
16.886	0.63820
16.832	0.63310
16.777	0.62840
16.723	0.62430
16.669	0.61820
16.616	0.60860
16.563	0.59810
16.510	0.58760
16.458	0.57590
16.406	0.56230
16.354	0.54740
16.302	0.53170
16.251	0.51240
16.200	0.48970
16.150	0.46750
16.100	0.44780
16.050	0.43120
16.000	0.41820
15.951	0.40750
15.902	0.39840
15.854	0.38960
15.805	0.38130
15.757	0.37300
15.710	0.36570
15.662	0.35990
15.615	0.35600
15.568	0.35350
15.521	0.35330
15.475	0.35380
15.429	0.35130
15.383	0.34450
15.338	0.33350
15.292	0.32030
15.248	0.30690
15.203	0.29660
15.158	0.29170
15.114	0.29420
15.070	0.30270
15.027	0.31740
14.983	0.33640
14.940	0.35740
14.897	0.37670
14.854	0.39160
14.812	0.40230
14.770	0.41060
14.728	0.41650
14.686	0.42310
14.645	0.43140
14.603	0.44070
14.562	0.44850
14.521	0.45430
14.481	0.45870
14.441	0.46170
14.400	0.46480
14.361	0.47090
14.321	0.48050
14.281	0.49170
14.242	0.50370
14.203	0.51510
14.164	0.52690
14.126	0.53830
14.087	0.54980
14.049	0.56130
14.011	0.56910
13.973	0.57200
13.936	0.56810
13.899	0.55760
13.861	0.54420
13.824	0.53000
13.788	0.51930
13.751	0.51540
13.715	0.51860
13.679	0.52930
13.643	0.54690
13.607	0.56710
13.571	0.58740
13.536	0.60520
13.500	0.62060
13.465	0.63700
13.430	0.65620
13.396	0.68160
13.361	0.71480
13.327	0.75370
13.293	0.79420
13.259	0.83320
13.225	0.86870
13.191	0.89990
13.158	0.92720
13.124	0.94990
13.091	0.96920
13.058	0.98460
13.026	0.99630
12.993	1.0063
12.960	1.0154
12.928	1.0244
12.896	1.0327
12.864	1.0381
12.832	1.0398
12.800	1.0395
12.769	1.0388
12.737	1.0398
12.706	1.0432
12.675	1.0493
12.644	1.0554
12.614	1.0588
12.583	1.0601
12.552	1.0613
12.522	1.0630
12.492	1.0659
12.462	1.0725
12.432	1.0825
12.402	1.0942
12.373	1.1057
12.343	1.1165
12.314	1.1250
12.285	1.1296
12.256	1.1321
12.227	1.1350
12.198	1.1389
12.169	1.1431
12.141	1.1465
12.113	1.1455
12.084	1.1372
12.056	1.1208
12.028	1.0986
12.000	1.0723
11.973	1.0432
11.945	1.0134
11.918	0.98530
11.890	0.96000
11.863	0.93850
11.836	0.92310
11.809	0.91530
11.782	0.91360
11.755	0.91580
11.729	0.92040
11.702	0.92600
11.676	0.93160
11.650	0.93480
11.624	0.93550
11.598	0.93410
11.572	0.92940
11.546	0.92070
11.520	0.90840
11.495	0.89280
11.469	0.87260
11.444	0.84620
11.419	0.81300
11.394	0.77390
11.369	0.73070
11.344	0.68750
11.319	0.65010
11.294	0.62330
11.270	0.60910
11.245	0.60690
11.221	0.61430
11.197	0.62670
11.173	0.64010
11.149	0.65160
11.125	0.66020
11.101	0.66430
11.077	0.66380
11.054	0.65870
11.030	0.65090
11.007	0.64330
10.983	0.63960
10.960	0.64230
10.937	0.65230
10.914	0.66940
10.891	0.69190
10.868	0.71630
10.846	0.74070
10.823	0.76540
10.800	0.78860
10.778	0.80810
10.755	0.82200
10.733	0.83060
10.711	0.83420
10.689	0.83420
10.667	0.83180
10.645	0.83110
10.623	0.83350
10.602	0.83670
10.580	0.83980
10.558	0.84250
10.537	0.84500
10.516	0.84570
10.494	0.84590
10.473	0.84670
10.452	0.84810
10.431	0.84770
10.410	0.84450
10.389	0.83760
10.368	0.82710
10.348	0.81300
10.327	0.79590
10.306	0.77730
10.286	0.75980
10.266	0.74490
10.245	0.73440
10.225	0.72850
10.205	0.72630
10.185	0.72460
10.165	0.71970
10.145	0.70920
10.125	0.69410
10.106	0.67750
10.086	0.66190
10.066	0.64770
10.047	0.63450
10.027	0.62040
10.008	0.60420
9.9887	0.58720
9.9695	0.57280
9.9504	0.56490
9.9313	0.56540
9.9123	0.57200
9.8934	0.58130
9.8746	0.58890
9.8558	0.59160
9.8371	0.58760
9.8185	0.57670
9.7999	0.56030
9.7814	0.53950
9.7630	0.51560
9.7447	0.48950
9.7264	0.46260
9.7082	0.43850
9.6900	0.42140
9.6719	0.41500
9.6539	0.42240
9.6360	0.44430
9.6181	0.47880
9.6003	0.52030
9.5825	0.56270
9.5649	0.60130
9.5472	0.63280
9.5297	0.65720
9.5122	0.67650
9.4948	0.69310
9.4774	0.70830
9.4601	0.72310
9.4429	0.73780
9.4257	0.75100
9.4086	0.76100
9.3916	0.76780
9.3746	0.77200
9.3577	0.77320
9.3408	0.77250
9.3240	0.77070
9.3073	0.76880
9.2906	0.76660
9.2740	0.76390
9.2574	0.76170
9.2409	0.75980
9.2245	0.75830
9.2081	0.75760
9.1918	0.75730
9.1755	0.75780
9.1593	0.75900
9.1431	0.76120
9.1270	0.76460
9.1110	0.76930
9.0950	0.77510
9.0791	0.78270
9.0632	0.79300
9.0474	0.80590
9.0316	0.82010
9.0159	0.83450
9.0003	0.84690
8.9847	0.85620
8.9691	0.86080
8.9536	0.86250
8.9382	0.86230
8.9228	0.85910
8.9075	0.85330
8.8922	0.84640
8.8770	0.84030
8.8618	0.83720
8.8467	0.83960
8.8316	0.84940
8.8166	0.86330
8.8016	0.87400
8.7867	0.87480
8.7718	0.86110
8.7570	0.83400
8.7422	0.79910
8.7275	0.76590
8.7129	0.74390
8.6982	0.73830
8.6837	0.74680
8.6692	0.76320
8.6547	0.77950
8.6403	0.79100
8.6259	0.79570
8.6116	0.79370
8.5973	0.78880
8.5830	0.78520
8.5688	0.78370
8.5547	0.78390
8.5406	0.78640
8.5266	0.79100
8.5126	0.79740
8.4986	0.80570
8.4847	0.81590
8.4708	0.82860
8.4570	0.84370
8.4432	0.86060
8.4295	0.87890
8.4158	0.89970
8.4022	0.92210
8.3886	0.94580
8.3750	0.97070
8.3615	0.99760
8.3481	1.0264
8.3347	1.0561
8.3213	1.0876
8.3079	1.1208
8.2946	1.1548
8.2814	1.1892
8.2682	1.2234
8.2550	1.2578
8.2419	1.2920
8.2288	1.3249
8.2158	1.3577
8.2028	1.3896
8.1898	1.4204
8.1769	1.4507
8.1640	1.4805
8.1512	1.5105
8.1384	1.5405
8.1256	1.5701
8.1129	1.5991
8.1002	1.6274
8.0876	1.6553
8.0750	1.6824
8.0624	1.7090
8.0499	1.7358
8.0374	1.7629
8.0250	1.7905
8.0126	1.8181
8.0002	1.8457
7.9879	1.8728
7.9756	1.8984
7.9634	1.9233
7.9512	1.9475
7.9390	1.9714
7.9268	1.9958
7.9147	2.0205
7.9027	2.0454
7.8906	2.0701
7.8786	2.0942
7.8667	2.1182
7.8548	2.1416
7.8429	2.1650
7.8310	2.1885
7.8192	2.2109
7.8075	2.2329
7.7957	2.2537
7.7840	2.2722
7.7723	2.2883
7.7607	2.3022
7.7491	2.3147
7.7375	2.3262
7.7260	2.3367
7.7145	2.3459
7.7031	2.3547
7.6916	2.3625
7.6802	2.3699
7.6689	2.3774
7.6575	2.3860
7.6462	2.3953
7.6350	2.4053
7.6238	2.4155
7.6126	2.4260
7.6014	2.4370
7.5903	2.4485
7.5792	2.4612
7.5681	2.4753
7.5571	2.4914
7.5461	2.5090
7.5351	2.5268
7.5242	2.5435
7.5133	2.5576
7.5024	2.5688
7.4916	2.5779
7.4807	2.5854
7.4700	2.5930
7.4592	2.6018
7.4485	2.6111
7.4378	2.6208
7.4272	2.6306
7.4165	2.6411
7.4059	2.6526
7.3954	2.6650
7.3848	2.6777
7.3743	2.6904
7.3639	2.7026
7.3534	2.7143
7.3430	2.7248
7.3326	2.7346
7.3223	2.7439
7.3119	2.7522
7.3016	2.7590
7.2914	2.7654
7.2811	2.7727
7.2709	2.7817
7.2607	2.7927
7.2506	2.8057
7.2404	2.8198
7.2303	2.8345
7.2203	2.8491
7.2102	2.8638
7.2002	2.8782
7.1902	2.8918
7.1803	2.9048
7.1703	2.9167
7.1604	2.9277
7.1506	2.9377
7.1407	2.9480
7.1309	2.9582
7.1211	2.9687
7.1113	2.9785
7.1016	2.9871
7.0919	2.9934
7.0822	2.9978
7.0725	3.0005
7.0629	3.0029
7.0533	3.0054
7.0437	3.0083
7.0341	3.0124
7.0246	3.0173
7.0151	3.0225
7.0056	3.0278
6.9962	3.0339
6.9867	3.0413
6.9773	3.0488
6.9679	3.0566
6.9586	3.0649
6.9493	3.0732
6.9400	3.0801
6.9307	3.0859
6.9214	3.0915
6.9122	3.0964
6.9030	3.1008
6.8938	3.1055
6.8847	3.1103
6.8755	3.1155
6.8664	3.1204
6.8573	3.1257
6.8483	3.1309
6.8393	3.1355
6.8302	3.1389
6.8213	3.1413
6.8123	3.1438
6.8034	3.1462
6.7944	3.1499
6.7855	3.1558
6.7767	3.1638
6.7678	3.1724
6.7590	3.1799
6.7502	3.1848
6.7414	3.1860
6.7327	3.1824
6.7239	3.1750
6.7152	3.1650
6.7065	3.1545
6.6979	3.1443
6.6892	3.1357
6.6806	3.1287
6.6720	3.1228
6.6634	3.1179
6.6549	3.1140
6.6464	3.1118
6.6378	3.1125
6.6294	3.1174
6.6209	3.1262
6.6124	3.1382
6.6040	3.1518
6.5956	3.1650
6.5872	3.1772
6.5789	3.1882
6.5705	3.1975
6.5622	3.2058
6.5539	3.2126
6.5456	3.2183
6.5374	3.2214
6.5292	3.2219
6.5209	3.2200
6.5128	3.2165
6.5046	3.2121
6.4964	3.2085
6.4883	3.2065
6.4802	3.2065
6.4721	3.2075
6.4640	3.2078
6.4560	3.2056
6.4480	3.2002
6.4399	3.1912
6.4320	3.1799
6.4240	3.1682
6.4160	3.1565
6.4081	3.1462
6.4002	3.1365
6.3923	3.1255
6.3844	3.1123
6.3766	3.0972
6.3687	3.0801
6.3609	3.0625
6.3531	3.0454
6.3454	3.0312
6.3376	3.0205
6.3299	3.0132
6.3221	3.0090
6.3144	3.0078
6.3068	3.0085
6.2991	3.0098
6.2914	3.0100
6.2838	3.0093
6.2762	3.0073
6.2686	3.0044
6.2611	3.0007
6.2535	2.9961
6.2460	2.9900
6.2385	2.9822
6.2310	2.9724
6.2235	2.9612
6.2160	2.9497
6.2086	2.9380
6.2011	2.9275
6.1937	2.9180
6.1863	2.9104
6.1790	2.9045
6.1716	2.9004
6.1643	2.8977
6.1570	2.8960
6.1496	2.8933
6.1424	2.8894
6.1351	2.8843
6.1278	2.8782
6.1206	2.8716
6.1134	2.8650
6.1062	2.8594
6.0990	2.8547
6.0918	2.8503
6.0847	2.8464
6.0776	2.8435
6.0704	2.8428
6.0633	2.8442
6.0563	2.8484
6.0492	2.8559
6.0421	2.8674
6.0351	2.8823
6.0281	2.9009
6.0211	2.9226
6.0141	2.9480
6.0071	2.9761
6.0002	3.0066
5.9932	3.0391
5.9863	3.0742
5.9794	3.1111
5.9725	3.1482
5.9657	3.1851
5.9588	3.2209
5.9520	3.2551
5.9451	3.2886
5.9383	3.3208
5.9315	3.3525
5.9247	3.3826
5.9180	3.4092
5.9112	3.4314
5.9045	3.4497
5.8978	3.4646
5.8911	3.4790
5.8844	3.4932
5.8777	3.5078
5.8711	3.5225
5.8644	3.5361
5.8578	3.5474
5.8512	3.5559
5.8446	3.5632
5.8380	3.5705
5.8314	3.5796
5.8249	3.5913
5.8184	3.6067
5.8118	3.6238
5.8053	3.6396
5.7988	3.6518
5.7923	3.6601
5.7859	3.6643
5.7794	3.6653
5.7730	3.6641
5.7666	3.6631
5.7602	3.6633
5.7538	3.6645
5.7474	3.6660
5.7410	3.6680
5.7347	3.6697
5.7283	3.6704
5.7220	3.6702
5.7157	3.6704
5.7094	3.6721
5.7031	3.6753
5.6969	3.6799
5.6906	3.6855
5.6844	3.6914
5.6782	3.6975
5.6719	3.7036
5.6657	3.7107
5.6596	3.7178
5.6534	3.7251
5.6472	3.7324
5.6411	3.7395
5.6349	3.7463
5.6288	3.7534
5.6227	3.7612
5.6166	3.7693
5.6106	3.7771
5.6045	3.7837
5.5984	3.7898
5.5924	3.7947
5.5864	3.7998
5.5804	3.8061
5.5744	3.8147
5.5684	3.8257
5.5624	3.8381
5.5564	3.8508
5.5505	3.8625
5.5445	3.8725
5.5386	3.8804
5.5327	3.8862
5.5268	3.8904
5.5209	3.8933
5.5151	3.8943
5.5092	3.8940
5.5033	3.8931
5.4975	3.8921
5.4917	3.8916
5.4859	3.8923
5.4801	3.8945
5.4743	3.8984
5.4685	3.9036
5.4628	3.9101
5.4570	3.9182
5.4513	3.9270
5.4455	3.9365
5.4398	3.9475
5.4341	3.9597
5.4284	3.9736
5.4228	3.9890
5.4171	4.0058
5.4114	4.0232
5.4058	4.0393
5.4002	4.0544
5.3945	4.0683
5.3889	4.0813
5.3833	4.0933
5.3778	4.1040
5.3722	4.1138
5.3666	4.1216
5.3611	4.1282
5.3555	4.1343
5.3500	4.1399
5.3445	4.1453
5.3390	4.1501
5.3335	4.1548
5.3280	4.1584
5.3225	4.1614
5.3171	4.1633
5.3116	4.1645
5.3062	4.1643
5.3008	4.1633
5.2954	4.1616
5.2900	4.1601
5.2846	4.1589
5.2792	4.1577
5.2738	4.1572
5.2684	4.1570
5.2631	4.1577
5.2578	4.1597
5.2524	4.1623
5.2471	4.1650
5.2418	4.1670
5.2365	4.1677
5.2312	4.1667
5.2260	4.1643
5.2207	4.1601
5.2154	4.1548
5.2102	4.1472
5.2050	4.1377
5.1998	4.1267
5.1945	4.1147
5.1893	4.1025
5.1842	4.0903
5.1790	4.0776
5.1738	4.0642
5.1686	4.0498
5.1635	4.0347
5.1584	4.0198
5.1532	4.0063
5.1481	3.9956
5.1430	3.9880
5.1379	3.9839
5.1328	3.9827
5.1277	3.9839
5.1227	3.9866
5.1176	3.9910
5.1126	3.9963
5.1075	4.0032
5.1025	4.0110
5.0975	4.0200
5.0925	4.0300
5.0875	4.0408
5.0825	4.0517
5.0775	4.0635
5.0726	4.0759
5.0676	4.0886
5.0627	4.1008
5.0577	4.1123
5.0528	4.1225
5.0479	4.1321
5.0430	4.1413
5.0380	4.1511
5.0332	4.1616
5.0283	4.1728
5.0234	4.1846
5.0185	4.1958
5.0137	4.2068
5.0088	4.2173
5.0040	4.2273
4.9992	4.2366
4.9944	4.2456
4.9896	4.2541
4.9848	4.2627
4.9800	4.2712
4.9752	4.2800
4.9704	4.2883
4.9657	4.2954
4.9609	4.3010
4.9562	4.3054
4.9514	4.3088
4.9467	4.3115
4.9420	4.3140
4.9373	4.3162
4.9326	4.3179
4.9279	4.3193
4.9232	4.3208
4.9186	4.3225
4.9139	4.3252
4.9092	4.3284
4.9046	4.3323
4.9000	4.3362
4.8953	4.3396
4.8907	4.3418
4.8861	4.3425
4.8815	4.3420
4.8769	4.3403
4.8723	4.3379
4.8678	4.3354
4.8632	4.3330
4.8586	4.3310
4.8541	4.3303
4.8495	4.3301
4.8450	4.3310
4.8405	4.3332
4.8360	4.3362
4.8315	4.3401
4.8270	4.3447
4.8225	4.3503
4.8180	4.3569
4.8135	4.3647
4.8090	4.3738
4.8046	4.3833
4.8001	4.3935
4.7957	4.4040
4.7913	4.4143
4.7868	4.4238
4.7824	4.4331
4.7780	4.4424
4.7736	4.4507
4.7692	4.4582
4.7648	4.4658
4.7605	4.4741
4.7561	4.4831
4.7517	4.4939
4.7474	4.5061
4.7431	4.5188
4.7387	4.5315
4.7344	4.5434
4.7301	4.5542
4.7258	4.5640
4.7215	4.5727
4.7172	4.5810
4.7129	4.5889
4.7086	4.5964
4.7043	4.6035
4.7000	4.6101
4.6958	4.6164
4.6915	4.6225
4.6873	4.6279
4.6831	4.6326
4.6788	4.6362
4.6746	4.6391
4.6704	4.6416
4.6662	4.6443
4.6620	4.6470
4.6578	4.6501
4.6536	4.6531
4.6495	4.6555
4.6453	4.6572
4.6411	4.6587
4.6370	4.6606
4.6328	4.6636
4.6287	4.6677
4.6246	4.6738
4.6205	4.6811
4.6163	4.6897
4.6122	4.6985
4.6081	4.7078
4.6040	4.7170
4.6000	4.7263
4.5959	4.7349
4.5918	4.7427
4.5877	4.7493
4.5837	4.7551
4.5796	4.7598
4.5756	4.7644
4.5716	4.7690
4.5675	4.7739
4.5635	4.7788
4.5595	4.7829
4.5555	4.7866
4.5515	4.7900
4.5475	4.7934
4.5435	4.7974
4.5395	4.8020
4.5356	4.8069
4.5316	4.8108
4.5276	4.8137
4.5237	4.8164
4.5197	4.8193
4.5158	4.8220
4.5119	4.8249
4.5080	4.8281
4.5040	4.8310
4.5001	4.8330
4.4962	4.8347
4.4923	4.8364
4.4884	4.8379
4.4846	4.8386
4.4807	4.8391
4.4768	4.8391
4.4730	4.8391
4.4691	4.8389
4.4652	4.8389
4.4614	4.8389
4.4576	4.8386
4.4537	4.8386
4.4499	4.8386
4.4461	4.8386
4.4423	4.8389
4.4385	4.8389
4.4347	4.8391
4.4309	4.8389
4.4271	4.8391
4.4233	4.8396
4.4196	4.8398
4.4158	4.8398
4.4120	4.8398
4.4083	4.8401
4.4045	4.8406
4.4008	4.8408
4.3971	4.8413
4.3934	4.8415
4.3896	4.8415
4.3859	4.8413
4.3822	4.8408
4.3785	4.8403
4.3748	4.8393
4.3711	4.8381
4.3674	4.8369
4.3638	4.8362
4.3601	4.8357
4.3564	4.8357
4.3528	4.8357
4.3491	4.8352
4.3455	4.8345
4.3418	4.8335
4.3382	4.8325
4.3346	4.8315
4.3310	4.8313
4.3273	4.8310
4.3237	4.8308
4.3201	4.8301
4.3165	4.8293
4.3129	4.8288
4.3094	4.8284
4.3058	4.8281
4.3022	4.8276
4.2986	4.8269
4.2951	4.8259
4.2915	4.8235
4.2880	4.8198
4.2844	4.8149
4.2809	4.8096
4.2774	4.8049
4.2738	4.8020
4.2703	4.8015
4.2668	4.8037
4.2633	4.8074
4.2598	4.8113
4.2563	4.8147
4.2528	4.8166
4.2493	4.8179
4.2458	4.8191
4.2424	4.8201
4.2389	4.8215
4.2354	4.8223
4.2320	4.8223
4.2285	4.8215
4.2251	4.8203
4.2216	4.8188
4.2182	4.8181
4.2148	4.8186
4.2113	4.8201
4.2079	4.8215
4.2045	4.8223
4.2011	4.8218
4.1977	4.8198
4.1943	4.8166
4.1909	4.8135
4.1875	4.8113
4.1841	4.8100
4.1808	4.8088
4.1774	4.8074
4.1740	4.8049
4.1707	4.8017
4.1673	4.7981
4.1640	4.7949
4.1606	4.7930
4.1573	4.7920
4.1540	4.7912
4.1506	4.7898
4.1473	4.7876
4.1440	4.7851
4.1407	4.7825
4.1374	4.7798
4.1341	4.7773
4.1308	4.7751
4.1275	4.7732
4.1242	4.7710
4.1209	4.7685
4.1177	4.7663
4.1144	4.7644
4.1111	4.7622
4.1079	4.7595
4.1046	4.7566
4.1014	4.7534
4.0981	4.7502
4.0949	4.7475
4.0917	4.7453
4.0884	4.7446
4.0852	4.7441
4.0820	4.7432
4.0788	4.7417
4.0756	4.7390
4.0724	4.7358
4.0692	4.7324
4.0660	4.7287
4.0628	4.7261
4.0596	4.7241
4.0565	4.7224
4.0533	4.7202
4.0501	4.7173
4.0470	4.7136
4.0438	4.7087
4.0406	4.7031
4.0375	4.6982
4.0344	4.6943
4.0312	4.6914
4.0281	4.6885
4.0250	4.6860
4.0218	4.6833
4.0187	4.6802
4.0156	4.6765
4.0125	4.6731
4.0094	4.6699
4.0063	4.6662
4.0032	4.6611
4.0001	4.6550
3.9970	4.6489
3.9940	4.6426
3.9909	4.6365
3.9878	4.6311
3.9847	4.6267
3.9817	4.6223
3.9786	4.6174
3.9756	4.6128
3.9725	4.6084
3.9695	4.6037
3.9665	4.5994
3.9634	4.5950
3.9604	4.5908
3.9574	4.5864
3.9544	4.5813
3.9513	4.5757
3.9483	4.5696
3.9453	4.5635
3.9423	4.5576
3.9393	4.5517
3.9363	4.5469
3.9333	4.5420
3.9304	4.5373
3.9274	4.5320
3.9244	4.5261
3.9214	4.5198
3.9185	4.5141
3.9155	4.5088
3.9126	4.5037
3.9096	4.4983
3.9067	4.4924
3.9037	4.4858
3.9008	4.4790
3.8979	4.4717
3.8949	4.4648
3.8920	4.4590
3.8891	4.4534
3.8862	4.4480
3.8833	4.4426
3.8804	4.4368
3.8775	4.4304
3.8746	4.4228
3.8717	4.4145
3.8688	4.4055
3.8659	4.3967
3.8630	4.3884
3.8601	4.3811
3.8573	4.3745
3.8544	4.3684
3.8515	4.3620
3.8487	4.3552
3.8458	4.3476
3.8430	4.3389
3.8401	4.3298
3.8373	4.3210
3.8344	4.3127
3.8316	4.3057
3.8288	4.3003
3.8259	4.2956
3.8231	4.2905
3.8203	4.2839
3.8175	4.2761
3.8147	4.2673
3.8119	4.2580
3.8091	4.2493
3.8063	4.2412
3.8035	4.2334
3.8007	4.2258
3.7979	4.2185
3.7951	4.2112
3.7924	4.2036
3.7896	4.1960
3.7868	4.1887
3.7841	4.1814
3.7813	4.1736
3.7785	4.1662
3.7758	4.1594
3.7730	4.1523
3.7703	4.1445
3.7676	4.1370
3.7648	4.1301
3.7621	4.1228
3.7594	4.1145
3.7566	4.1059
3.7539	4.0969
3.7512	4.0881
3.7485	4.0791
3.7458	4.0710
3.7431	4.0637
3.7404	4.0557
3.7377	4.0471
3.7350	4.0386
3.7323	4.0305
3.7296	4.0227
3.7269	4.0151
3.7242	4.0076
3.7216	3.9993
3.7189	3.9900
3.7162	3.9800
3.7136	3.9702
3.7109	3.9604
3.7083	3.9512
3.7056	3.9419
3.7030	3.9331
3.7003	3.9250
3.6977	3.9167
3.6950	3.9079
3.6924	3.8989
3.6898	3.8889
3.6872	3.8791
3.6845	3.8701
3.6819	3.8621
3.6793	3.8550
3.6767	3.8479
3.6741	3.8403
3.6715	3.8320
3.6689	3.8227
3.6663	3.8140
3.6637	3.8061
3.6611	3.7988
3.6585	3.7910
3.6560	3.7827
3.6534	3.7732
3.6508	3.7632
3.6482	3.7532
3.6457	3.7446
3.6431	3.7378
3.6406	3.7322
3.6380	3.7268
3.6355	3.7209
3.6329	3.7136
3.6304	3.7056
3.6278	3.6963
3.6253	3.6865
3.6227	3.6772
3.6202	3.6689
3.6177	3.6604
3.6152	3.6523
3.6127	3.6445
3.6101	3.6372
3.6076	3.6301
3.6051	3.6230
3.6026	3.6155
3.6001	3.6077
3.5976	3.5989
3.5951	3.5898
3.5926	3.5808
3.5901	3.5725
3.5876	3.5654
3.5852	3.5588
3.5827	3.5522
3.5802	3.5449
3.5777	3.5371
3.5753	3.5283
3.5728	3.5185
3.5704	3.5098
3.5679	3.5012
3.5654	3.4932
3.5630	3.4849
3.5605	3.4768
3.5581	3.4687
3.5557	3.4602
3.5532	3.4521
3.5508	3.4446
3.5484	3.4377
3.5459	3.4309
3.5435	3.4241
3.5411	3.4170
3.5387	3.4092
3.5363	3.3999
3.5338	3.3894
3.5314	3.3784
3.5290	3.3677
3.5266	3.3572
3.5242	3.3479
3.5218	3.3386
3.5195	3.3279
3.5171	3.3149
3.5147	3.2996
3.5123	3.2839
3.5099	3.2690
