Name:  Clinoptilolite (Na,K,Ca)2-3Al3(Al,Si)2Si13O36.12H2O 
Type:  Mineral
Class:   Silicates 
Subclass:   Tectosilicates (Framework silicates) (Zeolite Group)
Particle Size: Fine  (less than 2  Micrometers)
Sample No.:  clinopt.1
Owner:  JHU
Wavelength Range:  IR
Origin: Donated by W. J. Ehmann ;  Sample #7 from Castle Creek, 
Idaho. 
Description: The sample is a cream-colored earthy mass.  Because of 
the earthy nature of this mineral sample, there is little difference 
between the spectra of different particle size ranges. 
Petrographically it is clean and pure clinoptilolite.


Measurement:  Transmission 
First Column:  X
Second Column:  Y  
X Units:  Wavelength (micrometers)
Y Units:  Transmittance (percent)
First X Value:  25.0442
Last X Value:  2.079
Number of X Values:  2287
Additional Information: clinop1a.txt

25.044	60.301
24.924	59.367
24.805	58.976
24.686	58.611
24.569	58.129
24.454	57.980
24.339	57.590
24.225	56.525
24.112	55.846
24.001	55.394
23.890	54.908
23.781	54.209
23.672	53.838
23.564	53.363
23.458	52.949
23.352	51.762
23.247	50.697
23.144	49.829
23.041	48.934
22.939	47.746
22.838	46.407
22.738	45.113
22.638	43.536
22.540	42.145
22.442	40.805
22.345	39.750
22.250	38.889
22.154	38.324
22.060	37.996
21.967	38.153
21.874	38.388
21.782	38.605
21.691	38.842
21.601	39.058
21.511	39.412
21.422	39.515
21.334	39.903
21.247	40.412
21.160	41.394
21.074	42.653
20.988	44.114
20.904	45.601
20.820	47.200
20.737	48.883
20.654	50.547
20.572	52.154
20.491	53.700
20.410	55.318
20.330	56.686
20.251	58.034
20.172	59.316
20.094	60.514
20.016	61.616
19.939	62.704
19.863	63.686
19.787	64.528
19.712	65.266
19.637	65.762
19.563	66.064
19.489	66.288
19.416	66.450
19.344	66.522
19.272	66.618
19.201	66.668
19.130	66.698
19.059	66.808
18.990	66.904
18.920	67.362
18.851	67.668
18.783	68.256
18.715	68.820
18.648	69.435
18.581	69.915
18.515	70.471
18.449	70.784
18.384	70.967
18.319	71.184
18.254	71.327
18.190	71.439
18.126	71.432
18.063	71.462
18.001	71.421
17.938	71.432
17.876	71.394
17.815	71.287
17.754	71.198
17.693	71.086
17.633	70.965
17.573	70.719
17.514	70.612
17.455	70.555
17.396	70.313
17.338	70.136
17.280	70.082
17.223	69.907
17.166	69.704
17.109	69.471
17.053	69.118
16.997	68.735
16.942	68.171
16.886	67.716
16.832	67.032
16.777	66.295
16.723	65.492
16.669	64.535
16.616	63.639
16.563	62.858
16.510	62.236
16.458	61.760
16.406	61.750
16.354	62.091
16.302	62.590
16.251	63.306
16.200	64.231
16.150	65.111
16.100	66.050
16.050	66.957
16.000	67.721
15.951	68.502
15.902	69.241
15.854	69.875
15.805	70.365
15.757	70.803
15.710	71.221
15.662	71.548
15.615	71.786
15.568	71.902
15.521	72.045
15.475	72.107
15.429	72.225
15.383	72.164
15.338	72.208
15.292	72.121
15.248	72.034
15.203	71.896
15.158	71.743
15.114	71.568
15.070	71.282
15.027	71.016
14.983	70.800
14.940	70.646
14.897	70.505
14.854	70.429
14.812	70.451
14.770	70.551
14.728	70.758
14.686	70.828
14.645	71.018
14.603	71.212
14.562	71.383
14.521	71.494
14.481	71.616
14.441	71.697
14.400	71.679
14.361	71.740
14.321	71.747
14.281	71.805
14.242	71.744
14.203	71.685
14.164	71.534
14.126	71.399
14.087	71.257
14.049	71.175
14.011	71.159
13.973	71.089
13.936	71.040
13.899	70.988
13.861	70.998
13.824	70.927
13.788	70.965
13.751	70.974
13.715	71.059
13.679	71.165
13.643	71.277
13.607	71.400
13.571	71.531
13.536	71.669
13.500	71.840
13.465	72.047
13.430	72.132
13.396	72.231
13.361	72.392
13.327	72.544
13.293	72.674
13.259	72.820
13.225	72.990
13.191	73.117
13.158	73.268
13.124	73.328
13.091	73.432
13.058	73.523
13.026	73.565
12.993	73.598
12.960	73.560
12.928	73.545
12.896	73.536
12.864	73.510
12.832	73.560
12.800	73.539
12.769	73.536
12.737	73.602
12.706	73.565
12.675	73.664
12.644	73.780
12.614	73.929
12.583	74.205
12.552	74.316
12.522	74.598
12.492	74.858
12.462	75.240
12.432	75.712
12.402	76.171
12.373	76.620
12.343	77.148
12.314	77.836
12.285	78.330
12.256	78.760
12.227	79.323
12.198	79.736
12.169	80.110
12.141	80.552
12.113	80.735
12.084	81.070
12.056	81.049
12.028	81.220
12.000	81.159
11.973	81.103
11.945	80.877
11.918	80.649
11.890	80.310
11.863	79.877
11.836	79.506
11.809	78.951
11.782	78.365
11.755	77.786
11.729	77.167
11.702	76.572
11.676	75.984
11.650	75.434
11.624	74.787
11.598	74.254
11.572	73.660
11.546	73.033
11.520	72.437
11.495	71.927
11.469	71.372
11.444	70.804
11.419	70.334
11.394	69.836
11.369	69.385
11.344	68.964
11.319	68.682
11.294	68.369
11.270	68.164
11.245	68.018
11.221	67.753
11.197	67.573
11.173	67.387
11.149	67.226
11.125	67.002
11.101	66.832
11.077	66.625
11.054	66.425
11.030	66.298
11.007	66.161
10.983	66.032
10.960	65.858
10.937	65.757
10.914	65.550
10.891	65.376
10.868	65.253
10.846	65.095
10.823	64.857
10.800	64.632
10.778	64.464
10.755	64.191
10.733	63.993
10.711	63.797
10.689	63.503
10.667	63.087
10.645	62.689
10.623	62.180
10.602	61.555
10.580	60.920
10.558	60.311
10.537	59.658
10.516	58.898
10.494	58.108
10.473	57.232
10.452	56.318
10.431	55.376
10.410	54.347
10.389	53.287
10.368	52.176
10.348	50.990
10.327	49.665
10.306	48.337
10.286	46.951
10.266	45.513
10.245	44.010
10.225	42.461
10.205	40.875
10.185	39.248
10.165	37.657
10.145	36.050
10.125	34.449
10.106	32.869
10.086	31.352
10.066	29.865
10.047	28.425
10.027	27.028
10.008	25.716
9.9887	24.463
9.9695	23.285
9.9504	22.199
9.9313	21.136
9.9123	20.154
9.8934	19.248
9.8746	18.425
9.8558	17.626
9.8371	16.857
9.8185	16.162
9.7999	15.496
9.7814	14.881
9.7630	14.336
9.7447	13.843
9.7264	13.366
9.7082	12.937
9.6900	12.531
9.6719	12.165
9.6539	11.836
9.6360	11.543
9.6181	11.284
9.6003	11.056
9.5825	10.872
9.5649	10.748
9.5472	10.649
9.5297	10.568
9.5122	10.523
9.4948	10.501
9.4774	10.492
9.4601	10.498
9.4429	10.529
9.4257	10.598
9.4086	10.670
9.3916	10.777
9.3746	10.887
9.3577	11.013
9.3408	11.193
9.3240	11.396
9.3073	11.633
9.2906	11.902
9.2740	12.214
9.2574	12.573
9.2409	12.977
9.2245	13.411
9.2081	13.885
9.1918	14.396
9.1755	14.913
9.1593	15.451
9.1431	16.008
9.1270	16.612
9.1110	17.210
9.0950	17.813
9.0791	18.451
9.0632	19.081
9.0474	19.656
9.0316	20.250
9.0159	20.835
9.0003	21.403
8.9847	21.913
8.9691	22.408
8.9536	22.874
8.9382	23.335
8.9228	23.736
8.9075	24.145
8.8922	24.560
8.8770	24.910
8.8618	25.236
8.8467	25.579
8.8316	25.922
8.8166	26.263
8.8016	26.594
8.7867	26.919
8.7718	27.257
8.7570	27.614
8.7422	27.966
8.7275	28.322
8.7129	28.672
8.6982	29.051
8.6837	29.397
8.6692	29.743
8.6547	30.098
8.6403	30.475
8.6259	30.863
8.6116	31.250
8.5973	31.667
8.5830	32.083
8.5688	32.531
8.5547	32.974
8.5406	33.416
8.5266	33.876
8.5126	34.350
8.4986	34.830
8.4847	35.349
8.4708	35.894
8.4570	36.435
8.4432	37.015
8.4295	37.574
8.4158	38.146
8.4022	38.711
8.3886	39.297
8.3750	39.868
8.3615	40.438
8.3481	40.980
8.3347	41.505
8.3213	42.059
8.3079	42.612
8.2946	43.155
8.2814	43.702
8.2682	44.325
8.2550	45.010
8.2419	45.820
8.2288	46.760
8.2158	47.850
8.2028	49.143
8.1898	50.574
8.1769	52.156
8.1640	53.862
8.1512	55.704
8.1384	57.556
8.1256	59.413
8.1129	61.206
8.1002	62.930
8.0876	64.555
8.0750	66.053
8.0624	67.485
8.0499	68.730
8.0374	69.881
8.0250	70.912
8.0126	71.861
8.0002	72.692
7.9879	73.482
7.9756	74.187
7.9634	74.815
7.9512	75.406
7.9390	75.963
7.9268	76.483
7.9147	76.937
7.9027	77.444
7.8906	77.867
7.8786	78.260
7.8667	78.641
7.8548	79.000
7.8429	79.349
7.8310	79.648
7.8192	79.976
7.8075	80.259
7.7957	80.537
7.7840	80.795
7.7723	81.050
7.7607	81.267
7.7491	81.513
7.7375	81.804
7.7260	82.000
7.7145	82.182
7.7031	82.369
7.6916	82.552
7.6802	82.688
7.6689	82.877
7.6575	83.056
7.6462	83.200
7.6350	83.335
7.6238	83.493
7.6126	83.637
7.6014	83.734
7.5903	83.911
7.5792	84.035
7.5681	84.180
7.5571	84.295
7.5461	84.445
7.5351	84.553
7.5242	84.673
7.5133	84.781
7.5024	84.883
7.4916	84.993
7.4807	85.096
7.4700	85.216
7.4592	85.259
7.4485	85.370
7.4378	85.478
7.4272	85.549
7.4165	85.606
7.4059	85.704
7.3954	85.754
7.3848	85.805
7.3743	85.856
7.3639	85.911
7.3534	85.969
7.3430	86.043
7.3326	86.080
7.3223	86.100
7.3119	86.159
7.3016	86.223
7.2914	86.248
7.2811	86.261
7.2709	86.304
7.2607	86.339
7.2506	86.342
7.2404	86.358
7.2303	86.398
7.2203	86.403
7.2102	86.391
7.2002	86.380
7.1902	86.362
7.1803	86.313
7.1703	86.288
7.1604	86.239
7.1506	86.226
7.1407	86.262
7.1309	86.346
7.1211	86.407
7.1113	86.467
7.1016	86.553
7.0919	86.619
7.0822	86.687
7.0725	86.755
7.0629	86.817
7.0533	86.857
7.0437	86.919
7.0341	86.953
7.0246	87.009
7.0151	87.046
7.0056	87.094
6.9962	87.121
6.9867	87.136
6.9773	87.196
6.9679	87.220
6.9586	87.271
6.9493	87.285
6.9400	87.336
6.9307	87.372
6.9214	87.409
6.9122	87.436
6.9030	87.432
6.8938	87.435
6.8847	87.434
6.8755	87.407
6.8664	87.384
6.8573	87.402
6.8483	87.437
6.8393	87.458
6.8302	87.512
6.8213	87.568
6.8123	87.618
6.8034	87.673
6.7944	87.774
6.7855	87.858
6.7767	87.921
6.7678	88.000
6.7590	88.073
6.7502	88.138
6.7414	88.190
6.7327	88.260
6.7239	88.299
6.7152	88.358
6.7065	88.418
6.6979	88.492
6.6892	88.527
6.6806	88.594
6.6720	88.657
6.6634	88.690
6.6549	88.756
6.6464	88.793
6.6378	88.846
6.6294	88.848
6.6209	88.886
6.6124	88.919
6.6040	88.935
6.5956	88.953
6.5872	88.996
6.5789	89.007
6.5705	89.011
6.5622	89.025
6.5539	89.024
6.5456	89.030
6.5374	89.041
6.5292	89.060
6.5209	89.076
6.5128	89.102
6.5046	89.116
6.4964	89.089
6.4883	89.103
6.4802	89.125
6.4721	89.146
6.4640	89.143
6.4560	89.159
6.4480	89.160
6.4399	89.131
6.4320	89.157
6.4240	89.159
6.4160	89.158
6.4081	89.149
6.4002	89.166
6.3923	89.152
6.3844	89.148
6.3766	89.144
6.3687	89.141
6.3609	89.103
6.3531	89.052
6.3454	89.029
6.3376	88.982
6.3299	88.950
6.3221	88.935
6.3144	88.880
6.3068	88.825
6.2991	88.765
6.2914	88.713
6.2838	88.622
6.2762	88.556
6.2686	88.464
6.2611	88.336
6.2535	88.202
6.2460	88.095
6.2385	87.942
6.2310	87.736
6.2235	87.535
6.2160	87.291
6.2086	86.999
6.2011	86.688
6.1937	86.348
6.1863	85.942
6.1790	85.453
6.1716	84.915
6.1643	84.323
6.1570	83.689
6.1496	83.093
6.1424	82.610
6.1351	82.186
6.1278	81.881
6.1206	81.658
6.1134	81.514
6.1062	81.453
6.0990	81.501
6.0918	81.609
6.0847	81.718
6.0776	81.893
6.0704	82.083
6.0633	82.270
6.0563	82.490
6.0492	82.718
6.0421	82.893
6.0351	83.089
6.0281	83.320
6.0211	83.608
6.0141	83.950
6.0071	84.299
6.0002	84.602
5.9932	84.881
5.9863	85.150
5.9794	85.415
5.9725	85.634
5.9657	85.863
5.9588	86.118
5.9520	86.368
5.9451	86.587
5.9383	86.794
5.9315	87.012
5.9247	87.204
5.9180	87.406
5.9112	87.565
5.9045	87.717
5.8978	87.877
5.8911	88.008
5.8844	88.134
5.8777	88.258
5.8711	88.400
5.8644	88.524
5.8578	88.627
5.8512	88.712
5.8446	88.825
5.8380	88.936
5.8314	89.030
5.8249	89.113
5.8184	89.174
5.8118	89.252
5.8053	89.349
5.7988	89.433
5.7923	89.442
5.7859	89.488
5.7794	89.560
5.7730	89.608
5.7666	89.650
5.7602	89.693
5.7538	89.746
5.7474	89.781
5.7410	89.840
5.7347	89.869
5.7283	89.888
5.7220	89.924
5.7157	89.966
5.7094	89.990
5.7031	90.020
5.6969	90.061
5.6906	90.080
5.6844	90.096
5.6782	90.114
5.6719	90.122
5.6657	90.132
5.6596	90.147
5.6534	90.156
5.6472	90.149
5.6411	90.170
5.6349	90.201
5.6288	90.208
5.6227	90.203
5.6166	90.228
5.6106	90.225
5.6045	90.208
5.5984	90.205
5.5924	90.209
5.5864	90.205
5.5804	90.195
5.5744	90.218
5.5684	90.218
5.5624	90.223
5.5564	90.268
5.5505	90.273
5.5445	90.270
5.5386	90.278
5.5327	90.301
5.5268	90.295
5.5209	90.290
5.5151	90.302
5.5092	90.310
5.5033	90.310
5.4975	90.319
5.4917	90.339
5.4859	90.334
5.4801	90.365
5.4743	90.377
5.4685	90.364
5.4628	90.368
5.4570	90.374
5.4513	90.409
5.4455	90.411
5.4398	90.420
5.4341	90.395
5.4284	90.418
5.4228	90.431
5.4171	90.450
5.4114	90.450
5.4058	90.464
5.4002	90.489
5.3945	90.480
5.3889	90.505
5.3833	90.505
5.3778	90.516
5.3722	90.539
5.3666	90.569
5.3611	90.588
5.3555	90.591
5.3500	90.604
5.3445	90.629
5.3390	90.634
5.3335	90.633
5.3280	90.662
5.3225	90.679
5.3171	90.695
5.3116	90.731
5.3062	90.761
5.3008	90.744
5.2954	90.759
5.2900	90.778
5.2846	90.770
5.2792	90.799
5.2738	90.819
5.2684	90.818
5.2631	90.829
5.2578	90.851
5.2524	90.861
5.2471	90.854
5.2418	90.882
5.2365	90.886
5.2312	90.893
5.2260	90.889
5.2207	90.903
5.2154	90.925
5.2102	90.921
5.2050	90.936
5.1998	90.943
5.1945	90.935
5.1893	90.963
5.1842	91.015
5.1790	91.022
5.1738	91.022
5.1686	91.024
5.1635	91.009
5.1584	91.022
5.1532	91.031
5.1481	91.053
5.1430	91.040
5.1379	91.054
5.1328	91.063
5.1277	91.079
5.1227	91.102
5.1176	91.128
5.1126	91.136
5.1075	91.140
5.1025	91.168
5.0975	91.170
5.0925	91.186
5.0875	91.186
5.0825	91.189
5.0775	91.200
5.0726	91.195
5.0676	91.200
5.0627	91.199
5.0577	91.224
5.0528	91.235
5.0479	91.229
5.0430	91.229
5.0380	91.227
5.0332	91.267
5.0283	91.296
5.0234	91.296
5.0185	91.283
5.0137	91.308
5.0088	91.309
5.0040	91.304
4.9992	91.294
4.9944	91.326
4.9896	91.326
4.9848	91.318
4.9800	91.319
4.9752	91.340
4.9704	91.360
4.9657	91.340
4.9609	91.351
4.9562	91.346
4.9514	91.382
4.9467	91.391
4.9420	91.389
4.9373	91.381
4.9326	91.376
4.9279	91.370
4.9232	91.358
4.9186	91.377
4.9139	91.368
4.9092	91.380
4.9046	91.380
4.9000	91.388
4.8953	91.397
4.8907	91.387
4.8861	91.396
4.8815	91.393
4.8769	91.400
4.8723	91.395
4.8678	91.394
4.8632	91.390
4.8586	91.384
4.8541	91.382
4.8495	91.375
4.8450	91.388
4.8405	91.408
4.8360	91.413
4.8315	91.414
4.8270	91.427
4.8225	91.424
4.8180	91.410
4.8135	91.400
4.8090	91.383
4.8046	91.405
4.8001	91.413
4.7957	91.425
4.7913	91.394
4.7868	91.382
4.7824	91.363
4.7780	91.349
4.7736	91.344
4.7692	91.339
4.7648	91.337
4.7605	91.312
4.7561	91.331
4.7517	91.312
4.7474	91.323
4.7431	91.298
4.7387	91.294
4.7344	91.328
4.7301	91.300
4.7258	91.306
4.7215	91.291
4.7172	91.284
4.7129	91.260
4.7086	91.248
4.7043	91.232
4.7000	91.242
4.6958	91.240
4.6915	91.225
4.6873	91.233
4.6831	91.221
4.6788	91.222
4.6746	91.235
4.6704	91.257
4.6662	91.251
4.6620	91.254
4.6578	91.244
4.6536	91.259
4.6495	91.267
4.6453	91.260
4.6411	91.265
4.6370	91.279
4.6328	91.279
4.6287	91.266
4.6246	91.266
4.6205	91.259
4.6163	91.272
4.6122	91.284
4.6081	91.274
4.6040	91.279
4.6000	91.285
4.5959	91.284
4.5918	91.263
4.5877	91.289
4.5837	91.297
4.5796	91.272
4.5756	91.255
4.5716	91.251
4.5675	91.239
4.5635	91.225
4.5595	91.239
4.5555	91.243
4.5515	91.235
4.5475	91.221
4.5435	91.223
4.5395	91.221
4.5356	91.217
4.5316	91.224
4.5276	91.220
4.5237	91.200
4.5197	91.181
4.5158	91.201
4.5119	91.188
4.5080	91.184
4.5040	91.187
4.5001	91.182
4.4962	91.199
4.4923	91.223
4.4884	91.244
4.4846	91.250
4.4807	91.240
4.4768	91.253
4.4730	91.235
4.4691	91.192
4.4652	91.200
4.4614	91.161
4.4576	91.139
4.4537	91.139
4.4499	91.128
4.4461	91.124
4.4423	91.134
4.4385	91.161
4.4347	91.143
4.4309	91.154
4.4271	91.185
4.4233	91.183
4.4196	91.157
4.4158	91.158
4.4120	91.138
4.4083	91.125
4.4045	91.127
4.4008	91.136
4.3971	91.129
4.3934	91.139
4.3896	91.154
4.3859	91.148
4.3822	91.146
4.3785	91.167
4.3748	91.172
4.3711	91.166
4.3674	91.153
4.3638	91.124
4.3601	91.119
4.3564	91.165
4.3528	91.182
4.3491	91.159
4.3455	91.186
4.3418	91.196
4.3382	91.191
4.3346	91.224
4.3310	91.251
4.3273	91.238
4.3237	91.205
4.3201	91.215
4.3165	91.217
4.3129	91.208
4.3094	91.192
4.3058	91.193
4.3022	91.162
4.2986	91.134
4.2951	91.131
4.2915	91.133
4.2880	91.137
4.2844	91.133
4.2809	91.140
4.2774	91.142
4.2738	91.166
4.2703	91.161
4.2668	91.148
4.2633	91.160
4.2598	91.174
4.2563	91.183
4.2528	91.170
4.2493	91.190
4.2458	91.200
4.2424	91.183
4.2389	91.175
4.2354	91.217
4.2320	91.200
4.2285	91.189
4.2251	91.219
4.2216	91.213
4.2182	91.182
4.2148	91.168
4.2113	91.159
4.2079	91.170
4.2045	91.182
4.2011	91.179
4.1977	91.171
4.1943	91.202
4.1909	91.201
4.1875	91.204
4.1841	91.179
4.1808	91.209
4.1774	91.226
4.1740	91.221
4.1707	91.232
4.1673	91.228
4.1640	91.225
4.1606	91.194
4.1573	91.180
4.1540	91.176
4.1506	91.173
4.1473	91.167
4.1440	91.148
4.1407	91.145
4.1374	91.164
4.1341	91.161
4.1308	91.156
4.1275	91.190
4.1242	91.197
4.1209	91.201
4.1177	91.196
4.1144	91.233
4.1111	91.253
4.1079	91.247
4.1046	91.251
4.1014	91.243
4.0981	91.235
4.0949	91.229
4.0917	91.253
4.0884	91.240
4.0852	91.227
4.0820	91.243
4.0788	91.233
4.0756	91.238
4.0724	91.220
4.0692	91.231
4.0660	91.217
4.0628	91.220
4.0596	91.198
4.0565	91.209
4.0533	91.237
4.0501	91.240
4.0470	91.222
4.0438	91.201
4.0406	91.217
4.0375	91.209
4.0344	91.223
4.0312	91.217
4.0281	91.188
4.0250	91.179
4.0218	91.157
4.0187	91.173
4.0156	91.162
4.0125	91.135
4.0094	91.150
4.0063	91.168
4.0032	91.135
4.0001	91.122
3.9970	91.123
3.9940	91.153
3.9909	91.140
3.9878	91.124
3.9847	91.118
3.9817	91.106
3.9786	91.119
3.9756	91.124
3.9725	91.124
3.9695	91.099
3.9665	91.082
3.9634	91.084
3.9604	91.058
3.9574	91.070
3.9544	91.060
3.9513	91.063
3.9483	91.078
3.9453	91.100
3.9423	91.104
3.9393	91.091
3.9363	91.107
3.9333	91.101
3.9304	91.095
3.9274	91.107
3.9244	91.133
3.9214	91.110
3.9185	91.080
3.9155	91.075
3.9126	91.092
3.9096	91.088
3.9067	91.063
3.9037	91.044
3.9008	91.062
3.8979	91.087
3.8949	91.087
3.8920	91.069
3.8891	91.066
3.8862	91.063
3.8833	91.037
3.8804	91.020
3.8775	91.033
3.8746	91.011
3.8717	90.970
3.8688	90.932
3.8659	90.941
3.8630	90.943
3.8601	90.957
3.8573	90.974
3.8544	90.950
3.8515	90.944
3.8487	90.935
3.8458	90.933
3.8430	90.909
3.8401	90.885
3.8373	90.884
3.8344	90.910
3.8316	90.877
3.8288	90.861
3.8259	90.875
3.8231	90.864
3.8203	90.852
3.8175	90.839
3.8147	90.840
3.8119	90.853
3.8091	90.845
3.8063	90.821
3.8035	90.804
3.8007	90.805
3.7979	90.778
3.7951	90.776
3.7924	90.786
3.7896	90.787
3.7868	90.793
3.7841	90.766
3.7813	90.747
3.7785	90.760
3.7758	90.761
3.7730	90.758
3.7703	90.737
3.7676	90.701
3.7648	90.678
3.7621	90.658
3.7594	90.646
3.7566	90.611
3.7539	90.596
3.7512	90.580
3.7485	90.555
3.7458	90.566
3.7431	90.554
3.7404	90.553
3.7377	90.529
3.7350	90.535
3.7323	90.487
3.7296	90.467
3.7269	90.448
3.7242	90.407
3.7216	90.394
3.7189	90.398
3.7162	90.355
3.7136	90.298
3.7109	90.285
3.7083	90.274
3.7056	90.252
3.7030	90.234
3.7003	90.216
3.6977	90.218
3.6950	90.202
3.6924	90.211
3.6898	90.212
3.6872	90.201
3.6845	90.171
3.6819	90.151
3.6793	90.114
3.6767	90.090
3.6741	90.101
3.6715	90.066
3.6689	90.023
3.6663	89.995
3.6637	89.985
3.6611	89.978
3.6585	89.978
3.6560	89.939
3.6534	89.919
3.6508	89.926
3.6482	89.921
3.6457	89.873
3.6431	89.850
3.6406	89.839
3.6380	89.819
3.6355	89.810
3.6329	89.743
3.6304	89.715
3.6278	89.705
3.6253	89.658
3.6227	89.610
3.6202	89.612
3.6177	89.561
3.6152	89.549
3.6127	89.510
3.6101	89.489
3.6076	89.459
3.6051	89.440
3.6026	89.415
3.6001	89.405
3.5976	89.395
3.5951	89.371
3.5926	89.382
3.5901	89.380
3.5876	89.341
3.5852	89.304
3.5827	89.302
3.5802	89.290
3.5777	89.241
3.5753	89.186
3.5728	89.159
3.5704	89.134
3.5679	89.109
3.5654	89.083
3.5630	89.044
3.5605	89.008
3.5581	88.998
3.5557	88.958
3.5532	88.902
3.5508	88.858
3.5484	88.826
3.5459	88.785
3.5435	88.747
3.5411	88.704
3.5387	88.704
3.5363	88.688
3.5338	88.646
3.5314	88.563
3.5290	88.537
3.5266	88.513
3.5242	88.449
3.5218	88.380
3.5195	88.326
3.5171	88.261
3.5147	88.146
3.5123	88.047
3.5099	87.945
3.5075	87.862
3.5052	87.798
3.5028	87.710
3.5004	87.666
3.4981	87.647
