Name: Spotted Hornfels 
Type:  Rocks
Class: Metamorphic 
Subclass: Hornfels 
Particle Size:  500-1500 Micrometer
Sample No.:  hornfe3.doc
Owner:  JHU
Wavelength Range:  All
Origin:  Sample No. 472, The Hunt and Salisbury Collection at the U.S. 
Geological Survey, Denver, Co.
Description: This rock consists of a fine-grained to microcrystalline groundmass 
with a pleochroic brown phase (biotite?), opaques, cordierite and possibly some 
feldpsar.  Large porphyroblasts of cordierite with heavy concentrations of tiny 
sillimanite needles are rimmed with cordierite and opaque granules.


Measurement:  Directional (10 Degree) Hemispherical Reflectance
First Column:  X
Second Column:  Y  
X Units:  Wavelength (micrometers)
Y Units:  Reflectance (percent)
First X Value: 14.9831
Last X Value:  0.4
Number of X Values: 2868
Additional Information:  None

14.9831	1.6804
14.9399	1.6066
14.897	1.779
14.8543	1.7894
14.8119	1.7567
14.7697	1.8415
14.7277	1.8462
14.686	1.9627
14.6445	1.9618
14.6033	1.7913
14.5622	1.7849
14.5214	1.9251
14.4809	1.9561
14.4405	1.9736
14.4004	2.0615
14.3605	2.1086
14.3209	2.0937
14.2814	2.0698
14.2422	2.0854
14.2032	2.1183
14.1643	2.1157
14.1258	2.1053
14.0874	2.1446
14.0492	2.1782
14.0112	2.1808
13.9734	2.2147
13.9359	2.2244
13.8985	2.2675
13.8614	2.2654
13.8244	2.2677
13.7876	2.2564
13.7511	2.2694
13.7147	2.2566
13.6785	2.2306
13.6425	2.2614
13.6067	2.3125
13.5711	2.3466
13.5356	2.3255
13.5004	2.3516
13.4653	2.4127
13.4304	2.4357
13.3957	2.4551
13.3612	2.457
13.3269	2.4536
13.2927	2.4667
13.2587	2.5053
13.2249	2.5505
13.1912	2.6197
13.1577	2.6909
13.1244	2.7499
13.0913	2.8214
13.0583	2.8939
13.0255	2.9161
12.9929	2.9195
12.9604	2.918
12.9281	2.9067
12.8959	2.8977
12.8639	2.8787
12.8321	2.8335
12.8004	2.7764
12.7688	2.7182
12.7375	2.6199
12.7063	2.4785
12.6752	2.3812
12.6443	2.3168
12.6135	2.2393
12.5829	2.2303
12.5524	2.236
12.5221	2.2197
12.4919	2.2187
12.4619	2.2007
12.432	2.1403
12.4023	2.0868
12.3727	2.029
12.3432	1.9753
12.3139	1.963
12.2847	1.9883
12.2557	2.0212
12.2268	2.0705
12.198	2.1219
12.1694	2.1825
12.1409	2.2256
12.1125	2.2618
12.0843	2.3023
12.0562	2.33
12.0282	2.3648
12.0003	2.4165
11.9726	2.4596
11.945	2.5081
11.9176	2.5642
11.8903	2.5927
11.8631	2.6324
11.836	2.6954
11.809	2.7276
11.7822	2.7589
11.7555	2.816
11.7289	2.8667
11.7024	2.9081
11.676	2.9498
11.6498	2.9889
11.6237	3.0327
11.5977	3.0668
11.5718	3.1018
11.546	3.1461
11.5203	3.1672
11.4948	3.216
11.4694	3.279
11.444	3.3055
11.4188	3.3571
11.3937	3.422
11.3688	3.4632
11.3439	3.4978
11.3191	3.5442
11.2944	3.5913
11.2699	3.6396
11.2455	3.6976
11.2211	3.7687
11.1969	3.8326
11.1727	3.9082
11.1487	3.9996
11.1248	4.086
11.101	4.1672
11.0773	4.2411
11.0536	4.301
11.0301	4.3494
11.0067	4.3828
10.9834	4.3749
10.9602	4.3418
10.937	4.3356
10.914	4.3309
10.8911	4.301
10.8682	4.252
10.8455	4.1959
10.8229	4.1426
10.8003	4.1478
10.7779	4.234
10.7555	4.3648
10.7332	4.5113
10.7111	4.6589
10.689	4.8005
10.667	4.9627
10.6451	5.1072
10.6233	5.2194
10.6015	5.331
10.5799	5.4406
10.5584	5.554
10.5369	5.68
10.5155	5.8096
10.4942	5.941
10.473	6.0788
10.4519	6.2005
10.4309	6.3159
10.4099	6.4007
10.3891	6.4388
10.3683	6.4653
10.3476	6.4826
10.327	6.4992
10.3065	6.5008
10.286	6.5276
10.2656	6.5477
10.2454	6.5686
10.2251	6.5977
10.205	6.6138
10.185	6.6413
10.165	6.672
10.1451	6.7121
10.1253	6.7358
10.1056	6.7509
10.0859	6.7625
10.0663	6.7668
10.0468	6.7824
10.0274	6.7746
10.008	6.7616
9.9887	6.7746
9.9695	6.8196
9.9504	6.8764
9.9313	6.9437
9.9123	7.0266
9.8934	7.1151
9.8746	7.1708
9.8558	7.2068
9.8371	7.2631
9.8185	7.3126
9.7999	7.3342
9.7814	7.3657
9.763	7.4187
9.7447	7.4789
9.7264	7.5187
9.7082	7.5698
9.69	7.5982
9.6719	7.6283
9.6539	7.6896
9.636	7.7526
9.6181	7.7927
9.6003	7.8462
9.5825	7.8938
9.5649	7.9141
9.5472	7.9409
9.5297	7.9542
9.5122	7.9525
9.4948	7.9667
9.4774	7.9942
9.4601	8.0089
9.4429	8.0075
9.4257	8.0032
9.4086	7.9975
9.3916	8.0318
9.3746	8.1202
9.3577	8.2248
9.3408	8.316
9.324	8.3996
9.3073	8.4337
9.2906	8.4366
9.274	8.4314
9.2574	8.3937
9.2409	8.3501
9.2245	8.3167
9.2081	8.2642
9.1918	8.1964
9.1755	8.1249
9.1593	8.0411
9.1431	7.9572
9.127	7.9035
9.111	7.8324
9.095	7.7363
9.0791	7.6501
9.0632	7.5769
9.0474	7.5336
9.0316	7.491
9.0159	7.4232
9.0003	7.3723
8.9847	7.3205
8.9691	7.2665
8.9536	7.2151
8.9382	7.1755
8.9228	7.1594
8.9075	7.1696
8.8922	7.1916
8.877	7.208
8.8618	7.2487
8.8467	7.3096
8.8316	7.3863
8.8166	7.4595
8.8016	7.5329
8.7867	7.5873
8.7718	7.6484
8.757	7.7086
8.7422	7.7155
8.7275	7.6567
8.7129	7.5881
8.6982	7.526
8.6837	7.4547
8.6692	7.3427
8.6547	7.1919
8.6403	7.0424
8.6259	7.0469
8.6116	7.2596
8.5973	7.5442
8.583	7.7687
8.5688	7.9189
8.5547	8.0498
8.5406	8.2071
8.5266	8.3399
8.5126	8.4264
8.4986	8.5138
8.4847	8.5699
8.4708	8.5839
8.457	8.5862
8.4432	8.5969
8.4295	8.5936
8.4158	8.5727
8.4022	8.5483
8.3886	8.5242
8.375	8.4863
8.3615	8.4328
8.3481	8.3676
8.3347	8.2973
8.3213	8.2355
8.3079	8.1571
8.2946	8.0617
8.2814	7.9755
8.2682	7.899
8.255	7.8187
8.2419	7.7152
8.2288	7.6042
8.2158	7.4817
8.2028	7.3408
8.1898	7.1689
8.1769	6.9529
8.164	6.6851
8.1512	6.3488
8.1384	5.9647
8.1256	5.5872
8.1129	5.2232
8.1002	4.868
8.0876	4.5625
8.075	4.284
8.0624	4.0183
8.0499	3.7796
8.0374	3.575
8.025	3.3926
8.0126	3.2209
8.0002	3.0649
7.9879	2.9275
7.9756	2.7928
7.9634	2.6625
7.9512	2.5422
7.939	2.4304
7.9268	2.3206
7.9147	2.2209
7.9027	2.1411
7.8906	2.062
7.8786	1.9935
7.8667	1.9289
7.8548	1.8772
7.8429	1.8289
7.831	1.7771
7.8192	1.7378
7.8075	1.7034
7.7957	1.6759
7.784	1.6679
7.7723	1.6551
7.7607	1.6328
7.7491	1.6191
7.7375	1.6035
7.726	1.5905
7.7145	1.5658
7.7031	1.5443
7.6916	1.5346
7.6802	1.526
7.6689	1.5035
7.6575	1.4784
7.6462	1.4713
7.635	1.4567
7.6238	1.4325
7.6126	1.4171
7.6014	1.4072
7.5903	1.3932
7.5792	1.3707
7.5681	1.3615
7.5571	1.361
7.5461	1.3607
7.5351	1.3586
7.5242	1.3435
7.5133	1.3285
7.5024	1.3129
7.4916	1.3112
7.4807	1.3063
7.47	1.3084
7.4592	1.3091
7.4485	1.2978
7.4378	1.2928
7.4272	1.2909
7.4165	1.2852
7.4059	1.2866
7.3954	1.2985
7.3848	1.2975
7.3743	1.2871
7.3639	1.2904
7.3534	1.3079
7.343	1.3077
7.3326	1.3046
7.3223	1.3101
7.3119	1.306
7.3016	1.3051
7.2914	1.3122
7.2811	1.3181
7.2709	1.3198
7.2607	1.3271
7.2506	1.3449
7.2404	1.3543
7.2303	1.3695
7.2203	1.3885
7.2102	1.3728
7.2002	1.3612
7.1902	1.3795
7.1803	1.3946
7.1703	1.3875
7.1604	1.3965
7.1506	1.4064
7.1407	1.4095
7.1309	1.419
7.1211	1.4287
7.1113	1.4432
7.1016	1.4372
7.0919	1.4346
7.0822	1.4526
7.0725	1.4564
7.0629	1.4477
7.0533	1.4474
7.0437	1.4619
7.0341	1.4675
7.0246	1.4675
7.0151	1.4744
7.0056	1.4699
6.9962	1.4735
6.9867	1.4782
6.9773	1.4938
6.9679	1.4863
6.9586	1.4898
6.9493	1.4983
6.94	1.496
6.9307	1.4988
6.9214	1.4945
6.9122	1.4934
6.903	1.4891
6.8938	1.4713
6.8847	1.4723
6.8755	1.4889
6.8664	1.4863
6.8573	1.4815
6.8483	1.4806
6.8393	1.4782
6.8302	1.4792
6.8213	1.4763
6.8123	1.4749
6.8034	1.4806
6.7944	1.4773
6.7855	1.4756
6.7767	1.4924
6.7678	1.4898
6.759	1.4955
6.7502	1.5033
6.7414	1.5104
6.7327	1.514
6.7239	1.5064
6.7152	1.5123
6.7065	1.526
6.6979	1.532
6.6892	1.5251
6.6806	1.5315
6.672	1.5497
6.6634	1.5519
6.6549	1.5559
6.6464	1.5646
6.6378	1.5696
6.6294	1.5715
6.6209	1.5781
6.6124	1.5701
6.604	1.5573
6.5956	1.5604
6.5872	1.5682
6.5789	1.5784
6.5705	1.5805
6.5622	1.5786
6.5539	1.5883
6.5456	1.586
6.5374	1.5926
6.5292	1.6021
6.5209	1.6165
6.5128	1.6371
6.5046	1.6499
6.4964	1.6463
6.4883	1.6478
6.4802	1.6532
6.4721	1.6551
6.464	1.6497
6.456	1.6433
6.448	1.6416
6.4399	1.6504
6.432	1.6489
6.424	1.6364
6.416	1.6148
6.4081	1.6122
6.4002	1.6148
6.3923	1.6108
6.3844	1.6013
6.3766	1.5961
6.3687	1.6011
6.3609	1.595
6.3531	1.5881
6.3454	1.5895
6.3376	1.5905
6.3299	1.5826
6.3221	1.5706
6.3144	1.5627
6.3068	1.5528
6.2991	1.5488
6.2914	1.5462
6.2838	1.5398
6.2762	1.5402
6.2686	1.5395
6.2611	1.5279
6.2535	1.5196
6.246	1.5234
6.2385	1.5291
6.231	1.5305
6.2235	1.535
6.216	1.5469
6.2086	1.5315
6.2011	1.5187
6.1937	1.5388
6.1863	1.5533
6.179	1.5573
6.1716	1.5568
6.1643	1.5642
6.157	1.5867
6.1496	1.5935
6.1424	1.5952
6.1351	1.5945
6.1278	1.5902
6.1206	1.599
6.1134	1.6068
6.1062	1.6134
6.099	1.6274
6.0918	1.6272
6.0847	1.6283
6.0776	1.643
6.0704	1.6613
6.0633	1.6636
6.0563	1.6696
6.0492	1.6842
6.0421	1.6875
6.0351	1.6918
6.0281	1.706
6.0211	1.715
6.0141	1.7226
6.0071	1.734
6.0002	1.7368
5.9932	1.7418
5.9863	1.7531
5.9794	1.7683
5.9725	1.7598
5.9657	1.7486
5.9588	1.7624
5.952	1.7756
5.9451	1.7771
5.9383	1.7827
5.9315	1.7958
5.9247	1.7979
5.918	1.7984
5.9112	1.801
5.9045	1.8214
5.8978	1.8346
5.8911	1.851
5.8844	1.8616
5.8777	1.868
5.8711	1.8723
5.8644	1.8836
5.8578	1.8839
5.8512	1.891
5.8446	1.9123
5.838	1.9168
5.8314	1.9042
5.8249	1.9132
5.8184	1.93
5.8118	1.9381
5.8053	1.94
5.7988	1.9466
5.7923	1.9488
5.7859	1.9516
5.7794	1.9561
5.773	1.9552
5.7666	1.9499
5.7602	1.9473
5.7538	1.9535
5.7474	1.9689
5.741	1.9708
5.7347	1.9729
5.7283	1.9736
5.722	1.9829
5.7157	1.9859
5.7094	1.9938
5.7031	2.0013
5.6969	2.0087
5.6906	1.9945
5.6844	1.9855
5.6782	2.0009
5.6719	1.9978
5.6657	1.9838
5.6596	1.9803
5.6534	1.9769
5.6472	1.9743
5.6411	1.9741
5.6349	1.9772
5.6288	1.9701
5.6227	1.9677
5.6166	1.9649
5.6106	1.9646
5.6045	1.9739
5.5984	1.9888
5.5924	1.9772
5.5864	1.9698
5.5804	1.9859
5.5744	2.0001
5.5684	2.0167
5.5624	2.0312
5.5564	2.0314
5.5505	2.0418
5.5445	2.056
5.5386	2.0629
5.5327	2.0681
5.5268	2.0854
5.5209	2.1015
5.5151	2.1119
5.5092	2.1257
5.5033	2.1489
5.4975	2.1605
5.4917	2.1669
5.4859	2.1785
5.4801	2.1946
5.4743	2.2029
5.4685	2.2059
5.4628	2.2107
5.457	2.2088
5.4513	2.2173
5.4455	2.2299
5.4398	2.2405
5.4341	2.2346
5.4284	2.228
5.4228	2.2244
5.4171	2.2261
5.4114	2.2223
5.4058	2.21
5.4002	2.1972
5.3945	2.1827
5.3889	2.1721
5.3833	2.164
5.3778	2.151
5.3722	2.1543
5.3666	2.1555
5.3611	2.1394
5.3555	2.1339
5.35	2.1356
5.3445	2.1273
5.339	2.1384
5.3335	2.1515
5.328	2.1574
5.3225	2.1747
5.3171	2.1889
5.3116	2.2057
5.3062	2.2055
5.3008	2.2123
5.2954	2.2358
5.29	2.2438
5.2846	2.2524
5.2792	2.2808
5.2738	2.3056
5.2684	2.3312
5.2631	2.3622
5.2578	2.3878
5.2524	2.407
5.2471	2.4264
5.2418	2.4664
5.2365	2.5022
5.2312	2.538
5.226	2.5756
5.2207	2.6116
5.2154	2.6448
5.2102	2.6673
5.205	2.6978
5.1998	2.7284
5.1945	2.7575
5.1893	2.7845
5.1842	2.8065
5.179	2.8181
5.1738	2.8387
5.1686	2.8726
5.1635	2.8937
5.1584	2.905
5.1532	2.924
5.1481	2.951
5.143	2.9699
5.1379	2.9941
5.1328	3.022
5.1277	3.04
5.1227	3.0589
5.1176	3.085
5.1126	3.1084
5.1075	3.1217
5.1025	3.1376
5.0975	3.1515
5.0925	3.1513
5.0875	3.1669
5.0825	3.179
5.0775	3.1752
5.0726	3.1695
5.0676	3.1764
5.0627	3.1871
5.0577	3.2015
5.0528	3.2242
5.0479	3.2344
5.043	3.2439
5.038	3.2586
5.0332	3.2683
5.0283	3.2839
5.0234	3.2941
5.0185	3.2962
5.0137	3.2979
5.0088	3.3173
5.004	3.3424
4.9992	3.3554
4.9944	3.3742
4.9896	3.3959
4.9848	3.4218
4.98	3.4653
4.9752	3.5177
4.9704	3.5717
4.9657	3.629
4.9609	3.6822
4.9562	3.7213
4.9514	3.7542
4.9467	3.7836
4.942	3.8054
4.9373	3.8286
4.9326	3.8497
4.9279	3.8655
4.9232	3.9086
4.9186	3.9723
4.9139	4.0292
4.9092	4.0912
4.9046	4.1765
4.9	4.2726
4.8953	4.3581
4.8907	4.4199
4.8861	4.4791
4.8815	4.5426
4.8769	4.6009
4.8723	4.6515
4.8678	4.6894
4.8632	4.7285
4.8586	4.7737
4.8541	4.8251
4.8495	4.8531
4.845	4.8663
4.8405	4.8969
4.836	4.9248
4.8315	4.953
4.827	4.9743
4.8225	4.998
4.818	5.0231
4.8135	5.0397
4.809	5.0626
4.8046	5.0977
4.8001	5.1237
4.7957	5.1479
4.7913	5.164
4.7868	5.1858
4.7824	5.2109
4.778	5.2365
4.7736	5.263
4.7692	5.2969
4.7648	5.3189
4.7605	5.3385
4.7561	5.3677
4.7517	5.4013
4.7474	5.4292
4.7431	5.4444
4.7387	5.4733
4.7344	5.5036
4.7301	5.5225
4.7258	5.5334
4.7215	5.5581
4.7172	5.5746
4.7129	5.5709
4.7086	5.5832
4.7043	5.5872
4.7	5.5806
4.6958	5.5808
4.6915	5.5799
4.6873	5.5706
4.6831	5.5836
4.6788	5.6163
4.6746	5.6533
4.6704	5.6857
4.6662	5.7255
4.662	5.7788
4.6578	5.8212
4.6536	5.8671
4.6495	5.919
4.6453	5.9628
4.6411	6.0066
4.637	6.0523
4.6328	6.1053
4.6287	6.1556
4.6246	6.1979
4.6205	6.2384
4.6163	6.286
4.6122	6.3415
4.6081	6.4004
4.604	6.4475
4.6	6.4925
4.5959	6.547
4.5918	6.6055
4.5877	6.6612
4.5837	6.7104
4.5796	6.7751
4.5756	6.8307
4.5716	6.8854
4.5675	6.956
4.5635	7.0242
4.5595	7.0822
4.5555	7.135
4.5515	7.1997
4.5475	7.2591
4.5435	7.2991
4.5395	7.3413
4.5356	7.3799
4.5316	7.4166
4.5276	7.4521
4.5237	7.4888
4.5197	7.5026
4.5158	7.5073
4.5119	7.5078
4.508	7.5108
4.504	7.5151
4.5001	7.509
4.4962	7.5104
4.4923	7.5258
4.4884	7.5407
4.4846	7.5599
4.4807	7.5701
4.4768	7.5791
4.473	7.6051
4.4691	7.6224
4.4652	7.6624
4.4614	7.7209
4.4576	7.7822
4.4537	7.8568
4.4499	7.9288
4.4461	8.0129
4.4423	8.0927
4.4385	8.1614
4.4347	8.2244
4.4309	8.2833
4.4271	8.3485
4.4233	8.415
4.4196	8.4721
4.4158	8.5244
4.412	8.5794
4.4083	8.6459
4.4045	8.7212
4.4008	8.7887
4.3971	8.847
4.3934	8.9071
4.3896	8.967
4.3859	8.9902
4.3822	8.9486
4.3785	9.0127
4.3748	9.202
4.3711	9.3253
4.3674	9.3895
4.3638	9.4587
4.3601	9.5254
4.3564	9.5704
4.3528	9.6152
4.3491	9.6318
4.3455	9.619
4.3418	9.6079
4.3382	9.6202
4.3346	9.6514
4.331	9.7019
4.3273	9.7627
4.3237	9.8324
4.3201	9.8977
4.3165	9.9664
4.3129	10.0159
4.3094	10.0464
4.3058	10.0704
4.3022	10.0843
4.2986	10.0839
4.2951	10.0751
4.2915	10.0249
4.288	9.9766
4.2844	9.9638
4.2809	9.925
4.2774	9.8589
4.2738	9.798
4.2703	9.6756
4.2668	9.3696
4.2633	8.8022
4.2598	8.1934
4.2563	8.1642
4.2528	8.8735
4.2493	9.7298
4.2458	10.3434
4.2424	10.714
4.2389	10.9253
4.2354	11.0619
4.232	11.163
4.2285	11.2452
4.2251	11.3158
4.2216	11.3693
4.2182	11.4152
4.2148	11.4489
4.2113	11.4858
4.2079	11.4991
4.2045	11.4936
4.2011	11.4818
4.1977	11.4481
4.1943	11.4183
4.1909	11.3911
4.1875	11.3733
4.1841	11.3885
4.1808	11.4458
4.1774	11.5661
4.174	11.73
4.1707	11.8841
4.1673	12.0068
4.164	12.0913
4.1606	12.1494
4.1573	12.2008
4.154	12.2384
4.1506	12.2749
4.1473	12.3158
4.144	12.3443
4.1407	12.3632
4.1374	12.3973
4.1341	12.4444
4.1308	12.4691
4.1275	12.489
4.1242	12.5316
4.1209	12.5669
4.1177	12.5884
4.1144	12.6052
4.1111	12.627
4.1079	12.6448
4.1046	12.6763
4.1014	12.7049
4.0981	12.7345
4.0949	12.776
4.0917	12.7942
4.0884	12.8049
4.0852	12.8257
4.082	12.8399
4.0788	12.8484
4.0756	12.8619
4.0724	12.8771
4.0692	12.8951
4.066	12.9081
4.0628	12.929
4.0596	12.9581
4.0565	12.9858
4.0533	13.0047
4.0501	13.0216
4.047	13.0488
4.0438	13.0651
4.0406	13.0647
4.0375	13.0684
4.0344	13.0928
4.0312	13.1149
4.0281	13.1362
4.025	13.1504
4.0218	13.1608
4.0187	13.1719
4.0156	13.1866
4.0125	13.2032
4.0094	13.2193
4.0063	13.2356
4.0032	13.2562
4.0001	13.2719
3.997	13.2889
3.994	13.3178
3.9909	13.3306
3.9878	13.3448
3.9847	13.3683
3.9817	13.3938
3.9786	13.4175
3.9756	13.4253
3.9725	13.4272
3.9695	13.4485
3.9665	13.4696
3.9634	13.4971
3.9604	13.5189
3.9574	13.5319
3.9544	13.5518
3.9513	13.5669
3.9483	13.5852
3.9453	13.6067
3.9423	13.6138
3.9393	13.6264
3.9363	13.6432
3.9333	13.6505
3.9304	13.6567
3.9274	13.6671
3.9244	13.6716
3.9214	13.6778
3.9185	13.6877
3.9155	13.6853
3.9126	13.6827
3.9096	13.6827
3.9067	13.6875
3.9037	13.6898
3.9008	13.6896
3.8979	13.6896
3.8949	13.6882
3.892	13.6936
3.8891	13.6868
3.8862	13.6728
3.8833	13.6681
3.8804	13.6657
3.8775	13.6612
3.8746	13.6524
3.8717	13.6404
3.8688	13.6456
3.8659	13.642
3.863	13.6394
3.8601	13.638
3.8573	13.6297
3.8544	13.6195
3.8515	13.6098
3.8487	13.6117
3.8458	13.6108
3.843	13.607
3.8401	13.6108
3.8373	13.6169
3.8344	13.6079
3.8316	13.601
3.8288	13.6022
3.8259	13.598
3.8231	13.5866
3.8203	13.589
3.8175	13.6051
3.8147	13.6089
3.8119	13.6048
3.8091	13.6134
3.8063	13.6323
3.8035	13.6368
3.8007	13.6271
3.7979	13.6198
3.7951	13.6252
3.7924	13.6259
3.7896	13.6119
3.7868	13.598
3.7841	13.5901
3.7813	13.5854
3.7785	13.5686
3.7758	13.5513
3.773	13.552
3.7703	13.538
3.7676	13.5172
3.7648	13.5111
3.7621	13.4893
3.7594	13.4706
3.7566	13.4594
3.7539	13.4402
3.7512	13.4265
3.7485	13.4073
3.7458	13.387
3.7431	13.3697
3.7404	13.3571
3.7377	13.3443
3.735	13.3344
3.7323	13.324
3.7296	13.3005
3.7269	13.2894
3.7242	13.278
3.7216	13.2712
3.7189	13.2612
3.7162	13.2479
3.7136	13.2434
3.7109	13.2292
3.7083	13.2304
3.7056	13.2281
3.703	13.2065
3.7003	13.1963
3.6977	13.202
3.695	13.1966
3.6924	13.1859
3.6898	13.1842
3.6872	13.1826
3.6845	13.1762
3.6819	13.1662
3.6793	13.1589
3.6767	13.1456
3.6741	13.1407
3.6715	13.1568
3.6689	13.1445
3.6663	13.1258
3.6637	13.1205
3.6611	13.1163
3.6585	13.1023
3.656	13.0995
3.6534	13.0954
3.6508	13.0862
3.6482	13.0706
3.6457	13.0616
3.6431	13.0478
3.6406	13.0289
3.638	13.0284
3.6355	13.032
3.6329	13.0308
3.6304	13.018
3.6278	13.0057
3.6253	12.9983
3.6227	12.9801
3.6202	12.9647
3.6177	12.9642
3.6152	12.959
3.6127	12.9327
3.6101	12.9058
3.6076	12.8932
3.6051	12.8816
3.6026	12.8783
3.6001	12.8705
3.5976	12.847
3.5951	12.82
3.5926	12.807
3.5901	12.7819
3.5876	12.7613
3.5852	12.7528
3.5827	12.7315
3.5802	12.7049
3.5777	12.6772
3.5753	12.6614
3.5728	12.6476
3.5704	12.6206
3.5679	12.6038
3.5654	12.5749
3.563	12.5621
3.5605	12.5536
3.5581	12.5254
3.5557	12.5032
3.5532	12.4861
3.5508	12.4594
3.5484	12.4236
3.5459	12.3994
3.5435	12.3772
3.5411	12.3495
3.5387	12.3187
3.5363	12.295
3.5338	12.2777
3.5314	12.2502
3.529	12.2221
3.5266	12.1972
3.5242	12.1576
3.5218	12.1195
3.5195	12.0987
3.5171	12.0883
3.5147	12.0575
3.5123	12.0139
3.5099	11.99
3.5075	11.9628
3.5052	11.9403
3.5028	11.9097
3.5004	11.8853
3.4981	11.86
3.4957	11.8202
3.4934	11.7975
3.491	11.7754
3.4887	11.7555
3.4863	11.7231
3.484	11.6859
3.4816	11.6575
3.4793	11.6253
3.477	11.6092
3.4746	11.5912
3.4723	11.5542
3.47	11.5218
3.4677	11.4905
3.4653	11.4699
3.463	11.4553
3.4607	11.4273
3.4584	11.4024
3.4561	11.3733
3.4538	11.3466
3.4515	11.3236
3.4492	11.2956
3.4469	11.2625
3.4446	11.2281
3.4423	11.1976
3.44	11.1649
3.4378	11.1341
3.4355	11.1112
3.4332	11.0962
3.4309	11.0593
3.4287	11.0304
3.4264	10.9916
3.4241	10.9587
3.4219	10.9354
3.4196	10.9077
3.4174	10.8762
3.4151	10.8251
3.4129	10.7656
3.4106	10.7332
3.4084	10.7124
3.4061	10.6702
3.4039	10.6477
3.4017	10.6378
3.3994	10.603
3.3972	10.5497
3.395	10.5149
3.3928	10.4947
3.3906	10.4744
3.3883	10.431
3.3861	10.3754
3.3839	10.3571
3.3817	10.3256
3.3795	10.2693
3.3773	10.2319
3.3751	10.2146
3.3729	10.1793
3.3707	10.1296
3.3685	10.0808
3.3663	10.0611
3.3641	10.0431
3.362	9.9901
3.3598	9.9479
3.3576	9.9167
3.3554	9.8885
3.3533	9.8454
3.3511	9.7907
3.3489	9.7563
3.3468	9.7334
3.3446	9.6888
3.3425	9.651
3.3403	9.6259
3.3382	9.5837
3.336	9.5463
3.3339	9.5195
3.3317	9.4717
3.3296	9.4276
3.3274	9.3987
3.3253	9.3684
3.3232	9.3426
3.321	9.3076
3.3189	9.26
3.3168	9.2301
3.3147	9.197
3.3126	9.1413
3.3104	9.1094
3.3083	9.076
3.3062	9.0447
3.3041	9.0234
3.302	8.9891
3.2999	8.9355
3.2978	8.8962
3.2957	8.8628
3.2936	8.8176
3.2915	8.7885
3.2894	8.7638
3.2874	8.7068
3.2853	8.6622
3.2832	8.6362
3.2811	8.6009
3.279	8.5628
3.277	8.519
3.2749	8.4865
3.2728	8.465
3.2708	8.4193
3.2687	8.3762
3.2666	8.3577
3.2646	8.3272
3.2625	8.2964
3.2605	8.2597
3.2584	8.214
3.2564	8.1616
3.2543	8.1304
3.2523	8.1005
3.2503	8.0901
3.2482	8.0648
3.2462	8.0075
3.2442	7.957
3.2421	7.9364
3.2401	7.9018
3.2381	7.8692
3.2361	7.8403
3.234	7.7991
3.232	7.7616
3.23	7.7484
