Name: Monzonite
Type: Rocks
Class: Igneous
Subclass: Intermediate
Particle Size: 0-75 micrometers
Sample No.: Monzonite.H1
Owner: JHU
Wavelength range: All
Origin: Near Silverton, San Juan County, Colorado, via Ward's Scientific 
(Cat. No.  W-22)
Description: Sample from which the powder was derived is purplish-gray, 
medium-grained granular rock composed of feldspar, a greenish to black 
mafic mineral and opaques.



Measurement: Directional (10 degree) hemispherical reflectance
First Column: X
Second Column: Y
X Units: Wavelength (micrometers)
Y Units: Reflectance (percent)
First X Value: 14.0112
Last X Value: 0.4000
Number of X Values: 2844
Additional information: monzon1a.txt

14.011	0.9956
13.973	2.4488
13.936	1.5675
13.899	1.1494
13.861	0.2297
13.824	0.2969
13.788	0.3270
13.751	0.4735
13.715	1.2197
13.679	1.5657
13.643	1.0369
13.607	0.3262
13.571	0.5484
13.536	1.4756
13.500	1.5094
13.465	1.2675
13.430	1.1592
13.396	0.7748
13.361	0.4097
13.327	1.3018
13.293	1.8979
13.259	1.3186
13.225	1.1198
13.191	1.3186
13.158	1.1499
13.124	1.0158
13.091	1.0143
13.058	1.1159
13.026	1.2133
12.993	1.0940
12.960	1.1779
12.928	1.5031
12.896	1.4437
12.864	1.1946
12.832	1.1486
12.800	1.1995
12.769	1.1759
12.737	1.0483
12.706	1.1829
12.675	1.2192
12.644	1.2190
12.614	1.2468
12.583	1.3530
12.552	1.4585
12.522	1.5722
12.492	1.6488
12.462	1.7006
12.432	1.8140
12.402	2.0259
12.373	2.1309
12.343	2.2767
12.314	2.3412
12.285	2.6218
12.256	2.9498
12.227	3.0553
12.198	3.1650
12.169	3.3933
12.141	3.5634
12.113	3.8184
12.084	4.0083
12.056	3.9811
12.028	3.9774
12.000	4.0434
11.973	4.1075
11.945	4.1784
11.918	4.3174
11.890	4.3577
11.863	4.2379
11.836	4.2564
11.809	4.3153
11.782	4.2537
11.755	4.2103
11.729	4.2942
11.702	4.2799
11.676	4.2958
11.650	4.2612
11.624	4.2255
11.598	4.2314
11.572	4.2722
11.546	4.2581
11.520	4.1510
11.495	4.0882
11.469	4.0547
11.444	3.9979
11.419	4.0434
11.394	4.1306
11.369	4.0826
11.344	3.9543
11.319	3.8519
11.294	3.8314
11.270	3.7730
11.245	3.7784
11.221	3.7818
11.197	3.7062
11.173	3.5847
11.149	3.5285
11.125	3.4624
11.101	3.3488
11.077	3.2906
11.054	3.2644
11.030	3.1671
11.007	3.0896
10.983	3.0434
10.960	2.9637
10.937	2.8959
10.914	2.8324
10.891	2.8094
10.868	2.7302
10.846	2.7153
10.823	2.7140
10.800	2.6836
10.778	2.6719
10.755	2.6004
10.733	2.5638
10.711	2.5605
10.689	2.5504
10.667	2.5563
10.645	2.5114
10.623	2.5078
10.602	2.5153
10.580	2.4753
10.558	2.4431
10.537	2.4368
10.516	2.4605
10.494	2.4963
10.473	2.4434
10.452	2.3859
10.431	2.3730
10.410	2.3796
10.389	2.3592
10.368	2.3384
10.348	2.3255
10.327	2.2982
10.306	2.3104
10.286	2.3670
10.266	2.4169
10.245	2.4276
10.225	2.3960
10.205	2.3885
10.185	2.4443
10.165	2.4893
10.145	2.4935
10.125	2.4595
10.106	2.4828
10.086	2.5158
10.066	2.5151
10.047	2.5174
10.027	2.5101
10.008	2.5094
9.9887	2.5214
9.9695	2.5303
9.9504	2.5355
9.9313	2.5643
9.9123	2.6268
9.8934	2.6501
9.8746	2.5929
9.8558	2.5457
9.8371	2.5109
9.8185	2.5428
9.7999	2.5418
9.7814	2.4857
9.7630	2.4947
9.7447	2.5392
9.7264	2.5336
9.7082	2.4724
9.6900	2.4992
9.6719	2.5915
9.6539	2.6515
9.6360	2.6553
9.6181	2.6364
9.6003	2.6062
9.5825	2.5788
9.5649	2.5680
9.5472	2.5618
9.5297	2.5483
9.5122	2.5411
9.4948	2.6179
9.4774	2.6592
9.4601	2.6053
9.4429	2.6379
9.4257	2.7098
9.4086	2.7349
9.3916	2.7436
9.3746	2.7898
9.3577	2.8860
9.3408	2.9426
9.3240	2.9683
9.3073	2.9702
9.2906	2.9651
9.2740	2.9543
9.2574	2.9813
9.2409	3.0036
9.2245	2.9543
9.2081	2.9782
9.1918	3.0159
9.1755	2.9100
9.1593	2.9367
9.1431	2.9482
9.1270	2.8671
9.1110	2.7994
9.0950	2.7694
9.0791	2.7917
9.0632	2.8603
9.0474	2.8720
9.0316	2.8277
9.0159	2.8057
9.0003	2.7727
8.9847	2.7694
8.9691	2.7867
8.9536	2.7958
8.9382	2.8327
8.9228	2.7935
8.9075	2.7698
8.8922	2.7588
8.8770	2.7633
8.8618	2.7862
8.8467	2.8083
8.8316	2.8172
8.8166	2.8214
8.8016	2.8353
8.7867	2.8739
8.7718	2.8598
8.7570	2.8621
8.7422	2.8678
8.7275	2.8901
8.7129	2.8617
8.6982	2.8205
8.6837	2.8132
8.6692	2.7553
8.6547	2.7060
8.6403	2.6847
8.6259	2.6576
8.6116	2.7276
8.5973	2.8507
8.5830	2.9220
8.5688	2.9489
8.5547	3.0054
8.5406	3.0577
8.5266	3.1094
8.5126	3.1647
8.4986	3.2018
8.4847	3.2226
8.4708	3.2416
8.4570	3.2381
8.4432	3.2890
8.4295	3.3799
8.4158	3.3785
8.4022	3.3930
8.3886	3.4397
8.3750	3.4610
8.3615	3.4549
8.3481	3.5008
8.3347	3.5888
8.3213	3.6260
8.3079	3.6262
8.2946	3.6249
8.2814	3.7088
8.2682	3.7486
8.2550	3.7231
8.2419	3.7584
8.2288	3.7758
8.2158	3.7542
8.2028	3.7284
8.1898	3.6799
8.1769	3.6075
8.1640	3.5229
8.1512	3.3612
8.1384	3.1919
8.1256	3.1327
8.1129	3.0535
8.1002	2.9405
8.0876	2.8332
8.0750	2.7129
8.0624	2.6154
8.0499	2.5164
8.0374	2.4296
8.0250	2.3688
8.0126	2.3200
8.0002	2.2308
7.9879	2.1497
7.9756	2.1514
7.9634	2.1108
7.9512	2.0356
7.9390	1.9315
7.9268	1.8706
7.9147	1.8680
7.9027	1.8628
7.8906	1.8057
7.8786	1.7678
7.8667	1.7766
7.8548	1.7824
7.8429	1.7439
7.8310	1.7543
7.8192	1.7639
7.8075	1.7579
7.7957	1.7653
7.7840	1.7862
7.7723	1.7967
7.7607	1.8377
7.7491	1.8790
7.7375	1.9097
7.7260	1.9106
7.7145	1.9094
7.7031	1.9439
7.6916	1.9860
7.6802	2.0117
7.6689	2.0480
7.6575	2.0632
7.6462	2.1091
7.6350	2.1228
7.6238	2.1539
7.6126	2.1984
7.6014	2.2650
7.5903	2.3008
7.5792	2.3309
7.5681	2.3545
7.5571	2.3909
7.5461	2.4272
7.5351	2.4825
7.5242	2.5397
7.5133	2.5929
7.5024	2.6309
7.4916	2.6847
7.4807	2.7244
7.4700	2.7244
7.4592	2.7621
7.4485	2.8457
7.4378	2.9065
7.4272	2.9477
7.4165	2.9988
7.4059	3.0488
7.3954	3.0736
7.3848	3.1177
7.3743	3.1936
7.3639	3.2693
7.3534	3.2993
7.3430	3.3618
7.3326	3.4273
7.3223	3.4579
7.3119	3.4982
7.3016	3.5843
7.2914	3.6443
7.2811	3.7120
7.2709	3.7828
7.2607	3.8590
7.2506	3.9492
7.2404	4.0127
7.2303	4.0678
7.2203	4.1468
7.2102	4.1990
7.2002	4.2251
7.1902	4.3021
7.1803	4.3774
7.1703	4.3969
7.1604	4.4604
7.1506	4.5398
7.1407	4.6067
7.1309	4.6955
7.1211	4.7817
7.1113	4.8467
7.1016	4.9184
7.0919	4.9675
7.0822	5.0187
7.0725	5.0489
7.0629	5.0894
7.0533	5.1511
7.0437	5.1942
7.0341	5.2514
7.0246	5.2959
7.0151	5.3158
7.0056	5.3590
6.9962	5.4112
6.9867	5.4548
6.9773	5.4714
6.9679	5.5486
6.9586	5.6098
6.9493	5.6634
6.9400	5.7283
6.9307	5.7665
6.9214	5.8193
6.9122	5.8807
6.9030	5.9124
6.8938	5.9367
6.8847	5.9410
6.8755	5.9733
6.8664	6.0501
6.8573	6.0714
6.8483	6.0949
6.8393	6.1423
6.8302	6.1652
6.8213	6.1933
6.8123	6.2004
6.8034	6.2046
6.7944	6.2437
6.7855	6.2868
6.7767	6.3052
6.7678	6.3445
6.7590	6.3778
6.7502	6.3924
6.7414	6.3846
6.7327	6.3956
6.7239	6.4582
6.7152	6.4860
6.7065	6.4884
6.6979	6.5306
6.6892	6.5894
6.6806	6.6907
6.6720	6.7997
6.6634	6.8597
6.6549	6.8948
6.6464	6.9506
6.6378	7.0085
6.6294	7.0467
6.6209	7.0519
6.6124	7.0741
6.6040	7.1220
6.5956	7.1745
6.5872	7.1894
6.5789	7.1948
6.5705	7.2309
6.5622	7.2543
6.5539	7.2267
6.5456	7.2698
6.5374	7.3308
6.5292	7.3912
6.5209	7.5039
6.5128	7.6125
6.5046	7.7156
6.4964	7.8494
6.4883	7.9600
6.4802	8.0039
6.4721	8.0608
6.4640	8.1358
6.4560	8.1684
6.4480	8.1989
6.4399	8.2394
6.4320	8.2441
6.4240	8.2408
6.4160	8.2516
6.4081	8.2127
6.4002	8.2003
6.3923	8.1600
6.3844	8.0854
6.3766	8.0334
6.3687	7.9802
6.3609	7.9350
6.3531	7.8852
6.3454	7.8063
6.3376	7.7597
6.3299	7.7174
6.3221	7.6579
6.3144	7.5494
6.3068	7.4280
6.2991	7.3455
6.2914	7.2471
6.2838	7.1644
6.2762	7.1360
6.2686	7.1029
6.2611	7.0673
6.2535	6.9916
6.2460	6.9239
6.2385	6.9013
6.2310	6.9229
6.2235	6.8972
6.2160	6.8569
6.2086	6.8402
6.2011	6.8702
6.1937	6.9007
6.1863	6.9330
6.1790	6.9761
6.1716	7.0265
6.1643	7.1194
6.1570	7.2295
6.1496	7.3005
6.1424	7.3725
6.1351	7.4833
6.1278	7.5288
6.1206	7.6036
6.1134	7.7426
6.1062	7.8467
6.0990	7.9153
6.0918	8.0083
6.0847	8.0958
6.0776	8.1496
6.0704	8.1998
6.0633	8.2452
6.0563	8.3049
6.0492	8.3465
6.0421	8.3927
6.0351	8.4574
6.0281	8.4895
6.0211	8.5327
6.0141	8.5956
6.0071	8.6208
6.0002	8.6006
5.9932	8.5652
5.9863	8.5331
5.9794	8.5493
5.9725	8.5643
5.9657	8.5465
5.9588	8.5670
5.9520	8.5574
5.9451	8.4972
5.9383	8.5075
5.9315	8.5912
5.9247	8.6623
5.9180	8.7173
5.9112	8.7862
5.9045	8.8720
5.8978	8.9730
5.8911	9.0735
5.8844	9.1495
5.8777	9.2538
5.8711	9.3231
5.8644	9.3865
5.8578	9.4451
5.8512	9.5124
5.8446	9.6204
5.8380	9.6893
5.8314	9.7104
5.8249	9.7610
5.8184	9.7931
5.8118	9.8460
5.8053	9.8719
5.7988	9.8735
5.7923	9.8995
5.7859	9.9665
5.7794	9.9852
5.7730	9.9928
5.7666	10.035
5.7602	10.086
5.7538	10.101
5.7474	10.101
5.7410	10.102
5.7347	10.143
5.7283	10.171
5.7220	10.186
5.7157	10.183
5.7094	10.152
5.7031	10.153
5.6969	10.145
5.6906	10.105
5.6844	10.075
5.6782	10.054
5.6719	10.023
5.6657	9.9443
5.6596	9.8789
5.6534	9.8468
5.6472	9.7833
5.6411	9.7000
5.6349	9.6478
5.6288	9.6244
5.6227	9.6063
5.6166	9.5976
5.6106	9.6272
5.6045	9.6135
5.5984	9.6070
5.5924	9.6324
5.5864	9.6651
5.5804	9.7132
5.5744	9.7376
5.5684	9.7880
5.5624	9.8800
5.5564	10.005
5.5505	10.135
5.5445	10.245
5.5386	10.367
5.5327	10.522
5.5268	10.666
5.5209	10.798
5.5151	10.929
5.5092	11.077
5.5033	11.231
5.4975	11.337
5.4917	11.449
5.4859	11.593
5.4801	11.711
5.4743	11.831
5.4685	11.960
5.4628	12.063
5.4570	12.141
5.4513	12.219
5.4455	12.278
5.4398	12.324
5.4341	12.349
5.4284	12.357
5.4228	12.343
5.4171	12.310
5.4114	12.233
5.4058	12.163
5.4002	12.074
5.3945	11.899
5.3889	11.744
5.3833	11.612
5.3778	11.476
5.3722	11.368
5.3666	11.306
5.3611	11.260
5.3555	11.229
5.3500	11.221
5.3445	11.244
5.3390	11.307
5.3335	11.392
5.3280	11.466
5.3225	11.524
5.3171	11.620
5.3116	11.727
5.3062	11.796
5.3008	11.878
5.2954	11.971
5.2900	12.092
5.2846	12.232
5.2792	12.369
5.2738	12.505
5.2684	12.676
5.2631	12.879
5.2578	13.075
5.2524	13.273
5.2471	13.495
5.2418	13.716
5.2365	13.947
5.2312	14.197
5.2260	14.448
5.2207	14.658
5.2154	14.844
5.2102	15.033
5.2050	15.201
5.1998	15.324
5.1945	15.412
5.1893	15.506
5.1842	15.584
5.1790	15.628
5.1738	15.682
5.1686	15.757
5.1635	15.815
5.1584	15.869
5.1532	15.947
5.1481	15.988
5.1430	16.021
5.1379	16.099
5.1328	16.202
5.1277	16.260
5.1227	16.350
5.1176	16.426
5.1126	16.516
5.1075	16.647
5.1025	16.688
5.0975	16.691
5.0925	16.726
5.0875	16.738
5.0825	16.718
5.0775	16.708
5.0726	16.727
5.0676	16.780
5.0627	16.834
5.0577	16.874
5.0528	16.915
5.0479	16.947
5.0430	16.970
5.0380	17.028
5.0332	17.074
5.0283	17.084
5.0234	17.099
5.0185	17.117
5.0137	17.160
5.0088	17.198
5.0040	17.250
4.9992	17.360
4.9944	17.465
4.9896	17.533
4.9848	17.662
4.9800	17.808
4.9752	17.984
4.9704	18.226
4.9657	18.459
4.9609	18.629
4.9562	18.795
4.9514	18.965
4.9467	19.070
4.9420	19.124
4.9373	19.203
4.9326	19.297
4.9279	19.396
4.9232	19.509
4.9186	19.647
4.9139	19.783
4.9092	19.952
4.9046	20.163
4.9000	20.367
4.8953	20.530
4.8907	20.717
4.8861	20.935
4.8815	21.081
4.8769	21.160
4.8723	21.281
4.8678	21.406
4.8632	21.509
4.8586	21.621
4.8541	21.718
4.8495	21.779
4.8450	21.816
4.8405	21.864
4.8360	21.918
4.8315	21.989
4.8270	22.029
4.8225	22.078
4.8180	22.128
4.8135	22.158
4.8090	22.189
4.8046	22.201
4.8001	22.234
4.7957	22.292
4.7913	22.322
4.7868	22.362
4.7824	22.432
4.7780	22.471
4.7736	22.531
4.7692	22.603
4.7648	22.660
4.7605	22.694
4.7561	22.753
4.7517	22.828
4.7474	22.894
4.7431	22.952
4.7387	23.006
4.7344	23.013
4.7301	23.048
4.7258	23.105
4.7215	23.173
4.7172	23.264
4.7129	23.311
4.7086	23.300
4.7043	23.338
4.7000	23.384
4.6958	23.362
4.6915	23.339
4.6873	23.366
4.6831	23.414
4.6788	23.451
4.6746	23.491
4.6704	23.548
4.6662	23.629
4.6620	23.728
4.6578	23.774
4.6536	23.861
4.6495	23.955
4.6453	24.033
4.6411	24.142
4.6370	24.216
4.6328	24.275
4.6287	24.336
4.6246	24.410
4.6205	24.502
4.6163	24.572
4.6122	24.662
4.6081	24.771
4.6040	24.848
4.6000	24.938
4.5959	25.056
4.5918	25.135
4.5877	25.185
4.5837	25.249
4.5796	25.293
4.5756	25.342
4.5716	25.424
4.5675	25.511
4.5635	25.589
4.5595	25.650
4.5555	25.711
4.5515	25.798
4.5475	25.868
4.5435	25.914
4.5395	25.951
4.5356	25.993
4.5316	26.039
4.5276	26.073
4.5237	26.126
4.5197	26.166
4.5158	26.161
4.5119	26.156
4.5080	26.190
4.5040	26.221
4.5001	26.231
4.4962	26.231
4.4923	26.276
4.4884	26.307
4.4846	26.336
4.4807	26.397
4.4768	26.411
4.4730	26.451
4.4691	26.494
4.4652	26.564
4.4614	26.632
4.4576	26.706
4.4537	26.789
4.4499	26.876
4.4461	26.921
4.4423	26.960
4.4385	27.027
4.4347	27.105
4.4309	27.214
4.4271	27.302
4.4233	27.362
4.4196	27.406
4.4158	27.455
4.4120	27.520
4.4083	27.589
4.4045	27.664
4.4008	27.746
4.3971	27.790
4.3934	27.852
4.3896	27.928
4.3859	28.034
4.3822	28.084
4.3785	28.093
4.3748	28.166
4.3711	28.270
4.3674	28.340
4.3638	28.405
4.3601	28.469
4.3564	28.513
4.3528	28.593
4.3491	28.669
4.3455	28.674
4.3418	28.701
4.3382	28.764
4.3346	28.806
4.3310	28.835
4.3273	28.906
4.3237	28.934
4.3201	28.986
4.3165	29.049
4.3129	29.080
4.3094	29.099
4.3058	29.140
4.3022	29.184
4.2986	29.217
4.2951	29.252
4.2915	29.288
4.2880	29.263
4.2844	29.288
4.2809	29.373
4.2774	29.415
4.2738	29.444
4.2703	29.459
4.2668	29.519
4.2633	29.553
4.2598	29.532
4.2563	29.584
4.2528	29.651
4.2493	29.688
4.2458	29.690
4.2424	29.705
4.2389	29.718
4.2354	29.752
4.2320	29.761
4.2285	29.792
4.2251	29.849
4.2216	29.899
4.2182	29.897
4.2148	29.894
4.2113	29.932
4.2079	29.952
4.2045	29.961
4.2011	29.998
4.1977	30.013
4.1943	30.053
4.1909	30.077
4.1875	30.057
4.1841	30.074
4.1808	30.117
4.1774	30.182
4.1740	30.225
4.1707	30.211
4.1673	30.199
4.1640	30.208
4.1606	30.265
4.1573	30.291
4.1540	30.311
4.1506	30.340
4.1473	30.309
4.1440	30.340
4.1407	30.385
4.1374	30.381
4.1341	30.415
4.1308	30.454
4.1275	30.464
4.1242	30.452
4.1209	30.505
4.1177	30.546
4.1144	30.547
4.1111	30.539
4.1079	30.549
4.1046	30.546
4.1014	30.587
4.0981	30.607
4.0949	30.607
4.0917	30.644
4.0884	30.673
4.0852	30.664
4.0820	30.661
4.0788	30.695
4.0756	30.724
4.0724	30.723
4.0692	30.729
4.0660	30.699
4.0628	30.701
4.0596	30.748
4.0565	30.757
4.0533	30.743
4.0501	30.768
4.0470	30.789
4.0438	30.789
4.0406	30.763
4.0375	30.752
4.0344	30.755
4.0312	30.792
4.0281	30.796
4.0250	30.800
4.0218	30.807
4.0187	30.801
4.0156	30.760
4.0125	30.742
4.0094	30.748
4.0063	30.746
4.0032	30.726
4.0001	30.742
3.9970	30.736
3.9940	30.671
3.9909	30.668
3.9878	30.695
3.9847	30.703
3.9817	30.698
3.9786	30.700
3.9756	30.670
3.9725	30.694
3.9695	30.756
3.9665	30.779
3.9634	30.786
3.9604	30.789
3.9574	30.820
3.9544	30.849
3.9513	30.872
3.9483	30.914
3.9453	30.911
3.9423	30.922
3.9393	30.990
3.9363	31.026
3.9333	31.025
3.9304	31.073
3.9274	31.104
3.9244	31.101
3.9214	31.112
3.9185	31.094
3.9155	31.087
3.9126	31.140
3.9096	31.157
3.9067	31.104
3.9037	31.086
3.9008	31.096
3.8979	31.086
3.8949	31.096
3.8920	31.117
3.8891	31.106
3.8862	31.099
3.8833	31.116
3.8804	31.130
3.8775	31.137
3.8746	31.152
3.8717	31.121
3.8688	31.104
3.8659	31.122
3.8630	31.117
3.8601	31.103
3.8573	31.108
3.8544	31.153
3.8515	31.161
3.8487	31.163
3.8458	31.162
3.8430	31.125
3.8401	31.140
3.8373	31.188
3.8344	31.185
3.8316	31.147
3.8288	31.154
3.8259	31.214
3.8231	31.242
3.8203	31.211
3.8175	31.194
3.8147	31.187
3.8119	31.190
3.8091	31.234
3.8063	31.285
3.8035	31.284
3.8007	31.213
3.7979	31.211
3.7951	31.241
3.7924	31.250
3.7896	31.236
3.7868	31.237
3.7841	31.221
3.7813	31.217
3.7785	31.190
3.7758	31.199
3.7730	31.226
3.7703	31.218
3.7676	31.235
3.7648	31.264
3.7621	31.255
3.7594	31.195
3.7566	31.190
3.7539	31.203
3.7512	31.197
3.7485	31.171
3.7458	31.150
3.7431	31.163
3.7404	31.184
3.7377	31.200
3.7350	31.186
3.7323	31.172
3.7296	31.168
3.7269	31.151
3.7242	31.136
3.7216	31.151
3.7189	31.147
3.7162	31.142
3.7136	31.135
3.7109	31.101
3.7083	31.080
3.7056	31.090
3.7030	31.105
3.7003	31.104
3.6977	31.089
3.6950	31.081
3.6924	31.070
3.6898	31.051
3.6872	31.049
3.6845	31.066
3.6819	31.062
3.6793	31.068
3.6767	31.054
3.6741	31.011
3.6715	31.026
3.6689	31.032
3.6663	31.031
3.6637	30.994
3.6611	30.984
3.6585	31.025
3.6560	31.018
3.6534	30.976
3.6508	30.955
3.6482	30.960
3.6457	30.949
3.6431	30.905
3.6406	30.896
3.6380	30.927
3.6355	30.918
3.6329	30.888
3.6304	30.897
3.6278	30.920
3.6253	30.905
3.6227	30.843
3.6202	30.812
3.6177	30.789
3.6152	30.821
3.6127	30.819
3.6101	30.776
3.6076	30.762
3.6051	30.782
3.6026	30.750
3.6001	30.701
3.5976	30.705
3.5951	30.695
3.5926	30.695
3.5901	30.696
3.5876	30.656
3.5852	30.648
3.5827	30.635
3.5802	30.623
3.5777	30.625
3.5753	30.633
3.5728	30.604
3.5704	30.528
3.5679	30.538
3.5654	30.525
3.5630	30.479
3.5605	30.440
3.5581	30.386
3.5557	30.365
3.5532	30.396
3.5508	30.387
3.5484	30.340
3.5459	30.316
3.5435	30.306
3.5411	30.295
3.5387	30.290
3.5363	30.260
3.5338	30.234
3.5314	30.230
3.5290	30.225
3.5266	30.195
3.5242	30.138
3.5218	30.108
3.5195	30.070
3.5171	30.055
3.5147	30.045
3.5123	30.047
3.5099	30.006
3.5075	29.937
3.5052	29.918
3.5028	29.929
3.5004	29.892
3.4981	29.862
3.4957	29.878
3.4934	29.846
3.4910	29.773
3.4887	29.756
3.4863	29.743
3.4840	29.717
3.4816	29.699
3.4793	29.707
3.4770	29.689
3.4746	29.598
3.4723	29.550
3.4700	29.575
3.4677	29.549
3.4653	29.504
3.4630	29.475
3.4607	29.492
3.4584	29.472
3.4561	29.439
3.4538	29.420
3.4515	29.364
3.4492	29.322
3.4469	29.281
3.4446	29.253
3.4423	29.261
3.4400	29.224
3.4378	29.162
3.4355	29.127
3.4332	29.086
3.4309	29.049
3.4287	28.985
3.4264	28.913
3.4241	28.881
3.4219	28.843
3.4196	28.767
3.4174	28.706
3.4151	28.653
3.4129	28.656
3.4106	28.601
3.4084	28.524
3.4061	28.553
3.4039	28.549
3.4017	28.484
3.3994	28.417
3.3972	28.382
3.3950	28.342
3.3928	28.293
3.3906	28.262
3.3883	28.218
3.3861	28.151
3.3839	28.083
3.3817	28.072
3.3795	28.002
3.3773	27.929
3.3751	27.934
3.3729	27.924
3.3707	27.885
3.3685	27.844
3.3663	27.815
3.3641	27.745
3.3620	27.641
3.3598	27.578
3.3576	27.553
3.3554	27.486
3.3533	27.401
3.3511	27.397
3.3489	27.371
3.3468	27.279
3.3446	27.218
3.3425	27.180
3.3403	27.130
3.3382	27.052
3.3360	26.997
3.3339	26.989
3.3317	26.930
3.3296	26.856
3.3274	26.811
3.3253	26.738
3.3232	26.624
3.3210	26.577
3.3189	26.543
3.3168	26.495
3.3147	26.414
3.3126	26.405
3.3104	26.407
3.3083	26.334
3.3062	26.214
3.3041	26.203
3.3020	26.202
3.2999	26.106
3.2978	26.039
3.2957	26.019
3.2936	25.971
3.2915	25.921
3.2894	25.853
3.2874	25.747
3.2853	25.654
3.2832	25.640
3.2811	25.633
3.2790	25.534
3.2770	25.443
3.2749	25.373
3.2728	25.317
3.2708	25.263
3.2687	25.181
3.2666	25.078
3.2646	24.951
3.2625	24.898
3.2605	24.883
3.2584	24.794
3.2564	24.646
3.2543	24.525
3.2523	24.445
3.2503	24.408
3.2482	24.315
3.2462	24.207
3.2442	24.110
3.2421	24.013
3.2401	23.902
3.2381	23.812
3.2361	23.695
3.2340	23.573
3.2320	23.417
3.2300	23.311
3.2280	23.209
3.2260	23.103
3.2240	22.989
3.2220	22.889
3.2200	22.776
3.2180	22.648
3.2160	22.522
3.2140	22.408
3.2120	22.272
3.2100	22.137
3.2080	22.009
3.2060	21.872
3.2040	21.778
3.2021	21.701
3.2001	21.562
3.1981	21.445
3.1961	21.351
3.1942	21.210
3.1922	21.071
3.1902	20.986
3.1883	20.922
3.1863	20.814
3.1844	20.705
3.1824	20.576
3.1805	20.427
3.1785	20.333
3.1766	20.258
3.1746	20.128
3.1727	20.046
3.1707	19.968
3.1688	19.856
3.1669	19.776
3.1649	19.691
3.1630	19.587
3.1611	19.552
3.1591	19.499
3.1572	19.351
3.1553	19.261
3.1534	19.256
3.1515	19.172
3.1495	19.041
3.1476	18.971
3.1457	18.930
3.1438	18.861
3.1419	18.788
3.1400	18.724
3.1381	18.676
3.1362	18.572
3.1343	18.478
