Name: Limestone Siltstone 
Type:  Rocks
Class:  Sedimentary
Subclass: Siltstone 
Particle Size:  500 - 1500 Micrometers
Sample No.:  siltstone.2
Owner:  JHU
Wavelength Range:  All
Origin:  Sample No. 352,  The Hunt and Salisbury Collection at the U.S. 
Geological Survey, Denver, Co.
Description: This sample contains a microcrystalline groundmass or 
matrix of quartz, carbonate, and possibly some clay. There are 
irregular regions of larger anhedra of carbonate and quartz, with 
some grains of muscovite, glauconite, and green biotite.


Measurement:  Directional (10 Degree) Hemispherical Reflectance
First Column:  X
Second Column:  Y  
X Units:  Wavelength (micrometers)
Y Units:  Reflectance (percent)
First X Value: 14.0112
Last X Value:  0.4
Number of X Values: 2844
Additional Information:  None

14.0112	1.6348
13.9734	1.7087
13.9359	1.7439
13.8985	1.7315
13.8614	1.7392
13.8244	1.8124
13.7876	1.9102
13.7511	1.9232
13.7147	1.9057
13.6785	1.9349
13.6425	1.9537
13.6067	1.9626
13.5711	1.9703
13.5356	1.9925
13.5004	2.0392
13.4653	2.0813
13.4304	2.0617
13.3957	2.0533
13.3612	2.0614
13.3269	2.0603
13.2927	2.054
13.2587	2.0624
13.2249	2.1225
13.1912	2.2523
13.1577	2.3589
13.1244	2.4447
13.0913	2.5371
13.0583	2.6177
13.0255	2.6459
12.9929	2.6134
12.9604	2.5928
12.9281	2.6177
12.8959	2.6304
12.8639	2.6223
12.8321	2.6137
12.8004	2.5926
12.7688	2.5603
12.7375	2.5081
12.7063	2.4618
12.6752	2.4323
12.6443	2.405
12.6135	2.3743
12.5829	2.3519
12.5524	2.3315
12.5221	2.3251
12.4919	2.2802
12.4619	2.1976
12.432	2.0805
12.4023	1.9487
12.3727	1.8493
12.3432	1.8119
12.3139	1.8007
12.2847	1.8205
12.2557	1.8509
12.2268	1.887
12.198	1.9028
12.1694	1.9148
12.1409	1.9456
12.1125	1.9824
12.0843	1.9968
12.0562	2.0191
12.0282	2.0518
12.0003	2.0686
11.9726	2.076
11.945	2.1091
11.9176	2.171
11.8903	2.2299
11.8631	2.2928
11.836	2.3715
11.809	2.4377
11.7822	2.4581
11.7555	2.4631
11.7289	2.5015
11.7024	2.5436
11.676	2.5699
11.6498	2.6172
11.6237	2.6789
11.5977	2.7304
11.5718	2.7393
11.546	2.7247
11.5203	2.722
11.4948	2.729
11.4694	2.7543
11.444	2.8049
11.4188	2.8725
11.3937	2.9378
11.3688	2.9873
11.3439	3.0149
11.3191	3.0211
11.2944	3.0383
11.2699	3.0675
11.2455	3.0957
11.2211	3.1128
11.1969	3.1196
11.1727	3.1132
11.1487	3.0505
11.1248	2.9556
11.101	2.8787
11.0773	2.8165
11.0536	2.7682
11.0301	2.7325
11.0067	2.7199
10.9834	2.7091
10.9602	2.6922
10.937	2.6986
10.914	2.7297
10.8911	2.7612
10.8682	2.7881
10.8455	2.834
10.8229	2.8828
10.8003	2.9194
10.7779	2.9797
10.7555	3.04
10.7332	3.0905
10.7111	3.1314
10.689	3.1785
10.667	3.2695
10.6451	3.385
10.6233	3.5017
10.6015	3.6216
10.5799	3.7006
10.5584	3.7439
10.5369	3.7532
10.5155	3.7635
10.4942	3.8061
10.473	3.8538
10.4519	3.8898
10.4309	3.9296
10.4099	3.9492
10.3891	3.9549
10.3683	3.9424
10.3476	3.9121
10.327	3.875
10.3065	3.8319
10.286	3.8011
10.2657	3.808
10.2454	3.8432
10.2252	3.8893
10.205	3.921
10.185	3.9444
10.165	3.9595
10.1451	3.9628
10.1253	3.9568
10.1056	3.9573
10.0859	3.9645
10.0663	3.992
10.0468	4.0214
10.0274	4.0767
10.008	4.1509
9.9887	4.2145
9.9695	4.2516
9.9504	4.2666
9.9313	4.2624
9.9123	4.2837
9.8934	4.3045
9.8746	4.3212
9.8558	4.3612
9.8371	4.4301
9.8185	4.5078
9.7999	4.5813
9.7814	4.655
9.763	4.7411
9.7447	4.8406
9.7264	4.9558
9.7082	5.1032
9.69	5.2675
9.6719	5.4118
9.6539	5.5135
9.636	5.5694
9.6181	5.5982
9.6003	5.6249
9.5825	5.6441
9.5649	5.6637
9.5472	5.6474
9.5297	5.5907
9.5122	5.5175
9.4948	5.4385
9.4774	5.3872
9.4601	5.3402
9.4429	5.2997
9.4257	5.3143
9.4086	5.3974
9.3916	5.5187
9.3746	5.6639
9.3577	5.8292
9.3408	6.0097
9.324	6.1635
9.3073	6.2829
9.2906	6.3889
9.274	6.5239
9.2574	6.6518
9.2409	6.7757
9.2245	6.8939
9.2081	7.0164
9.1918	7.1466
9.1755	7.2495
9.1593	7.3093
9.1431	7.3754
9.127	7.4617
9.111	7.5625
9.095	7.6407
9.0791	7.7024
9.0632	7.763
9.0474	7.7871
9.0316	7.7459
9.0159	7.7019
9.0003	7.6811
8.9847	7.6584
8.9691	7.6256
8.9536	7.5981
8.9382	7.5942
8.9228	7.5928
8.9075	7.5605
8.8922	7.523
8.877	7.4885
8.8618	7.4538
8.8467	7.4251
8.8316	7.4289
8.8166	7.4435
8.8016	7.4459
8.7867	7.4481
8.7718	7.4551
8.757	7.4375
8.7422	7.3818
8.7275	7.2825
8.7129	7.1562
8.6982	6.9461
8.6837	6.609
8.6692	6.1814
8.6547	5.7503
8.6403	5.396
8.6259	5.2106
8.6116	5.2584
8.5973	5.519
8.583	5.8769
8.5688	6.1529
8.5547	6.2845
8.5406	6.2994
8.5266	6.2236
8.5126	6.1101
8.4986	5.9846
8.4847	5.8395
8.4708	5.6886
8.457	5.5012
8.4432	5.3153
8.4295	5.1598
8.4158	5.0388
8.4022	4.9533
8.3886	4.8713
8.375	4.7935
8.3615	4.7495
8.3481	4.7208
8.3347	4.7368
8.3213	4.8076
8.3079	4.905
8.2946	5.0297
8.2814	5.1943
8.2682	5.3926
8.255	5.6144
8.2419	5.8347
8.2288	6.0453
8.2158	6.2214
8.2028	6.3453
8.1898	6.4372
8.1769	6.4846
8.164	6.4698
8.1512	6.3846
8.1384	6.2331
8.1256	6.0238
8.1129	5.774
8.1002	5.5359
8.0876	5.3168
8.075	5.1065
8.0624	4.9244
8.0499	4.7641
8.0374	4.6153
8.025	4.4801
8.0126	4.3528
8.0002	4.254
7.9879	4.1768
7.9756	4.0935
7.9634	3.9846
7.9512	3.8624
7.939	3.7265
7.9268	3.5839
7.9147	3.4302
7.9027	3.2969
7.8906	3.2061
7.8786	3.1233
7.8667	3.0355
7.8548	2.9697
7.8429	2.9161
7.831	2.863
7.8192	2.816
7.8075	2.7998
7.7957	2.8158
7.784	2.8459
7.7723	2.8738
7.7607	2.8967
7.7491	2.9012
7.7375	2.8905
7.726	2.8778
7.7145	2.8806
7.7031	2.8859
7.6916	2.8847
7.6802	2.8821
7.6689	2.8744
7.6575	2.8637
7.6462	2.8455
7.635	2.8153
7.6238	2.795
7.6126	2.7773
7.6014	2.7546
7.5903	2.7328
7.5792	2.7033
7.5681	2.694
7.5571	2.6981
7.5461	2.7036
7.5351	2.705
7.5242	2.7036
7.5133	2.6993
7.5024	2.6751
7.4916	2.6296
7.4807	2.5936
7.47	2.5727
7.4592	2.5646
7.4485	2.5699
7.4378	2.5775
7.4272	2.5783
7.4165	2.574
7.4059	2.5747
7.3954	2.5715
7.3848	2.5617
7.3743	2.5557
7.3639	2.5589
7.3534	2.5431
7.343	2.5161
7.3326	2.4926
7.3222	2.4823
7.3119	2.4804
7.3016	2.4768
7.2914	2.4837
7.2811	2.5019
7.2709	2.5067
7.2607	2.5131
7.2506	2.532
7.2404	2.5491
7.2303	2.5646
7.2203	2.584
7.2102	2.5957
7.2002	2.5873
7.1902	2.5637
7.1803	2.5507
7.1703	2.5461
7.1604	2.5498
7.1506	2.5758
7.1407	2.617
7.1309	2.6407
7.1211	2.6386
7.1113	2.6485
7.1016	2.6771
7.0919	2.6816
7.0822	2.7003
7.0725	2.7368
7.0629	2.7742
7.0533	2.8096
7.0437	2.8426
7.0341	2.8866
7.0246	2.9376
7.0151	2.9622
7.0056	2.9654
6.9962	2.9534
6.9867	2.9321
6.9773	2.9204
6.9679	2.9136
6.9586	2.906
6.9493	2.9131
6.94	2.9405
6.9307	2.973
6.9214	3.0006
6.9122	3.0139
6.903	3.0225
6.8938	3.0202
6.8847	3.0187
6.8755	3.0156
6.8664	3.0079
6.8573	3.0036
6.8483	3.0061
6.8393	3.0168
6.8302	3.03
6.8213	3.0464
6.8123	3.063
6.8034	3.0534
6.7944	3.022
6.7855	2.9886
6.7767	2.9518
6.7678	2.9374
6.759	2.946
6.7502	2.9546
6.7414	2.9594
6.7327	2.9541
6.7239	2.9397
6.7152	2.9201
6.7065	2.9043
6.6979	2.9209
6.6892	2.9627
6.6806	3.0091
6.672	3.0661
6.6634	3.1226
6.6549	3.1508
6.6464	3.1505
6.6378	3.1546
6.6294	3.1711
6.6209	3.1785
6.6124	3.1826
6.604	3.2099
6.5956	3.2431
6.5872	3.2565
6.5789	3.2467
6.5705	3.2345
6.5622	3.2307
6.5539	3.2302
6.5456	3.2451
6.5374	3.2798
6.5292	3.3319
6.5209	3.4034
6.5128	3.4702
6.5046	3.5343
6.4964	3.592
6.4883	3.658
6.4802	3.7171
6.4721	3.7499
6.464	3.7724
6.456	3.7949
6.448	3.8109
6.4399	3.8131
6.432	3.7872
6.424	3.7557
6.416	3.721
6.4081	3.6817
6.4002	3.6473
6.3923	3.6197
6.3844	3.5834
6.3766	3.5183
6.3687	3.4367
6.3609	3.3491
6.3531	3.2506
6.3454	3.1536
6.3376	3.0605
6.3299	2.9524
6.3221	2.8491
6.3144	2.7706
6.3068	2.7072
6.2991	2.6431
6.2914	2.5753
6.2838	2.5069
6.2762	2.4435
6.2686	2.3885
6.2611	2.3483
6.2535	2.326
6.246	2.3067
6.2385	2.2842
6.231	2.2711
6.2235	2.2533
6.216	2.2397
6.2086	2.2392
6.2011	2.2452
6.1937	2.2591
6.1863	2.2703
6.179	2.2863
6.1716	2.3196
6.1643	2.3433
6.157	2.3572
6.1496	2.3813
6.1424	2.4189
6.1351	2.4608
6.1278	2.4892
6.1206	2.5098
6.1134	2.5299
6.1062	2.5273
6.099	2.5112
6.0918	2.5048
6.0847	2.5101
6.0776	2.5184
6.0704	2.5371
6.0633	2.5684
6.0563	2.5976
6.0492	2.6065
6.0421	2.6134
6.0351	2.6211
6.0281	2.6077
6.0211	2.572
6.0141	2.5352
6.0071	2.5076
6.0002	2.4756
5.9932	2.4519
5.9863	2.4639
5.9794	2.4825
5.9725	2.4875
5.9657	2.4892
5.9588	2.4823
5.952	2.4814
5.9451	2.4763
5.9383	2.4691
5.9315	2.487
5.9247	2.5086
5.918	2.5345
5.9112	2.5564
5.9045	2.5584
5.8978	2.5641
5.8911	2.5797
5.8844	2.6014
5.8777	2.6285
5.8711	2.6555
5.8644	2.6947
5.8578	2.7216
5.8512	2.7201
5.8446	2.7244
5.838	2.7415
5.8314	2.7606
5.8249	2.7768
5.8184	2.7974
5.8118	2.8256
5.8053	2.8443
5.7988	2.863
5.7923	2.8768
5.7859	2.8869
5.7794	2.9163
5.773	2.9472
5.7666	2.9481
5.7602	2.9276
5.7538	2.913
5.7474	2.9063
5.741	2.8833
5.7347	2.8845
5.7283	2.9292
5.722	2.9735
5.7157	2.9974
5.7094	3.0019
5.7031	2.9928
5.6969	2.9825
5.6906	2.9644
5.6844	2.9407
5.6782	2.9244
5.6719	2.9146
5.6657	2.9032
5.6596	2.8738
5.6534	2.8297
5.6472	2.8082
5.6411	2.7941
5.6349	2.768
5.6288	2.7581
5.6227	2.7646
5.6166	2.7529
5.6106	2.7375
5.6045	2.744
5.5984	2.75
5.5924	2.744
5.5864	2.746
5.5804	2.7675
5.5744	2.7765
5.5684	2.778
5.5624	2.7921
5.5564	2.8172
5.5505	2.8228
5.5445	2.8228
5.5386	2.8397
5.5327	2.8627
5.5268	2.8811
5.5209	2.9081
5.5151	2.9352
5.5092	2.9536
5.5033	2.9518
5.4975	2.95
5.4917	2.9699
5.4859	3.0036
5.4801	3.0311
5.4743	3.0577
5.4685	3.0955
5.4628	3.1314
5.457	3.1438
5.4513	3.1379
5.4455	3.14
5.4398	3.1384
5.4341	3.1329
5.4284	3.1345
5.4228	3.1462
5.4171	3.151
5.4114	3.1242
5.4058	3.0802
5.4002	3.0412
5.3945	2.9967
5.3889	2.9522
5.3833	2.9156
5.3778	2.902
5.3722	2.8962
5.3666	2.8874
5.3611	2.8979
5.3555	2.9213
5.35	2.9211
5.3445	2.9032
5.339	2.8988
5.3335	2.903
5.328	2.9055
5.3225	2.9123
5.3171	2.933
5.3116	2.9634
5.3062	2.9766
5.3008	2.9958
5.2954	3.0318
5.29	3.0558
5.2846	3.0649
5.2792	3.0759
5.2738	3.1043
5.2684	3.1433
5.2631	3.1785
5.2578	3.2408
5.2524	3.324
5.2471	3.3991
5.2418	3.4664
5.2365	3.5489
5.2312	3.6443
5.226	3.7353
5.2207	3.8088
5.2154	3.8702
5.2102	3.9205
5.205	3.9532
5.1998	3.9769
5.1945	4.0075
5.1893	4.0387
5.1842	4.0652
5.179	4.0875
5.1738	4.1035
5.1686	4.1119
5.1635	4.13
5.1584	4.1537
5.1532	4.165
5.1481	4.1678
5.143	4.158
5.1379	4.1532
5.1328	4.1547
5.1277	4.1585
5.1227	4.2012
5.1176	4.2516
5.1126	4.2822
5.1075	4.2973
5.1025	4.2832
5.0975	4.2478
5.0925	4.198
5.0875	4.1547
5.0825	4.1238
5.0775	4.1039
5.0726	4.0989
5.0676	4.093
5.0627	4.087
5.0577	4.0839
5.0528	4.08
5.0479	4.0739
5.043	4.059
5.038	4.0621
5.0332	4.0855
5.0283	4.0966
5.0234	4.0961
5.0185	4.0983
5.0137	4.1104
5.0088	4.1356
5.004	4.1585
4.9992	4.1899
4.9944	4.2327
4.9896	4.2646
4.9848	4.281
4.98	4.3167
4.9752	4.3997
4.9704	4.5021
4.9657	4.5885
4.9609	4.6744
4.9562	4.7528
4.9514	4.8107
4.9467	4.8507
4.942	4.901
4.9373	4.979
4.9326	5.0476
4.9279	5.1165
4.9232	5.1978
4.9186	5.2984
4.9139	5.4192
4.9092	5.5658
4.9046	5.7376
4.9	5.9266
4.8953	6.1171
4.8907	6.3104
4.8861	6.4953
4.8815	6.6815
4.8769	6.8504
4.8723	7.0009
4.8678	7.1372
4.8632	7.2627
4.8586	7.3852
4.8541	7.5039
4.8495	7.6139
4.845	7.7158
4.8405	7.8024
4.836	7.8687
4.8315	7.9273
4.827	7.9799
4.8225	8.0292
4.818	8.0881
4.8135	8.1561
4.809	8.2381
4.8046	8.3252
4.8001	8.411
4.7957	8.4884
4.7913	8.5491
4.7868	8.6118
4.7824	8.6867
4.778	8.7697
4.7736	8.8655
4.7692	8.9686
4.7648	9.0741
4.7605	9.1638
4.7561	9.2458
4.7517	9.3382
4.7474	9.4408
4.7431	9.5487
4.7387	9.6648
4.7344	9.7725
4.7301	9.8605
4.7258	9.9385
4.7215	10.0074
4.7172	10.0653
4.7129	10.1122
4.7086	10.1438
4.7043	10.1665
4.7	10.1602
4.6958	10.1347
4.6915	10.1222
4.6873	10.1308
4.6831	10.1629
4.6788	10.217
4.6746	10.3017
4.6704	10.4295
4.6662	10.5838
4.662	10.748
4.6578	10.9113
4.6536	11.0864
4.6495	11.2783
4.6453	11.4636
4.6411	11.6483
4.637	11.8399
4.6328	12.0445
4.6287	12.2502
4.6246	12.4349
4.6205	12.6199
4.6163	12.8089
4.6122	12.9874
4.6081	13.1618
4.604	13.3326
4.6	13.5154
4.5959	13.7276
4.5918	13.9333
4.5877	14.1289
4.5837	14.3196
4.5796	14.4925
4.5756	14.6361
4.5716	14.7613
4.5675	14.8887
4.5635	15.0251
4.5595	15.1359
4.5555	15.2201
4.5515	15.2945
4.5475	15.3529
4.5435	15.3847
4.5395	15.394
4.5356	15.3859
4.5316	15.3656
4.5276	15.3177
4.5237	15.2395
4.5197	15.151
4.5158	15.0453
4.5119	14.922
4.508	14.777
4.504	14.6253
4.5001	14.5018
4.4962	14.4131
4.4923	14.3705
4.4884	14.3741
4.4846	14.3944
4.4807	14.4406
4.4768	14.4872
4.473	14.531
4.4691	14.5956
4.4652	14.7
4.4614	14.8634
4.4576	15.077
4.4537	15.3266
4.4499	15.5995
4.4461	15.8694
4.4423	16.131
4.4385	16.3812
4.4347	16.6188
4.4309	16.8638
4.4271	17.1225
4.4233	17.3997
4.4196	17.7048
4.4158	18.0441
4.412	18.4016
4.4083	18.7623
4.4045	19.1288
4.4008	19.5086
4.3971	19.8873
4.3934	20.2806
4.3896	20.7039
4.3859	21.1281
4.3822	21.5381
4.3785	21.9347
4.3748	22.3181
4.3711	22.6941
4.3674	23.0563
4.3638	23.4168
4.3601	23.7671
4.3564	24.075
4.3528	24.3415
4.3491	24.5586
4.3455	24.7341
4.3418	24.8875
4.3382	25.028
4.3346	25.1582
4.331	25.2672
4.3273	25.3453
4.3237	25.3838
4.3201	25.3871
4.3165	25.3703
4.3129	25.3428
4.3094	25.2993
4.3058	25.251
4.3022	25.2156
4.2986	25.2067
4.2951	25.217
4.2915	25.239
4.288	25.279
4.2844	25.3368
4.2809	25.3833
4.2774	25.4328
4.2738	25.5273
4.2703	25.6759
4.2668	25.856
4.2633	26.0379
4.2598	26.2114
4.2563	26.3563
4.2528	26.4652
4.2493	26.5324
4.2458	26.564
4.2424	26.5802
4.2389	26.592
4.2354	26.6078
4.232	26.629
4.2285	26.6724
4.2251	26.7434
4.2216	26.8204
4.2182	26.8896
4.2148	26.9564
4.2113	27.0206
4.2079	27.0853
4.2045	27.1368
4.2011	27.1849
4.1977	27.2284
4.1943	27.2762
4.1909	27.344
4.1875	27.4266
4.1841	27.5187
4.1808	27.623
4.1774	27.7315
4.174	27.8402
4.1707	27.9332
4.1673	28.0091
4.164	28.0841
4.1606	28.1479
4.1573	28.2089
4.154	28.279
4.1506	28.3623
4.1473	28.4463
4.144	28.5254
4.1407	28.6111
4.1374	28.6966
4.1341	28.7839
4.1308	28.8817
4.1275	28.9788
4.1242	29.0731
4.1209	29.1587
4.1177	29.2487
4.1144	29.337
4.1111	29.4119
4.1079	29.4827
4.1046	29.5588
4.1014	29.6356
4.0981	29.7103
4.0949	29.7878
4.0917	29.8701
4.0884	29.9373
4.0852	29.9832
4.082	30.0021
4.0788	30.0033
4.0756	29.9782
4.0724	29.9277
4.0692	29.8715
4.066	29.8195
4.0628	29.7607
4.0596	29.6942
4.0565	29.6258
4.0533	29.542
4.0501	29.437
4.047	29.3189
4.0438	29.1872
4.0406	29.043
4.0375	28.8824
4.0344	28.7107
4.0312	28.5427
4.0281	28.3644
4.025	28.1795
4.0218	27.9868
4.0187	27.785
4.0156	27.5727
4.0125	27.3466
4.0094	27.1109
4.0063	26.8825
4.0032	26.6667
4.0001	26.4594
3.997	26.2489
3.994	26.0565
3.9909	25.8804
3.9878	25.7154
3.9847	25.5558
3.9817	25.4055
3.9786	25.2747
3.9756	25.1643
3.9725	25.0914
3.9695	25.0603
3.9665	25.0521
3.9634	25.0744
3.9604	25.1086
3.9574	25.1502
3.9544	25.21
3.9513	25.2971
3.9483	25.4093
3.9453	25.5166
3.9423	25.6153
3.9393	25.7144
3.9363	25.8087
3.9333	25.8831
3.9304	25.942
3.9274	25.9979
3.9244	26.0499
3.9214	26.1053
3.9185	26.1835
3.9155	26.2901
3.9126	26.4243
3.9096	26.5631
3.9067	26.7044
3.9037	26.8334
3.9008	26.9293
3.8979	26.997
3.8949	27.0458
3.892	27.0629
3.8891	27.0672
3.8862	27.0839
3.8833	27.1081
3.8804	27.12
3.8775	27.1368
3.8746	27.1779
3.8717	27.2399
3.8688	27.2993
3.8659	27.3873
3.863	27.5302
3.8601	27.7074
3.8573	27.8998
3.8544	28.1053
3.8515	28.3106
3.8487	28.4929
3.8458	28.6121
3.843	28.6475
3.8401	28.6257
3.8373	28.5503
3.8344	28.4224
3.8316	28.28
3.8288	28.1556
3.8259	28.0457
3.8231	27.94
3.8203	27.8309
3.8175	27.7206
3.8147	27.6031
3.8119	27.4918
3.8091	27.4172
3.8063	27.3863
3.8035	27.3856
3.8007	27.4316
3.7979	27.5098
3.7951	27.584
3.7924	27.6631
3.7896	27.7591
3.7868	27.8505
3.7841	27.9397
3.7813	28.028
3.7785	28.1096
3.7758	28.1833
3.773	28.2398
3.7703	28.2881
3.7676	28.3393
3.7648	28.379
3.7621	28.4305
3.7594	28.511
3.7566	28.603
3.7539	28.6926
3.7512	28.7702
3.7485	28.8468
3.7458	28.9207
3.7431	28.9712
3.7404	29.0049
3.7377	29.0312
3.735	29.0399
3.7323	29.0276
3.7296	29.0164
3.7269	29.0106
3.7242	29.0063
3.7216	28.9956
3.7189	28.9925
3.7162	29.0145
3.7136	29.0451
3.7109	29.0896
3.7083	29.1473
3.7056	29.1999
3.703	29.255
3.7003	29.2992
3.6977	29.3387
3.695	29.3858
3.6924	29.4195
3.6898	29.4499
3.6872	29.5059
3.6845	29.577
3.6819	29.6514
3.6793	29.7299
3.6767	29.81
3.6741	29.8864
3.6715	29.9756
3.6689	30.0789
3.6663	30.196
3.6637	30.3014
3.6611	30.3809
3.6585	30.4665
3.656	30.5737
3.6534	30.6727
3.6508	30.7747
3.6482	30.8775
3.6457	30.9759
3.6431	31.074
3.6406	31.1516
3.638	31.2123
3.6355	31.2891
3.6329	31.3475
3.6304	31.3705
3.6278	31.3662
3.6253	31.3537
3.6227	31.3551
3.6202	31.3489
3.6177	31.3202
3.6152	31.3096
3.6127	31.3036
3.6101	31.2762
3.6076	31.2252
3.6051	31.1539
3.6026	31.0797
3.6001	30.997
3.5976	30.8929
3.5951	30.7876
3.5926	30.6916
3.5901	30.5965
3.5876	30.4911
3.5852	30.3816
3.5827	30.2665
3.5802	30.1591
3.5777	30.0469
3.5753	29.9222
3.5728	29.8014
3.5704	29.6758
3.5679	29.5493
3.5654	29.4069
3.563	29.242
3.5605	29.08
3.5581	28.9167
3.5557	28.7484
3.5532	28.5967
3.5508	28.4814
3.5484	28.4159
3.5459	28.3623
3.5435	28.3209
3.5411	28.2652
3.5387	28.1953
3.5363	28.1173
3.5338	28.0122
3.5314	27.8912
3.529	27.7481
3.5266	27.5801
3.5242	27.3969
3.5218	27.1789
3.5195	26.9643
3.5171	26.7595
3.5147	26.5238
3.5123	26.2834
3.5099	26.0515
3.5075	25.8039
3.5052	25.5486
3.5028	25.3101
3.5004	25.1094
3.4981	24.9555
3.4957	24.8267
3.4934	24.7321
3.491	24.6541
3.4887	24.5555
3.4863	24.4564
3.484	24.3523
3.4816	24.2215
3.4793	24.0977
3.477	23.9989
3.4746	23.9138
3.4723	23.8205
3.47	23.7458
3.4677	23.6848
3.4653	23.597
3.463	23.479
3.4607	23.3597
3.4584	23.2711
3.4561	23.206
3.4538	23.1369
3.4515	23.0762
3.4492	23.0196
3.4469	22.9603
3.4446	22.929
3.4423	22.9062
3.44	22.8886
3.4378	22.8727
3.4355	22.8314
3.4332	22.7555
3.4309	22.6945
3.4287	22.6287
3.4264	22.5555
3.4241	22.4708
3.4219	22.3694
3.4196	22.2627
3.4174	22.1428
3.4151	22.0329
3.4129	21.976
3.4106	21.937
3.4084	21.8753
3.4061	21.8181
3.4039	21.7839
3.4017	21.7626
3.3994	21.7312
3.3972	21.699
3.395	21.6659
3.3928	21.625
3.3906	21.5501
3.3883	21.4712
3.3861	21.4138
3.3839	21.3451
3.3817	21.2601
3.3795	21.1683
3.3773	21.0675
3.3751	20.9668
3.3729	20.8568
3.3707	20.7482
3.3685	20.6405
3.3663	20.518
3.3641	20.4094
3.362	20.3256
3.3598	20.2574
3.3576	20.1969
3.3554	20.1208
3.3533	20.0321
3.3511	19.9347
3.3489	19.8198
3.3468	19.6976
3.3446	19.5966
3.3425	19.5215
3.3403	19.4492
3.3382	19.3717
3.336	19.3016
3.3339	19.2427
3.3317	19.1741
3.3296	19.0958
3.3274	19.031
3.3253	18.9628
3.3232	18.877
3.321	18.7604
3.3189	18.6508
3.3168	18.5781
3.3147	18.5044
3.3126	18.4436
3.3104	18.4144
3.3083	18.3948
3.3062	18.3872
3.3041	18.3855
3.302	18.4383
3.2999	18.542
3.2978	18.6192
3.2957	18.6965
3.2936	18.7927
3.2915	18.8707
3.2894	18.918
3.2874	18.9515
3.2853	18.9802
3.2832	18.9947
3.2811	18.9772
3.279	18.9626
3.277	18.9485
3.2749	18.9353
3.2728	18.908
3.2708	18.8609
3.2687	18.8104
3.2666	18.7647
3.2646	18.7326
3.2625	18.6965
3.2605	18.6453
3.2584	18.6197
3.2564	18.6013
3.2543	18.5566
3.2523	18.5075
3.2503	18.4773
3.2482	18.4484
3.2462	18.3891
3.2442	18.3201
3.2421	18.2613
3.2401	18.2157
3.2381	18.1826
3.2361	18.1431
3.234	18.0874
3.232	18.0067
3.23	17.9244
3.228	17.8485
3.226	17.7763
3.224	17.7094
3.222	17.6469
3.22	17.5605
3.218	17.4586
3.216	17.3731
3.214	17.2913
3.212	17.21
3.21	17.1389
3.208	17.0416
3.206	16.9186
3.204	16.7985
3.2021	16.7267
3.2001	16.7002
3.1981	16.6454
3.1961	16.5762
