Name: Alkalic Granite
Type: Rocks
Class: Igneous
Subclass: Felsic
Particle Size: 0-75 micrometers
Sample No.: Granite.H1
Owner: JHU
Wavelength range: All
Origin: From Quincy, Norfolk, Massachusetts via Ward's Scientific (Cat. 
No. W-4)
Description: Sample from which powder was derived is a gray, medium- to 
coarse-grained rock composed of quartz, feldspar, and a mafic mineral.




Measurement: Directional (10 degree) hemispherical reflectance
First Column: X
Second Column: Y
X Units: Wavelength (micrometers)
Y Units: Reflectance (percent)
First X Value: 14.0112
Last X Value: 0.4000
Number of X Values: 2844
Additional information: granit1a.txt

14.011	1.9200
13.973	3.7050
13.936	2.4187
13.899	1.6575
13.861	2.0175
13.824	2.9025
13.788	2.7600
13.751	0.8025
13.715	1.3200
13.679	1.9688
13.643	1.5994
13.607	3.0975
13.571	3.5925
13.536	3.6450
13.500	3.0169
13.465	2.3138
13.430	2.1338
13.396	2.4300
13.361	2.3587
13.327	2.6906
13.293	2.9831
13.259	2.2312
13.225	2.3775
13.191	3.2072
13.158	1.8797
13.124	1.1343
13.091	2.0494
13.058	1.9584
13.026	1.8956
12.993	2.2350
12.960	1.9668
12.928	1.6190
12.896	1.6932
12.864	1.3650
12.832	1.6003
12.800	1.9860
12.769	1.7930
12.737	1.6205
12.706	1.3875
12.675	1.5211
12.644	2.0724
12.614	2.1281
12.583	1.9842
12.552	2.1394
12.522	2.6011
12.492	2.7347
12.462	2.6250
12.432	2.6184
12.402	2.9447
12.373	3.3975
12.343	3.6455
12.314	3.9492
12.285	4.2122
12.256	4.5581
12.227	5.1122
12.198	5.4886
12.169	5.6808
12.141	5.9194
12.113	6.3778
12.084	6.6403
12.056	6.8104
12.028	7.1194
12.000	7.4629
11.973	7.7044
11.945	7.6605
11.918	7.7140
11.890	7.9771
11.863	8.1159
11.836	7.9163
11.809	7.9566
11.782	7.9943
11.755	7.9839
11.729	8.0845
11.702	8.0571
11.676	8.0721
11.650	8.1010
11.624	8.0166
11.598	8.0702
11.572	8.0334
11.546	7.9434
11.520	7.9242
11.495	7.9247
11.469	7.9340
11.444	7.8621
11.419	7.9303
11.394	7.9237
11.369	7.8208
11.344	7.7805
11.319	7.8471
11.294	7.8452
11.270	7.7224
11.245	7.6064
11.221	7.5272
11.197	7.5366
11.173	7.4625
11.149	7.4655
11.125	7.4196
11.101	7.2815
11.077	7.1964
11.054	7.2660
11.030	7.2590
11.007	7.0498
10.983	6.9228
10.960	6.9659
10.937	6.9173
10.914	6.6893
10.891	6.6106
10.868	6.6150
10.846	6.4997
10.823	6.3586
10.800	6.2704
10.778	6.2264
10.755	6.1504
10.733	6.0509
10.711	5.8587
10.689	5.7257
10.667	5.5716
10.645	5.4621
10.623	5.3011
10.602	5.0878
10.580	4.8872
10.558	4.7517
10.537	4.6382
10.516	4.5084
10.494	4.4125
10.473	4.3882
10.452	4.2417
10.431	4.1364
10.410	4.0453
10.389	4.0099
10.368	4.0116
10.348	3.9996
10.327	3.8779
10.306	3.8414
10.286	3.9049
10.266	3.8508
10.245	3.7402
10.225	3.7135
10.205	3.6516
10.185	3.6710
10.165	3.6825
10.145	3.6972
10.125	3.7249
10.106	3.7256
10.086	3.6755
10.066	3.6488
10.047	3.6178
10.027	3.6127
10.008	3.5859
9.9887	3.6351
9.9695	3.6996
9.9504	3.6614
9.9313	3.6564
9.9123	3.6478
9.8934	3.6876
9.8746	3.6764
9.8558	3.6002
9.8371	3.4922
9.8185	3.4620
9.7999	3.5076
9.7814	3.4823
9.7630	3.4807
9.7447	3.4472
9.7264	3.4076
9.7082	3.4127
9.6900	3.4537
9.6719	3.5210
9.6539	3.5756
9.6360	3.6349
9.6181	3.5447
9.6003	3.4833
9.5825	3.4912
9.5649	3.4587
9.5472	3.4608
9.5297	3.4216
9.5122	3.4073
9.4948	3.4566
9.4774	3.4455
9.4601	3.4057
9.4429	3.4596
9.4257	3.5364
9.4086	3.6675
9.3916	3.7603
9.3746	3.9228
9.3577	4.0727
9.3408	4.1716
9.3240	4.2790
9.3073	4.3945
9.2906	4.4339
9.2740	4.4564
9.2574	4.4168
9.2409	4.3948
9.2245	4.4433
9.2081	4.4125
9.1918	4.3366
9.1755	4.3024
9.1593	4.2535
9.1431	4.1906
9.1270	4.0955
9.1110	4.0327
9.0950	4.0237
9.0791	3.9563
9.0632	3.8480
9.0474	3.8384
9.0316	3.8198
9.0159	3.7655
9.0003	3.6896
8.9847	3.6844
8.9691	3.7085
8.9536	3.7156
8.9382	3.7322
8.9228	3.7247
8.9075	3.6875
8.8922	3.6825
8.8770	3.6886
8.8618	3.7064
8.8467	3.6415
8.8316	3.6480
8.8166	3.6865
8.8016	3.5967
8.7867	3.5649
8.7718	3.6208
8.7570	3.6511
8.7422	3.6902
8.7275	3.7156
8.7129	3.7356
8.6982	3.7932
8.6837	3.7992
8.6692	3.6954
8.6547	3.5294
8.6403	3.4659
8.6259	3.4790
8.6116	3.5768
8.5973	3.7725
8.5830	3.9132
8.5688	4.0252
8.5547	4.1224
8.5406	4.1639
8.5266	4.2047
8.5126	4.2670
8.4986	4.3533
8.4847	4.3847
8.4708	4.3912
8.4570	4.3758
8.4432	4.4189
8.4295	4.4171
8.4158	4.4386
8.4022	4.4771
8.3886	4.5028
8.3750	4.5047
8.3615	4.5642
8.3481	4.5675
8.3347	4.5900
8.3213	4.6378
8.3079	4.6589
8.2946	4.6704
8.2814	4.6997
8.2682	4.7925
8.2550	4.8836
8.2419	4.9083
8.2288	4.9148
8.2158	5.0156
8.2028	5.1052
8.1898	5.1028
8.1769	5.0644
8.1640	5.0081
8.1512	4.8717
8.1384	4.7296
8.1256	4.5514
8.1129	4.2940
8.1002	4.0488
8.0876	3.8533
8.0750	3.7345
8.0624	3.6169
8.0499	3.4387
8.0374	3.2330
8.0250	3.0558
8.0126	2.9639
8.0002	2.9452
7.9879	2.7727
7.9756	2.5641
7.9634	2.4312
7.9512	2.2449
7.9390	2.0794
7.9268	2.0053
7.9147	1.9216
7.9027	1.8319
7.8906	1.7771
7.8786	1.6961
7.8667	1.6148
7.8548	1.5384
7.8429	1.4667
7.8310	1.4221
7.8192	1.3706
7.8075	1.3556
7.7957	1.3303
7.7840	1.2909
7.7723	1.3345
7.7607	1.3114
7.7491	1.2891
7.7375	1.2689
7.7260	1.2206
7.7145	1.2052
7.7031	1.2488
7.6916	1.3085
7.6802	1.2701
7.6689	1.2335
7.6575	1.2457
7.6462	1.2410
7.6350	1.2138
7.6238	1.2270
7.6126	1.2712
7.6014	1.2774
7.5903	1.3076
7.5792	1.3143
7.5681	1.3496
7.5571	1.3899
7.5461	1.3945
7.5351	1.4166
7.5242	1.4784
7.5133	1.4911
7.5024	1.4981
7.4916	1.5110
7.4807	1.5732
7.4700	1.6364
7.4592	1.6247
7.4485	1.6294
7.4378	1.7241
7.4272	1.7930
7.4165	1.7880
7.4059	1.8094
7.3954	1.8975
7.3848	1.9429
7.3743	1.9592
7.3639	2.0044
7.3534	2.0911
7.3430	2.1532
7.3326	2.2242
7.3223	2.2678
7.3119	2.3681
7.3016	2.4820
7.2914	2.5289
7.2811	2.5894
7.2709	2.6977
7.2607	2.8153
7.2506	2.9330
7.2404	3.0202
7.2303	3.1329
7.2203	3.2343
7.2102	3.3094
7.2002	3.3569
7.1902	3.4582
7.1803	3.5758
7.1703	3.6745
7.1604	3.7969
7.1506	3.9300
7.1407	4.0748
7.1309	4.2174
7.1211	4.3223
7.1113	4.4405
7.1016	4.5286
7.0919	4.6242
7.0822	4.7442
7.0725	4.8190
7.0629	4.8553
7.0533	4.9574
7.0437	5.0564
7.0341	5.0939
7.0246	5.1839
7.0151	5.3034
7.0056	5.3620
6.9962	5.4234
6.9867	5.4928
6.9773	5.5870
6.9679	5.6566
6.9586	5.7220
6.9493	5.7787
6.9400	5.8615
6.9307	6.0225
6.9214	6.1031
6.9122	6.1190
6.9030	6.2020
6.8938	6.2972
6.8847	6.3220
6.8755	6.3623
6.8664	6.4223
6.8573	6.4335
6.8483	6.4280
6.8393	6.4746
6.8302	6.5029
6.8213	6.4786
6.8123	6.5095
6.8034	6.5512
6.7944	6.5023
6.7855	6.4319
6.7767	6.4153
6.7678	6.4411
6.7590	6.4500
6.7502	6.4298
6.7414	6.4842
6.7327	6.5535
6.7239	6.5625
6.7152	6.5740
6.7065	6.6522
6.6979	6.7617
6.6892	6.8602
6.6806	6.9274
6.6720	7.0270
6.6634	7.1540
6.6549	7.2846
6.6464	7.3800
6.6378	7.3767
6.6294	7.4081
6.6209	7.4100
6.6124	7.4109
6.6040	7.4623
6.5956	7.5239
6.5872	7.5337
6.5789	7.5488
6.5705	7.5839
6.5622	7.5473
6.5539	7.5921
6.5456	7.6933
6.5374	7.7916
6.5292	7.9516
6.5209	8.1665
6.5128	8.4231
6.5046	8.6437
6.4964	8.8816
6.4883	9.0949
6.4802	9.2569
6.4721	9.4476
6.4640	9.6571
6.4560	9.7680
6.4480	9.8002
6.4399	9.8662
6.4320	9.9517
6.4240	9.9618
6.4160	9.9586
6.4081	9.9377
6.4002	9.8512
6.3923	9.7810
6.3844	9.6862
6.3766	9.5376
6.3687	9.3925
6.3609	9.2522
6.3531	9.1045
6.3454	8.9771
6.3376	8.7998
6.3299	8.6986
6.3221	8.5420
6.3144	8.3465
6.3068	8.1530
6.2991	7.9818
6.2914	7.9117
6.2838	7.8379
6.2762	7.6748
6.2686	7.5056
6.2611	7.3411
6.2535	7.2522
6.2460	7.1751
6.2385	7.0587
6.2310	6.9211
6.2235	6.9023
6.2160	6.9140
6.2086	6.8311
6.2011	6.8025
6.1937	6.8594
6.1863	7.0101
6.1790	7.1948
6.1716	7.3612
6.1643	7.5335
6.1570	7.7449
6.1496	7.9940
6.1424	8.2319
6.1351	8.4374
6.1278	8.6976
6.1206	8.9484
6.1134	9.1260
6.1062	9.3187
6.0990	9.4980
6.0918	9.6384
6.0847	9.7774
6.0776	9.9328
6.0704	10.014
6.0633	10.094
6.0563	10.158
6.0492	10.254
6.0421	10.351
6.0351	10.387
6.0281	10.427
6.0211	10.507
6.0141	10.531
6.0071	10.476
6.0002	10.490
5.9932	10.500
5.9863	10.412
5.9794	10.283
5.9725	10.193
5.9657	10.144
5.9588	10.051
5.9520	9.9616
5.9451	9.8873
5.9383	9.8179
5.9315	9.8095
5.9247	9.8770
5.9180	9.9576
5.9112	10.050
5.9045	10.219
5.8978	10.398
5.8911	10.589
5.8844	10.738
5.8777	10.895
5.8711	11.060
5.8644	11.207
5.8578	11.356
5.8512	11.500
5.8446	11.619
5.8380	11.716
5.8314	11.809
5.8249	11.870
5.8184	11.910
5.8118	11.915
5.8053	11.942
5.7988	11.968
5.7923	12.005
5.7859	12.019
5.7794	12.020
5.7730	12.023
5.7666	12.007
5.7602	12.032
5.7538	12.052
5.7474	12.075
5.7410	12.110
5.7347	12.087
5.7283	12.095
5.7220	12.098
5.7157	12.097
5.7094	12.101
5.7031	12.062
5.6969	12.020
5.6906	11.938
5.6844	11.833
5.6782	11.705
5.6719	11.596
5.6657	11.445
5.6596	11.234
5.6534	11.034
5.6472	10.892
5.6411	10.795
5.6349	10.668
5.6288	10.582
5.6227	10.551
5.6166	10.500
5.6106	10.513
5.6045	10.561
5.5984	10.561
5.5924	10.556
5.5864	10.568
5.5804	10.579
5.5744	10.607
5.5684	10.675
5.5624	10.761
5.5564	10.859
5.5505	10.996
5.5445	11.171
5.5386	11.449
5.5327	11.753
5.5268	12.051
5.5209	12.440
5.5151	12.811
5.5092	13.111
5.5033	13.425
5.4975	13.717
5.4917	13.950
5.4859	14.195
5.4801	14.412
5.4743	14.598
5.4685	14.727
5.4628	14.818
5.4570	14.900
5.4513	14.995
5.4455	15.027
5.4398	14.989
5.4341	14.969
5.4284	14.929
5.4228	14.810
5.4171	14.613
5.4114	14.407
5.4058	14.164
5.4002	13.834
5.3945	13.493
5.3889	13.164
5.3833	12.814
5.3778	12.513
5.3722	12.262
5.3666	12.059
5.3611	11.920
5.3555	11.824
5.3500	11.818
5.3445	11.843
5.3390	11.905
5.3335	11.993
5.3280	12.068
5.3225	12.186
5.3171	12.275
5.3116	12.364
5.3062	12.488
5.3008	12.603
5.2954	12.717
5.2900	12.863
5.2846	13.057
5.2792	13.278
5.2738	13.582
5.2684	13.845
5.2631	14.092
5.2578	14.409
5.2524	14.733
5.2471	15.031
5.2418	15.407
5.2365	15.816
5.2312	16.218
5.2260	16.638
5.2207	17.037
5.2154	17.381
5.2102	17.741
5.2050	18.059
5.1998	18.316
5.1945	18.510
5.1893	18.652
5.1842	18.789
5.1790	18.899
5.1738	19.020
5.1686	19.125
5.1635	19.206
5.1584	19.295
5.1532	19.417
5.1481	19.491
5.1430	19.580
5.1379	19.638
5.1328	19.719
5.1277	19.875
5.1227	20.001
5.1176	20.119
5.1126	20.254
5.1075	20.416
5.1025	20.561
5.0975	20.617
5.0925	20.603
5.0875	20.564
5.0825	20.508
5.0775	20.442
5.0726	20.408
5.0676	20.405
5.0627	20.338
5.0577	20.294
5.0528	20.285
5.0479	20.320
5.0430	20.349
5.0380	20.389
5.0332	20.432
5.0283	20.429
5.0234	20.466
5.0185	20.542
5.0137	20.583
5.0088	20.607
5.0040	20.676
4.9992	20.841
4.9944	21.060
4.9896	21.261
4.9848	21.542
4.9800	21.908
4.9752	22.333
4.9704	22.821
4.9657	23.335
4.9609	23.825
4.9562	24.225
4.9514	24.520
4.9467	24.750
4.9420	24.925
4.9373	25.069
4.9326	25.186
4.9279	25.301
4.9232	25.505
4.9186	25.745
4.9139	26.083
4.9092	26.532
4.9046	27.069
4.9000	27.643
4.8953	28.251
4.8907	28.900
4.8861	29.476
4.8815	29.968
4.8769	30.412
4.8723	30.850
4.8678	31.221
4.8632	31.495
4.8586	31.747
4.8541	32.044
4.8495	32.333
4.8450	32.499
4.8405	32.633
4.8360	32.951
4.8315	33.052
4.8270	33.037
4.8225	33.074
4.8180	33.071
4.8135	33.056
4.8090	32.983
4.8046	32.921
4.8001	32.912
4.7957	32.878
4.7913	32.780
4.7868	32.720
4.7824	32.717
4.7780	32.726
4.7736	32.819
4.7692	32.977
4.7648	33.144
4.7605	33.270
4.7561	33.457
4.7517	33.670
4.7474	33.911
4.7431	34.068
4.7387	34.155
4.7344	34.261
4.7301	34.387
4.7258	34.434
4.7215	34.431
4.7172	34.445
4.7129	34.389
4.7086	34.386
4.7043	34.411
4.7000	34.371
4.6958	34.321
4.6915	34.270
4.6873	34.278
4.6831	34.287
4.6788	34.301
4.6746	34.378
4.6704	34.518
4.6662	34.675
4.6620	34.835
4.6578	35.014
4.6536	35.192
4.6495	35.276
4.6453	35.478
4.6411	35.734
4.6370	35.966
4.6328	36.188
4.6287	36.422
4.6246	36.677
4.6205	36.876
4.6163	37.092
4.6122	37.250
4.6081	37.402
4.6040	37.547
4.6000	37.644
4.5959	37.741
4.5918	37.956
4.5877	38.139
4.5837	38.294
4.5796	38.421
4.5756	38.531
4.5716	38.649
4.5675	38.789
4.5635	38.973
4.5595	39.118
4.5555	39.234
4.5515	39.365
4.5475	39.503
4.5435	39.597
4.5395	39.629
4.5356	39.670
4.5316	39.761
4.5276	39.845
4.5237	39.833
4.5197	39.845
4.5158	39.823
4.5119	39.764
4.5080	39.726
4.5040	39.720
4.5001	39.710
4.4962	39.725
4.4923	39.728
4.4884	39.729
4.4846	39.741
4.4807	39.828
4.4768	39.952
4.4730	39.995
4.4691	40.030
4.4652	40.148
4.4614	40.343
4.4576	40.519
4.4537	40.664
4.4499	40.801
4.4461	41.020
4.4423	41.196
4.4385	41.283
4.4347	41.368
4.4309	41.530
4.4271	41.653
4.4233	41.765
4.4196	41.934
4.4158	42.054
4.4120	42.206
4.4083	42.384
4.4045	42.476
4.4008	42.579
4.3971	42.745
4.3934	42.923
4.3896	43.114
4.3859	43.294
4.3822	43.489
4.3785	43.688
4.3748	43.843
4.3711	44.005
4.3674	44.219
4.3638	44.400
4.3601	44.532
4.3564	44.633
4.3528	44.724
4.3491	44.846
4.3455	45.005
4.3418	45.101
4.3382	45.206
4.3346	45.359
4.3310	45.412
4.3273	45.487
4.3237	45.549
4.3201	45.595
4.3165	45.687
4.3129	45.763
4.3094	45.846
4.3058	45.888
4.3022	45.930
4.2986	45.970
4.2951	46.001
4.2915	46.023
4.2880	46.088
4.2844	46.218
4.2809	46.296
4.2774	46.302
4.2738	46.348
4.2703	46.389
4.2668	46.478
4.2633	46.615
4.2598	46.755
4.2563	46.891
4.2528	46.992
4.2493	46.989
4.2458	46.945
4.2424	46.941
4.2389	46.931
4.2354	46.953
4.2320	47.040
4.2285	47.127
4.2251	47.195
4.2216	47.278
4.2182	47.337
4.2148	47.469
4.2113	47.556
4.2079	47.579
4.2045	47.622
4.2011	47.670
4.1977	47.737
4.1943	47.793
4.1909	47.809
4.1875	47.827
4.1841	47.835
4.1808	47.924
4.1774	48.004
4.1740	48.090
4.1707	48.172
4.1673	48.146
4.1640	48.165
4.1606	48.219
4.1573	48.285
4.1540	48.334
4.1506	48.386
4.1473	48.428
4.1440	48.410
4.1407	48.467
4.1374	48.529
4.1341	48.583
4.1308	48.593
4.1275	48.587
4.1242	48.643
4.1209	48.738
4.1177	48.799
4.1144	48.818
4.1111	48.817
4.1079	48.888
4.1046	48.961
4.1014	48.938
4.0981	48.912
4.0949	48.972
4.0917	49.049
4.0884	49.068
4.0852	49.073
4.0820	49.178
4.0788	49.226
4.0756	49.208
4.0724	49.257
4.0692	49.253
4.0660	49.261
4.0628	49.297
4.0596	49.300
4.0565	49.291
4.0533	49.306
4.0501	49.257
4.0470	49.246
4.0438	49.248
4.0406	49.234
4.0375	49.260
4.0344	49.270
4.0312	49.275
4.0281	49.282
4.0250	49.260
4.0218	49.289
4.0187	49.336
4.0156	49.354
4.0125	49.357
4.0094	49.324
4.0063	49.303
4.0032	49.265
4.0001	49.320
3.9970	49.368
3.9940	49.377
3.9909	49.403
3.9878	49.406
3.9847	49.393
3.9817	49.406
3.9786	49.403
3.9756	49.450
3.9725	49.536
3.9695	49.581
3.9665	49.582
3.9634	49.634
3.9604	49.650
3.9574	49.629
3.9544	49.615
3.9513	49.678
3.9483	49.753
3.9453	49.723
3.9423	49.702
3.9393	49.730
3.9363	49.780
3.9333	49.861
3.9304	49.829
3.9274	49.836
3.9244	49.872
3.9214	49.892
3.9185	49.857
3.9155	49.871
3.9126	49.861
3.9096	49.838
3.9067	49.885
3.9037	49.935
3.9008	49.964
3.8979	49.947
3.8949	49.927
3.8920	49.916
3.8891	49.836
3.8862	49.843
3.8833	49.879
3.8804	49.858
3.8775	49.860
3.8746	49.872
3.8717	49.852
3.8688	49.818
3.8659	49.830
3.8630	49.861
3.8601	49.861
3.8573	49.860
3.8544	49.862
3.8515	49.887
3.8487	49.907
3.8458	49.922
3.8430	49.918
3.8401	49.888
3.8373	49.906
3.8344	49.964
3.8316	49.916
3.8288	49.906
3.8259	49.942
3.8231	49.936
3.8203	49.969
3.8175	50.035
3.8147	50.048
3.8119	50.020
3.8091	50.002
3.8063	50.005
3.8035	49.997
3.8007	50.008
3.7979	50.074
3.7951	50.054
3.7924	50.030
3.7896	49.996
3.7868	49.983
3.7841	49.980
3.7813	49.973
3.7785	49.979
3.7758	49.991
3.7730	49.955
3.7703	49.919
3.7676	49.911
3.7648	49.921
3.7621	49.940
3.7594	49.962
3.7566	49.947
3.7539	49.899
3.7512	49.849
3.7485	49.889
3.7458	49.878
3.7431	49.853
3.7404	49.892
3.7377	49.875
3.7350	49.875
3.7323	49.856
3.7296	49.823
3.7269	49.800
3.7242	49.819
3.7216	49.828
3.7189	49.831
3.7162	49.835
3.7136	49.811
3.7109	49.819
3.7083	49.844
3.7056	49.820
3.7030	49.854
3.7003	49.881
3.6977	49.889
3.6950	49.887
3.6924	49.848
3.6898	49.859
3.6872	49.860
3.6845	49.842
3.6819	49.870
3.6793	49.857
3.6767	49.836
3.6741	49.833
3.6715	49.799
3.6689	49.830
3.6663	49.850
3.6637	49.844
3.6611	49.850
3.6585	49.845
3.6560	49.807
3.6534	49.801
3.6508	49.822
3.6482	49.780
3.6457	49.756
3.6431	49.739
3.6406	49.748
3.6380	49.750
3.6355	49.728
3.6329	49.645
3.6304	49.625
3.6278	49.653
3.6253	49.633
3.6227	49.604
3.6202	49.625
3.6177	49.575
3.6152	49.533
3.6127	49.514
3.6101	49.509
3.6076	49.485
3.6051	49.437
3.6026	49.458
3.6001	49.499
3.5976	49.460
3.5951	49.397
3.5926	49.374
3.5901	49.326
3.5876	49.308
3.5852	49.351
3.5827	49.342
3.5802	49.267
3.5777	49.195
3.5753	49.176
3.5728	49.203
3.5704	49.206
3.5679	49.159
3.5654	49.122
3.5630	49.116
3.5605	49.063
3.5581	49.037
3.5557	49.046
3.5532	49.022
3.5508	49.002
3.5484	48.968
3.5459	48.954
3.5435	48.913
3.5411	48.861
3.5387	48.827
3.5363	48.786
3.5338	48.768
3.5314	48.698
3.5290	48.626
3.5266	48.598
3.5242	48.504
3.5218	48.449
3.5195	48.442
3.5171	48.416
3.5147	48.384
3.5123	48.285
3.5099	48.159
3.5075	48.088
3.5052	48.020
3.5028	48.002
3.5004	47.941
3.4981	47.887
3.4957	47.923
3.4934	47.928
3.4910	47.867
3.4887	47.838
3.4863	47.852
3.4840	47.871
3.4816	47.851
3.4793	47.783
3.4770	47.757
3.4746	47.734
3.4723	47.666
3.4700	47.693
3.4677	47.720
3.4653	47.592
3.4630	47.520
3.4607	47.525
3.4584	47.492
3.4561	47.433
3.4538	47.361
3.4515	47.328
3.4492	47.271
3.4469	47.231
3.4446	47.172
3.4423	47.122
3.4400	47.111
3.4378	47.016
3.4355	46.861
3.4332	46.790
3.4309	46.792
3.4287	46.665
3.4264	46.527
3.4241	46.455
3.4219	46.367
3.4196	46.302
3.4174	46.179
3.4151	46.089
3.4129	46.071
3.4106	46.002
3.4084	45.978
3.4061	45.963
3.4039	45.930
3.4017	45.946
3.3994	45.905
3.3972	45.851
3.3950	45.836
3.3928	45.824
3.3906	45.806
3.3883	45.747
3.3861	45.666
3.3839	45.698
3.3817	45.669
3.3795	45.518
3.3773	45.488
3.3751	45.506
3.3729	45.465
3.3707	45.381
3.3685	45.350
3.3663	45.367
3.3641	45.342
3.3620	45.288
3.3598	45.275
3.3576	45.219
3.3554	45.172
3.3533	45.099
3.3511	45.032
3.3489	45.005
3.3468	45.014
3.3446	44.977
3.3425	44.882
3.3403	44.819
3.3382	44.713
3.3360	44.619
3.3339	44.634
3.3317	44.648
3.3296	44.533
3.3274	44.397
3.3253	44.310
3.3232	44.237
3.3210	44.188
3.3189	44.058
3.3168	44.001
3.3147	43.954
3.3126	43.842
3.3104	43.855
3.3083	43.799
3.3062	43.670
3.3041	43.601
3.3020	43.599
3.2999	43.476
3.2978	43.327
3.2957	43.240
3.2936	43.197
3.2915	43.155
3.2894	43.077
3.2874	42.974
3.2853	42.875
3.2832	42.756
3.2811	42.693
3.2790	42.658
3.2770	42.572
3.2749	42.424
3.2728	42.299
3.2708	42.260
3.2687	42.180
3.2666	42.054
3.2646	41.984
3.2625	41.911
3.2605	41.812
3.2584	41.687
3.2564	41.589
3.2543	41.532
3.2523	41.432
3.2503	41.331
3.2482	41.183
3.2462	41.080
3.2442	41.019
3.2421	40.928
3.2401	40.765
3.2381	40.673
3.2361	40.575
3.2340	40.455
3.2320	40.383
3.2300	40.294
3.2280	40.132
3.2260	39.925
3.2240	39.787
3.2220	39.746
3.2200	39.629
3.2180	39.496
3.2160	39.403
3.2140	39.235
3.2120	39.121
3.2100	39.032
3.2080	38.910
3.2060	38.756
3.2040	38.660
3.2021	38.594
3.2001	38.480
3.1981	38.375
3.1961	38.300
3.1942	38.126
3.1922	37.971
3.1902	37.860
3.1883	37.758
3.1863	37.708
3.1844	37.631
3.1824	37.440
3.1805	37.252
3.1785	37.178
3.1766	37.134
3.1746	36.989
3.1727	36.839
3.1707	36.736
3.1688	36.620
3.1669	36.518
3.1649	36.361
3.1630	36.209
3.1611	36.178
3.1591	36.130
3.1572	36.053
3.1553	35.878
3.1534	35.702
3.1515	35.643
3.1495	35.536
3.1476	35.361
3.1457	35.216
3.1438	35.109
3.1419	35.062
3.1400	34.957
3.1381	34.827
3.1362	34.749
3.1343	34.674
3.1324	34.527
3.1305	34.436
3.1286	34.352
