Name: Glauconitic Sandstone 
Type:  Rocks
Class:  Sedimentary
Subclass: Sandstone 
Particle Size:  500 - 1500 Micrometers
File Name:  sandstone.2
Owner:  JHU
Wavelength Range:  All
Origin:  Sample No. 364,  The Hunt and Salisbury Collection at the U.S. 
Geological Survey, Denver, Co.
Description: The sample is a well-sorted, medium fine-grained, 
somewhat compacted sandstone. The strain-free, angular to 
subangular quartz grains are in a matrix of sericite, glauconite 
(mostly as autochthonous microcrystalline masses), a yellowish-
brown microcrystalline material (clay and/or glauconite?), with some 
muscovite, biotite, carbonate and minor microcline and opaques.
Measurement:  Directional (10 Degree) Hemispherical Reflectance
First Column:  X
Second Column:  Y  
X Units:  Wavelength (micrometers)
Y Units:  Reflectance (percent)
First X Value: 14.0112
Last X Value:  0.4
Number of X Values: 2844
Additional Information:  None
14.011    1.9198
13.973    1.9567
13.936    1.9916
13.899    2.0143
13.861    2.0131
13.824    2.0021
13.788    1.9983
13.751    2.0167
13.715    2.0576
13.679    2.1127
13.643    2.1688
13.607    2.2122
13.571    2.2318
13.536    2.2339
13.500    2.2316
13.465    2.2309
13.430    2.2364
13.396    2.2507
13.361    2.2667
13.327    2.2813
13.293    2.2925
13.259    2.2998
13.225    2.3076
13.191    2.3205
13.158    2.3438
13.124    2.3801
13.091    2.4258
13.058    2.4816
13.025    2.5491
12.993    2.6314
12.960    2.7371
12.928    2.8663
12.896    2.9969
12.864    3.1027
12.832    3.1591
12.800    3.1470
12.769    3.0618
12.738    2.9277
12.706    2.7876
12.675    2.6804
12.644    2.6258
12.614    2.6292
12.583    2.6794
12.552    2.7410
12.522    2.7667
12.492    2.7232
12.462    2.5969
12.432    2.4007
12.402    2.1598
12.373    1.9145
12.343    1.7100
12.314    1.5751
12.285    1.5121
12.256    1.5092
12.227    1.5460
12.198    1.6038
12.169    1.6617
12.141    1.7102
12.113    1.7516
12.084    1.7867
12.056    1.8179
12.028    1.8493
12.000    1.8820
11.973    1.9188
11.945    1.9588
11.918    2.0021
11.890    2.0476
11.863    2.0928
11.836    2.1388
11.809    2.1851
11.782    2.2282
11.756    2.2677
11.729    2.3048
11.702    2.3411
11.676    2.3765
11.650    2.4122
11.624    2.4507
11.598    2.4885
11.572    2.5194
11.546    2.5431
11.520    2.5632
11.495    2.5825
11.469    2.6031
11.444    2.6309
11.419    2.6721
11.394    2.7220
11.369    2.7744
11.344    2.8253
11.319    2.8685
11.294    2.8965
11.270    2.9075
11.246    2.9068
11.221    2.9015
11.197    2.8977
11.173    2.9010
11.149    2.9149
11.125    2.9340
11.101    2.9541
11.077    2.9716
11.054    2.9843
11.030    2.9919
11.007    2.9969
10.983    3.0027
10.960    3.0112
10.937    3.0199
10.914    3.0268
10.891    3.0316
10.868    3.0338
10.845    3.0333
10.823    3.0345
10.800    3.0441
10.778    3.0640
10.756    3.0909
10.733    3.1209
10.711    3.1515
10.689    3.1795
10.667    3.2031
10.645    3.2264
10.623    3.2549
10.602    3.2909
10.580    3.3347
10.558    3.3865
10.537    3.4431
10.515    3.4989
10.494    3.5530
10.473    3.6044
10.452    3.6551
10.431    3.7097
10.410    3.7698
10.389    3.8353
10.368    3.9026
10.348    3.9666
10.327    4.0272
10.307    4.0834
10.286    4.1378
10.266    4.1970
10.245    4.2616
10.225    4.3325
10.205    4.4080
10.185    4.4851
10.165    4.5588
10.145    4.6263
10.125    4.6864
10.106    4.7418
10.086    4.7921
10.066    4.8419
10.047    4.8975
10.027    4.9606
10.008    5.0285
 9.989    5.1033
 9.970    5.1859
 9.950    5.2715
 9.931    5.3548
 9.912    5.4364
 9.893    5.5118
 9.875    5.5756
 9.856    5.6297
 9.837    5.6831
 9.819    5.7436
 9.800    5.8161
 9.781    5.9101
 9.763    6.0293
 9.745    6.1675
 9.726    6.3195
 9.708    6.4817
 9.690    6.6482
 9.672    6.8112
 9.654    6.9664
 9.636    7.1153
 9.618    7.2550
 9.600    7.3794
 9.582    7.4828
 9.565    7.5598
 9.547    7.6093
 9.530    7.6345
 9.512    7.6471
 9.495    7.6697
 9.477    7.7258
 9.460    7.8330
 9.443    8.0032
 9.426    8.2405
 9.409    8.5438
 9.392    8.8972
 9.375    9.2775
 9.358    9.6553
 9.341   10.0027
 9.324   10.2965
 9.307   10.5259
 9.291   10.6907
 9.274   10.8039
 9.257   10.8786
 9.241   10.9279
 9.225   10.9613
 9.208   10.9860
 9.192   11.0087
 9.175   11.0348
 9.159   11.0647
 9.143   11.0967
 9.127   11.1236
 9.111   11.1391
 9.095   11.1410
 9.079   11.1291
 9.063   11.1102
 9.047   11.0914
 9.032   11.0766
 9.016   11.0697
 9.000   11.0695
 8.985   11.0702
 8.969   11.0670
 8.954   11.0570
 8.938   11.0408
 8.923   11.0190
 8.908   10.9936
 8.892   10.9697
 8.877   10.9448
 8.862   10.9108
 8.847   10.8618
 8.832   10.7958
 8.817   10.7151
 8.802   10.6245
 8.787   10.5307
 8.772   10.4374
 8.757   10.3402
 8.742   10.2326
 8.727   10.0962
 8.713    9.8935
 8.698    9.5904
 8.684    9.1842
 8.669    8.7145
 8.655    8.2603
 8.640    7.9292
 8.626    7.8194
 8.612    7.9656
 8.597    8.3134
 8.583    8.7583
 8.569    9.1945
 8.555    9.5435
 8.541    9.7731
 8.527    9.9003
 8.513    9.9675
 8.499   10.0091
 8.485   10.0374
 8.471   10.0601
 8.457   10.0814
 8.443   10.1046
 8.430   10.1320
 8.416   10.1685
 8.402   10.2168
 8.389   10.2737
 8.375   10.3359
 8.361   10.4032
 8.348   10.4783
 8.335   10.5637
 8.321   10.6603
 8.308   10.7711
 8.295   10.8970
 8.281   11.0374
 8.268   11.1862
 8.255   11.3367
 8.242   11.4830
 8.229   11.6109
 8.216   11.7042
 8.203   11.7442
 8.190   11.7121
 8.177   11.5922
 8.164   11.3716
 8.151   11.0486
 8.138   10.6369
 8.126   10.1599
 8.113    9.6476
 8.100    9.1312
 8.088    8.6360
 8.075    8.1763
 8.062    7.7541
 8.050    7.3660
 8.037    7.0093
 8.025    6.6772
 8.013    6.3652
 8.000    6.0671
 7.988    5.7778
 7.976    5.4921
 7.963    5.2064
 7.951    4.9220
 7.939    4.6437
 7.927    4.3772
 7.915    4.1279
 7.903    3.8991
 7.891    3.6924
 7.879    3.5087
 7.867    3.3487
 7.855    3.2116
 7.843    3.0941
 7.831    2.9946
 7.819    2.9113
 7.808    2.8434
 7.796    2.7873
 7.784    2.7410
 7.772    2.7010
 7.761    2.6600
 7.749    2.6146
 7.737    2.5641
 7.726    2.5108
 7.715    2.4574
 7.703    2.4062
 7.692    2.3572
 7.680    2.3101
 7.669    2.2636
 7.657    2.2179
 7.646    2.1741
 7.635    2.1325
 7.624    2.0938
 7.613    2.0561
 7.601    2.0203
 7.590    1.9889
 7.579    1.9626
 7.568    1.9418
 7.557    1.9251
 7.546    1.9119
 7.535    1.8992
 7.524    1.8822
 7.513    1.8602
 7.502    1.8344
 7.492    1.8055
 7.481    1.7761
 7.470    1.7499
 7.459    1.7320
 7.449    1.7224
 7.438    1.7167
 7.427    1.7102
 7.417    1.7026
 7.406    1.6942
 7.395    1.6839
 7.385    1.6740
 7.374    1.6674
 7.364    1.6629
 7.353    1.6566
 7.343    1.6468
 7.333    1.6385
 7.322    1.6315
 7.312    1.6257
 7.302    1.6239
 7.291    1.6279
 7.281    1.6368
 7.271    1.6473
 7.261    1.6583
 7.251    1.6712
 7.240    1.6815
 7.230    1.6873
 7.220    1.6901
 7.210    1.6901
 7.200    1.6861
 7.190    1.6760
 7.180    1.6624
 7.170    1.6492
 7.160    1.6377
 7.151    1.6298
 7.141    1.6262
 7.131    1.6282
 7.121    1.6317
 7.111    1.6334
 7.102    1.6320
 7.092    1.6287
 7.082    1.6227
 7.072    1.6152
 7.063    1.6066
 7.053    1.6011
 7.044    1.5999
 7.034    1.6021
 7.025    1.6059
 7.015    1.6099
 7.006    1.6136
 6.996    1.6141
 6.987    1.6133
 6.977    1.6154
 6.968    1.6209
 6.959    1.6315
 6.949    1.6471
 6.940    1.6645
 6.931    1.6810
 6.921    1.6932
 6.912    1.7016
 6.903    1.7052
 6.894    1.7037
 6.885    1.7014
 6.875    1.7028
 6.866    1.7087
 6.857    1.7231
 6.848    1.7469
 6.839    1.7743
 6.830    1.7995
 6.821    1.8174
 6.812    1.8270
 6.803    1.8277
 6.794    1.8234
 6.785    1.8229
 6.777    1.8299
 6.768    1.8408
 6.759    1.8538
 6.750    1.8643
 6.741    1.8698
 6.733    1.8695
 6.724    1.8643
 6.715    1.8597
 6.707    1.8599
 6.698    1.8681
 6.689    1.8818
 6.681    1.8946
 6.672    1.9059
 6.663    1.9140
 6.655    1.9162
 6.646    1.9172
 6.638    1.9227
 6.629    1.9361
 6.621    1.9504
 6.612    1.9588
 6.604    1.9590
 6.596    1.9519
 6.587    1.9414
 6.579    1.9341
 6.571    1.9341
 6.562    1.9432
 6.554    1.9590
 6.546    1.9786
 6.537    1.9964
 6.529    2.0110
 6.521    2.0229
 6.513    2.0339
 6.505    2.0437
 6.496    2.0564
 6.488    2.0794
 6.480    2.1141
 6.472    2.1542
 6.464    2.1911
 6.456    2.2138
 6.448    2.2155
 6.440    2.1937
 6.432    2.1552
 6.424    2.1143
 6.416    2.0794
 6.408    2.0553
 6.400    2.0385
 6.392    2.0196
 6.384    1.9927
 6.377    1.9583
 6.369    1.9212
 6.361    1.8865
 6.353    1.8566
 6.345    1.8337
 6.338    1.8164
 6.330    1.8005
 6.322    1.7834
 6.314    1.7674
 6.307    1.7520
 6.299    1.7353
 6.291    1.7176
 6.284    1.6989
 6.276    1.6788
 6.269    1.6581
 6.261    1.6382
 6.253    1.6214
 6.246    1.6086
 6.239    1.5997
 6.231    1.5935
 6.223    1.5880
 6.216    1.5802
 6.209    1.5704
 6.201    1.5616
 6.194    1.5580
 6.186    1.5614
 6.179    1.5709
 6.172    1.5862
 6.164    1.6088
 6.157    1.6348
 6.150    1.6581
 6.142    1.6767
 6.135    1.6925
 6.128    1.7024
 6.121    1.7080
 6.113    1.7157
 6.106    1.7311
 6.099    1.7516
 6.092    1.7686
 6.085    1.7786
 6.078    1.7808
 6.070    1.7746
 6.063    1.7660
 6.056    1.7623
 6.049    1.7703
 6.042    1.7899
 6.035    1.8133
 6.028    1.8332
 6.021    1.8463
 6.014    1.8511
 6.007    1.8490
 6.000    1.8425
 5.993    1.8382
 5.986    1.8401
 5.979    1.8442
 5.973    1.8445
 5.966    1.8413
 5.959    1.8377
 5.952    1.8322
 5.945    1.8301
 5.938    1.8370
 5.931    1.8564
 5.925    1.8830
 5.918    1.9054
 5.911    1.9220
 5.904    1.9332
 5.898    1.9411
 5.891    1.9519
 5.884    1.9708
 5.878    2.0030
 5.871    2.0468
 5.864    2.0913
 5.858    2.1323
 5.851    2.1667
 5.845    2.1947
 5.838    2.2160
 5.831    2.2344
 5.825    2.2588
 5.818    2.2938
 5.812    2.3368
 5.805    2.3808
 5.799    2.4181
 5.792    2.4452
 5.786    2.4588
 5.779    2.4615
 5.773    2.4608
 5.767    2.4658
 5.760    2.4825
 5.754    2.5063
 5.747    2.5311
 5.741    2.5546
 5.735    2.5725
 5.728    2.5818
 5.722    2.5821
 5.716    2.5801
 5.709    2.5803
 5.703    2.5849
 5.697    2.5899
 5.691    2.5926
 5.684    2.5902
 5.678    2.5763
 5.672    2.5483
 5.666    2.5079
 5.660    2.4615
 5.653    2.4172
 5.647    2.3751
 5.641    2.3393
 5.635    2.3124
 5.629    2.2925
 5.623    2.2772
 5.617    2.2648
 5.611    2.2543
 5.604    2.2447
 5.598    2.2325
 5.592    2.2172
 5.586    2.2022
 5.580    2.1916
 5.574    2.1897
 5.568    2.1964
 5.562    2.2100
 5.556    2.2296
 5.551    2.2505
 5.545    2.2708
 5.539    2.2925
 5.533    2.3187
 5.527    2.3495
 5.521    2.3821
 5.515    2.4141
 5.509    2.4455
 5.503    2.4732
 5.497    2.4962
 5.492    2.5153
 5.486    2.5320
 5.480    2.5481
 5.474    2.5639
 5.468    2.5816
 5.463    2.6009
 5.457    2.6196
 5.451    2.6316
 5.446    2.6338
 5.440    2.6263
 5.434    2.6117
 5.428    2.5899
 5.423    2.5620
 5.417    2.5323
 5.411    2.5003
 5.406    2.4656
 5.400    2.4299
 5.394    2.3971
 5.389    2.3672
 5.383    2.3371
 5.378    2.3050
 5.372    2.2746
 5.367    2.2490
 5.361    2.2325
 5.356    2.2289
 5.350    2.2370
 5.345    2.2526
 5.339    2.2686
 5.333    2.2797
 5.328    2.2849
 5.322    2.2863
 5.317    2.2865
 5.312    2.2885
 5.306    2.2943
 5.301    2.3043
 5.295    2.3191
 5.290    2.3395
 5.285    2.3650
 5.279    2.3959
 5.274    2.4299
 5.268    2.4646
 5.263    2.4995
 5.258    2.5355
 5.252    2.5751
 5.247    2.6206
 5.242    2.6718
 5.237    2.7290
 5.231    2.7873
 5.226    2.8421
 5.221    2.8934
 5.215    2.9400
 5.210    2.9814
 5.205    3.0163
 5.200    3.0434
 5.194    3.0622
 5.189    3.0699
 5.184    3.0708
 5.179    3.0721
 5.174    3.0743
 5.169    3.0788
 5.164    3.0881
 5.158    3.0991
 5.153    3.1075
 5.148    3.1115
 5.143    3.1135
 5.138    3.1153
 5.133    3.1158
 5.128    3.1168
 5.123    3.1226
 5.118    3.1319
 5.113    3.1397
 5.107    3.1424
 5.103    3.1388
 5.098    3.1276
 5.093    3.1093
 5.088    3.0881
 5.082    3.0697
 5.077    3.0577
 5.073    3.0499
 5.068    3.0443
 5.063    3.0409
 5.058    3.0386
 5.053    3.0393
 5.048    3.0426
 5.043    3.0486
 5.038    3.0546
 5.033    3.0567
 5.028    3.0544
 5.023    3.0486
 5.019    3.0434
 5.014    3.0446
 5.009    3.0546
 5.004    3.0721
 4.999    3.0936
 4.994    3.1175
 4.990    3.1424
 4.985    3.1709
 4.980    3.2079
 4.975    3.2577
 4.970    3.3197
 4.966    3.3908
 4.961    3.4642
 4.956    3.5343
 4.951    3.5950
 4.947    3.6448
 4.942    3.6868
 4.937    3.7218
 4.933    3.7568
 4.928    3.7990
 4.923    3.8544
 4.919    3.9303
 4.914    4.0307
 4.909    4.1566
 4.905    4.3038
 4.900    4.4655
 4.895    4.6354
 4.891    4.8062
 4.886    4.9720
 4.882    5.1301
 4.877    5.2780
 4.872    5.4137
 4.868    5.5354
 4.863    5.6417
 4.859    5.7354
 4.854    5.8221
 4.849    5.9061
 4.845    5.9901
 4.840    6.0740
 4.836    6.1556
 4.832    6.2319
 4.827    6.2987
 4.822    6.3561
 4.818    6.4095
 4.814    6.4628
 4.809    6.5174
 4.805    6.5719
 4.800    6.6260
 4.796    6.6786
 4.791    6.7267
 4.787    6.7697
 4.782    6.8134
 4.778    6.8602
 4.774    6.9115
 4.769    6.9669
 4.765    7.0267
 4.761    7.0894
 4.756    7.1502
 4.752    7.2062
 4.747    7.2584
 4.743    7.3072
 4.739    7.3512
 4.734    7.3912
 4.730    7.4265
 4.726    7.4553
 4.721    7.4749
 4.717    7.4828
 4.713    7.4773
 4.709    7.4586
 4.704    7.4287
 4.700    7.3914
 4.696    7.3524
 4.691    7.3213
 4.687    7.3062
 4.683    7.3129
 4.679    7.3445
 4.675    7.4016
 4.670    7.4806
 4.666    7.5734
 4.662    7.6749
 4.658    7.7799
 4.654    7.8862
 4.649    7.9917
 4.645    8.0948
 4.641    8.1941
 4.637    8.2888
 4.633    8.3785
 4.629    8.4635
 4.625    8.5451
 4.620    8.6255
 4.616    8.7045
 4.612    8.7798
 4.608    8.8492
 4.604    8.9118
 4.600    8.9697
 4.596    9.0240
 4.592    9.0755
 4.588    9.1246
 4.584    9.1714
 4.580    9.2141
 4.576    9.2497
 4.572    9.2765
 4.567    9.2968
 4.564    9.3110
 4.559    9.3173
 4.556    9.3152
 4.551    9.3054
 4.548    9.2873
 4.543    9.2590
 4.540    9.2227
 4.536    9.1796
 4.532    9.1314
 4.528    9.0765
 4.524    9.0114
 4.520    8.9346
 4.516    8.8466
 4.512    8.7498
 4.508    8.6499
 4.504    8.5556
 4.500    8.4771
 4.496    8.4197
 4.492    8.3798
 4.488    8.3520
 4.485    8.3310
 4.481    8.3108
 4.477    8.2917
 4.473    8.2792
 4.469    8.2862
 4.465    8.3189
 4.461    8.3762
 4.458    8.4510
 4.454    8.5345
 4.450    8.6185
 4.446    8.6972
 4.442    8.7685
 4.439    8.8381
 4.435    8.9092
 4.431    8.9798
 4.427    9.0489
 4.423    9.1188
 4.420    9.1915
 4.416    9.2679
 4.412    9.3464
 4.408    9.4296
 4.404    9.5172
 4.401    9.6066
 4.397    9.6981
 4.393    9.7921
 4.390    9.8900
 4.386    9.9897
 4.382   10.0880
 4.378   10.1835
 4.375   10.2764
 4.371   10.3677
 4.367   10.4565
 4.364   10.5431
 4.360   10.6293
 4.356   10.7141
 4.353   10.7938
 4.349   10.8654
 4.346   10.9271
 4.342   10.9769
 4.338   11.0142
 4.335   11.0420
 4.331   11.0645
 4.327   11.0843
 4.324   11.1032
 4.320   11.1205
 4.316   11.1346
 4.313   11.1427
 4.309   11.1450
 4.306   11.1444
 4.302   11.1415
 4.299   11.1374
 4.295   11.1346
 4.292   11.1355
 4.288   11.1399
 4.284   11.1446
 4.281   11.1505
 4.277   11.1608
 4.274   11.1759
 4.270   11.1985
 4.267   11.2345
 4.263   11.2863
 4.260   11.3470
 4.256   11.4080
 4.253   11.4626
 4.249   11.5052
 4.246   11.5324
 4.242   11.5477
 4.239   11.5597
 4.235   11.5738
 4.232   11.5917
 4.229   11.6154
 4.225   11.6448
 4.222   11.6755
 4.218   11.7039
 4.215   11.7288
 4.211   11.7511
 4.208   11.7703
 4.205   11.7863
 4.201   11.8018
 4.198   11.8179
 4.194   11.8351
 4.191   11.8552
 4.188   11.8810
 4.184   11.9126
 4.181   11.9494
 4.177   11.9899
 4.174   12.0299
 4.171   12.0684
 4.167   12.1043
 4.164   12.1356
 4.161   12.1639
 4.157   12.1909
 4.154   12.2181
 4.151   12.2454
 4.147   12.2731
 4.144   12.3023
 4.141   12.3323
 4.137   12.3601
 4.134   12.3863
 4.131   12.4139
 4.128   12.4419
 4.124   12.4703
 4.121   12.4980
 4.118   12.5254
 4.114   12.5498
 4.111   12.5701
 4.108   12.5888
 4.105   12.6089
 4.101   12.6313
 4.098   12.6552
 4.095   12.6796
 4.092   12.7024
 4.088   12.7211
 4.085   12.7332
 4.082   12.7407
 4.079   12.7450
 4.076   12.7460
 4.072   12.7426
 4.069   12.7364
 4.066   12.7292
 4.063   12.7191
 4.060   12.7058
 4.056   12.6897
 4.053   12.6718
 4.050   12.6493
 4.047   12.6187
 4.044   12.5807
 4.041   12.5370
 4.037   12.4902
 4.034   12.4428
 4.031   12.3976
 4.028   12.3574
 4.025   12.3212
 4.022   12.2868
 4.019   12.2550
 4.016   12.2282
 4.013   12.2077
 4.009   12.1911
 4.006   12.1763
 4.003   12.1607
 4.000   12.1425
 3.997   12.1191
 3.994   12.0918
 3.991   12.0664
 3.988   12.0454
 3.985   12.0299
 3.982   12.0226
 3.979   12.0263
 3.976   12.0392
 3.973   12.0568
 3.970   12.0782
 3.966   12.1016
 3.963   12.1253
 3.960   12.1481
 3.957   12.1720
 3.954   12.1990
 3.951   12.2316
 3.948   12.2701
 3.945   12.3139
 3.942   12.3596
 3.939   12.4024
 3.936   12.4394
 3.933   12.4670
 3.930   12.4854
 3.927   12.5002
 3.924   12.5131
 3.921   12.5232
 3.918   12.5277
 3.916   12.5275
 3.913   12.5220
 3.910   12.5108
 3.907   12.4969
 3.904   12.4832
 3.901   12.4713
 3.898   12.4615
 3.895   12.4527
 3.892   12.4445
 3.889   12.4364
 3.886   12.4265
 3.883   12.4122
 3.880   12.3926
 3.877   12.3725
 3.875   12.3564
 3.872   12.3433
 3.869   12.3320
 3.866   12.3232
 3.863   12.3129
 3.860   12.2971
 3.857   12.2787
 3.854   12.2638
 3.852   12.2538
 3.849   12.2464
 3.846   12.2414
 3.843   12.2402
 3.840   12.2406
 3.837   12.2447
 3.834   12.2557
 3.832   12.2729
 3.829   12.2918
 3.826   12.3083
 3.823   12.3224
 3.820   12.3347
 3.817   12.3440
 3.815   12.3538
 3.812   12.3655
 3.809   12.3777
 3.806   12.3883
 3.804   12.3964
 3.801   12.4034
 3.798   12.4093
 3.795   12.4143
 3.792   12.4189
 3.790   12.4230
 3.787   12.4241
 3.784   12.4182
 3.781   12.4043
 3.779   12.3820
 3.776   12.3528
 3.773   12.3199
 3.770   12.2861
 3.768   12.2519
 3.765   12.2172
 3.762   12.1806
 3.759   12.1440
 3.757   12.1083
 3.754   12.0744
 3.751   12.0437
 3.748   12.0148
 3.746   11.9849
 3.743   11.9540
 3.740   11.9239
 3.738   11.8951
 3.735   11.8696
 3.732   11.8473
 3.730   11.8269
 3.727   11.8059
 3.724   11.7822
 3.722   11.7583
 3.719   11.7361
 3.716   11.7140
 3.714   11.6928
 3.711   11.6736
 3.708   11.6588
 3.706   11.6453
 3.703   11.6337
 3.700   11.6243
 3.698   11.6140
 3.695   11.5970
 3.692   11.5714
 3.690   11.5391
 3.687   11.5044
 3.684   11.4674
 3.682   11.4327
 3.679   11.4045
 3.677   11.3841
 3.674   11.3688
 3.672   11.3558
 3.669   11.3412
 3.666   11.3214
 3.664   11.2913
 3.661   11.2528
 3.659   11.2080
 3.656   11.1606
 3.653   11.1183
 3.651   11.0819
 3.648   11.0494
 3.646   11.0187
 3.643   10.9857
 3.641   10.9480
 3.638   10.9037
 3.636   10.8542
