Name: Basalt
Type: Rocks
Class: Igneous
Subclass: Mafic
Particle Size: 0-75 micrometers
Sample No.: Basalt.7
Owner: JHU
Wavelength range: All
Origin: from Kilauea, via Rosalind Helz, USGS, Reston, VA (Cat. No. KI 
75-1-50.8)
Description: Sample from which the powder is derived is a gray, 
porphyritic, vuggy or vesicular rock with green phenocrysts ranging in size 
from < 1 mm to 2 mm and making up < 5% of the whole rock.



Measurement: Directional (10 degree) hemispherical reflectance
First Column: X
Second Column: Y
X Units: Wavelength (micrometers)
Y Units: Reflectance (percent)
First X Value: 14.0112
Last X Value: 0.4000
Number of X Values: 2844
Additional information: basal7a.txt

14.011	2.3629
13.973	1.6823
13.936	2.0442
13.899	2.5875
13.861	1.8159
13.824	1.7672
13.788	1.8324
13.751	1.9359
13.715	1.9758
13.679	2.3719
13.643	2.5111
13.607	1.9462
13.571	2.0798
13.536	2.1590
13.500	2.0625
13.465	1.9692
13.430	2.0346
13.396	2.5210
13.361	2.4488
13.327	2.1780
13.293	2.1670
13.259	2.2915
13.225	2.1098
13.191	2.1818
13.158	2.3909
13.124	2.4494
13.091	2.5231
13.058	2.3353
13.026	2.2618
12.993	2.4018
12.960	2.5223
12.928	2.4623
12.896	2.3205
12.864	2.3348
12.832	2.5425
12.800	2.7084
12.769	2.6620
12.737	2.7110
12.706	2.6859
12.675	2.6681
12.644	2.8472
12.614	2.8655
12.583	2.8882
12.552	2.9637
12.522	3.1699
12.492	3.3639
12.462	3.3023
12.432	3.3174
12.402	3.5062
12.373	3.6103
12.343	3.8081
12.314	3.9520
12.285	3.9304
12.256	4.0953
12.227	4.2108
12.198	4.1946
12.169	4.2133
12.141	4.3356
12.113	4.2738
12.084	4.1527
12.056	4.1423
12.028	4.1468
12.000	3.9940
11.973	3.8460
11.945	3.8335
11.918	3.8578
11.890	3.7244
11.863	3.6278
11.836	3.7514
11.809	3.7263
11.782	3.7146
11.755	3.6904
11.729	3.6499
11.702	3.6652
11.676	3.6316
11.650	3.5922
11.624	3.6028
11.598	3.5508
11.572	3.5850
11.546	3.6073
11.520	3.5590
11.495	3.5639
11.469	3.6633
11.444	3.6992
11.419	3.6560
11.394	3.6169
11.369	3.6150
11.344	3.6232
11.319	3.5670
11.294	3.5397
11.270	3.4530
11.245	3.4184
11.221	3.4062
11.197	3.3933
11.173	3.3408
11.149	3.2561
11.125	3.2670
11.101	3.2449
11.077	3.1444
11.054	3.0898
11.030	3.0616
11.007	3.0546
10.983	3.0330
10.960	3.0832
10.937	3.0756
10.914	3.0732
10.891	3.0588
10.868	3.0010
10.846	2.9948
10.823	3.0065
10.800	3.0075
10.778	2.9845
10.755	2.9906
10.733	2.9747
10.711	2.9724
10.689	2.9566
10.667	2.9494
10.645	2.9184
10.623	2.8455
10.602	2.8242
10.580	2.7914
10.558	2.7668
10.537	2.7556
10.516	2.7333
10.494	2.7106
10.473	2.7372
10.452	2.7033
10.431	2.6519
10.410	2.6163
10.389	2.5959
10.368	2.5748
10.348	2.5413
10.327	2.5416
10.306	2.5340
10.286	2.5120
10.266	2.5158
10.245	2.5598
10.225	2.6226
10.205	2.4924
10.185	2.3864
10.165	2.3956
10.145	2.3813
10.125	2.3733
10.106	2.4065
10.086	2.4262
10.066	2.4563
10.047	2.4642
10.027	2.4288
10.008	2.4096
9.9887	2.4691
9.9695	2.5057
9.9504	2.4886
9.9313	2.4626
9.9123	2.4021
9.8934	2.3894
9.8746	2.4073
9.8558	2.4410
9.8371	2.4392
9.8185	2.4436
9.7999	2.4590
9.7814	2.4558
9.7630	2.3712
9.7447	2.3327
9.7264	2.3416
9.7082	2.3301
9.6900	2.3100
9.6719	2.3841
9.6539	2.3667
9.6360	2.2906
9.6181	2.2720
9.6003	2.2849
9.5825	2.2891
9.5649	2.2836
9.5472	2.3255
9.5297	2.3494
9.5122	2.3226
9.4948	2.3397
9.4774	2.3224
9.4601	2.2748
9.4429	2.2999
9.4257	2.3847
9.4086	2.4363
9.3916	2.4101
9.3746	2.4132
9.3577	2.4631
9.3408	2.4727
9.3240	2.4588
9.3073	2.4865
9.2906	2.5545
9.2740	2.5135
9.2574	2.5026
9.2409	2.5303
9.2245	2.4614
9.2081	2.5067
9.1918	2.6452
9.1755	2.6343
9.1593	2.6104
9.1431	2.6221
9.1270	2.6306
9.1110	2.5873
9.0950	2.5786
9.0791	2.5940
9.0632	2.5579
9.0474	2.5717
9.0316	2.5999
9.0159	2.5807
9.0003	2.5664
8.9847	2.5493
8.9691	2.4398
8.9536	2.4018
8.9382	2.3821
8.9228	2.3941
8.9075	2.3566
8.8922	2.3128
8.8770	2.2880
8.8618	2.2034
8.8467	2.1436
8.8316	2.0864
8.8166	2.0460
8.8016	2.0428
8.7867	2.0325
8.7718	1.9959
8.7570	1.8907
8.7422	1.8806
8.7275	1.9296
8.7129	1.9055
8.6982	1.9090
8.6837	1.9043
8.6692	1.9029
8.6547	1.8928
8.6403	1.9024
8.6259	1.9013
8.6116	1.8614
8.5973	1.8623
8.5830	1.9057
8.5688	1.8956
8.5547	1.8917
8.5406	1.8837
8.5266	1.9005
8.5126	1.8904
8.4986	1.9429
8.4847	1.9938
8.4708	1.9786
8.4570	1.9915
8.4432	2.0182
8.4295	2.0369
8.4158	2.0693
8.4022	2.0728
8.3886	2.0660
8.3750	2.1145
8.3615	2.1724
8.3481	2.1914
8.3347	2.2151
8.3213	2.2294
8.3079	2.2600
8.2946	2.2997
8.2814	2.2816
8.2682	2.2852
8.2550	2.3465
8.2419	2.3550
8.2288	2.3660
8.2158	2.3740
8.2028	2.3824
8.1898	2.3946
8.1769	2.3815
8.1640	2.4052
8.1512	2.4488
8.1384	2.4844
8.1256	2.4841
8.1129	2.5088
8.1002	2.5821
8.0876	2.6238
8.0750	2.6597
8.0624	2.7039
8.0499	2.7586
8.0374	2.8636
8.0250	2.9395
8.0126	2.9796
8.0002	3.0363
7.9879	3.0954
7.9756	3.1964
7.9634	3.2473
7.9512	3.3075
7.9390	3.4005
7.9268	3.4814
7.9147	3.5733
7.9027	3.6485
7.8906	3.6977
7.8786	3.7898
7.8667	3.8906
7.8548	3.9804
7.8429	4.0620
7.8310	4.1431
7.8192	4.2424
7.8075	4.3317
7.7957	4.4465
7.7840	4.5494
7.7723	4.6280
7.7607	4.7086
7.7491	4.8127
7.7375	4.9556
7.7260	5.0852
7.7145	5.1883
7.7031	5.2528
7.6916	5.3506
7.6802	5.4459
7.6689	5.5943
7.6575	5.7738
7.6462	5.8519
7.6350	5.9221
7.6238	6.0180
7.6126	6.1197
7.6014	6.2233
7.5903	6.3220
7.5792	6.4303
7.5681	6.5604
7.5571	6.6623
7.5461	6.7678
7.5351	6.8821
7.5242	6.9984
7.5133	7.1273
7.5024	7.2569
7.4916	7.3764
7.4807	7.4873
7.4700	7.5684
7.4592	7.6657
7.4485	7.7662
7.4378	7.8839
7.4272	8.0309
7.4165	8.1527
7.4059	8.2716
7.3954	8.3732
7.3848	8.4607
7.3743	8.5786
7.3639	8.7077
7.3534	8.8078
7.3430	8.9124
7.3326	8.9789
7.3223	9.0563
7.3119	9.1828
7.3016	9.2862
7.2914	9.3574
7.2811	9.4472
7.2709	9.5569
7.2607	9.6677
7.2506	9.7596
7.2404	9.8402
7.2303	9.9257
7.2203	10.010
7.2102	10.097
7.2002	10.200
7.1902	10.300
7.1803	10.386
7.1703	10.470
7.1604	10.560
7.1506	10.660
7.1407	10.753
7.1309	10.849
7.1211	10.946
7.1113	11.027
7.1016	11.107
7.0919	11.199
7.0822	11.281
7.0725	11.395
7.0629	11.488
7.0533	11.534
7.0437	11.625
7.0341	11.715
7.0246	11.790
7.0151	11.889
7.0056	11.958
6.9962	12.019
6.9867	12.111
6.9773	12.220
6.9679	12.317
6.9586	12.402
6.9493	12.464
6.9400	12.515
6.9307	12.599
6.9214	12.708
6.9122	12.770
6.9030	12.790
6.8938	12.869
6.8847	12.974
6.8755	13.000
6.8664	13.010
6.8573	13.074
6.8483	13.144
6.8393	13.186
6.8302	13.243
6.8213	13.281
6.8123	13.315
6.8034	13.385
6.7944	13.410
6.7855	13.413
6.7767	13.425
6.7678	13.432
6.7590	13.443
6.7502	13.464
6.7414	13.477
6.7327	13.470
6.7239	13.488
6.7152	13.468
6.7065	13.397
6.6979	13.397
6.6892	13.415
6.6806	13.387
6.6720	13.337
6.6634	13.355
6.6549	13.364
6.6464	13.341
6.6378	13.342
6.6294	13.351
6.6209	13.368
6.6124	13.386
6.6040	13.388
6.5956	13.390
6.5872	13.377
6.5789	13.367
6.5705	13.354
6.5622	13.373
6.5539	13.361
6.5456	13.369
6.5374	13.397
6.5292	13.383
6.5209	13.369
6.5128	13.384
6.5046	13.414
6.4964	13.426
6.4883	13.422
6.4802	13.441
6.4721	13.474
6.4640	13.481
6.4560	13.502
6.4480	13.553
6.4399	13.584
6.4320	13.595
6.4240	13.624
6.4160	13.648
6.4081	13.672
6.4002	13.704
6.3923	13.726
6.3844	13.763
6.3766	13.796
6.3687	13.816
6.3609	13.858
6.3531	13.894
6.3454	13.915
6.3376	13.931
6.3299	13.912
6.3221	13.905
6.3144	13.923
6.3068	13.977
6.2991	13.989
6.2914	13.946
6.2838	13.918
6.2762	13.920
6.2686	13.891
6.2611	13.850
6.2535	13.843
6.2460	13.823
6.2385	13.739
6.2310	13.698
6.2235	13.692
6.2160	13.625
6.2086	13.544
6.2011	13.474
6.1937	13.441
6.1863	13.380
6.1790	13.293
6.1716	13.254
6.1643	13.246
6.1570	13.226
6.1496	13.218
6.1424	13.225
6.1351	13.294
6.1278	13.362
6.1206	13.376
6.1134	13.422
6.1062	13.498
6.0990	13.590
6.0918	13.690
6.0847	13.761
6.0776	13.846
6.0704	13.957
6.0633	14.064
6.0563	14.138
6.0492	14.196
6.0421	14.286
6.0351	14.402
6.0281	14.495
6.0211	14.588
6.0141	14.687
6.0071	14.798
6.0002	14.918
5.9932	15.006
5.9863	15.090
5.9794	15.178
5.9725	15.305
5.9657	15.459
5.9588	15.581
5.9520	15.694
5.9451	15.793
5.9383	15.900
5.9315	15.996
5.9247	16.060
5.9180	16.175
5.9112	16.308
5.9045	16.408
5.8978	16.493
5.8911	16.579
5.8844	16.642
5.8777	16.743
5.8711	16.854
5.8644	16.937
5.8578	16.999
5.8512	17.065
5.8446	17.120
5.8380	17.181
5.8314	17.238
5.8249	17.308
5.8184	17.399
5.8118	17.485
5.8053	17.559
5.7988	17.616
5.7923	17.688
5.7859	17.771
5.7794	17.841
5.7730	17.873
5.7666	17.921
5.7602	18.037
5.7538	18.136
5.7474	18.168
5.7410	18.186
5.7347	18.213
5.7283	18.254
5.7220	18.308
5.7157	18.340
5.7094	18.375
5.7031	18.425
5.6969	18.443
5.6906	18.467
5.6844	18.529
5.6782	18.555
5.6719	18.569
5.6657	18.615
5.6596	18.651
5.6534	18.698
5.6472	18.743
5.6411	18.768
5.6349	18.806
5.6288	18.892
5.6227	18.978
5.6166	19.036
5.6106	19.097
5.6045	19.134
5.5984	19.175
5.5924	19.263
5.5864	19.336
5.5804	19.399
5.5744	19.444
5.5684	19.467
5.5624	19.537
5.5564	19.593
5.5505	19.653
5.5445	19.694
5.5386	19.731
5.5327	19.772
5.5268	19.806
5.5209	19.870
5.5151	19.938
5.5092	19.962
5.5033	19.979
5.4975	20.004
5.4917	20.020
5.4859	20.051
5.4801	20.053
5.4743	20.063
5.4685	20.120
5.4628	20.152
5.4570	20.159
5.4513	20.174
5.4455	20.173
5.4398	20.212
5.4341	20.246
5.4284	20.267
5.4228	20.297
5.4171	20.331
5.4114	20.320
5.4058	20.311
5.4002	20.341
5.3945	20.371
5.3889	20.373
5.3833	20.370
5.3778	20.365
5.3722	20.383
5.3666	20.403
5.3611	20.385
5.3555	20.380
5.3500	20.417
5.3445	20.404
5.3390	20.426
5.3335	20.441
5.3280	20.434
5.3225	20.423
5.3171	20.455
5.3116	20.486
5.3062	20.497
5.3008	20.531
5.2954	20.543
5.2900	20.570
5.2846	20.640
5.2792	20.667
5.2738	20.687
5.2684	20.757
5.2631	20.839
5.2578	20.909
5.2524	20.942
5.2471	20.986
5.2418	21.072
5.2365	21.144
5.2312	21.199
5.2260	21.251
5.2207	21.311
5.2154	21.361
5.2102	21.414
5.2050	21.496
5.1998	21.569
5.1945	21.644
5.1893	21.687
5.1842	21.724
5.1790	21.760
5.1738	21.818
5.1686	21.894
5.1635	21.946
5.1584	21.992
5.1532	22.005
5.1481	22.043
5.1430	22.119
5.1379	22.192
5.1328	22.234
5.1277	22.271
5.1227	22.299
5.1176	22.345
5.1126	22.398
5.1075	22.475
5.1025	22.513
5.0975	22.519
5.0925	22.566
5.0875	22.624
5.0825	22.695
5.0775	22.731
5.0726	22.786
5.0676	22.873
5.0627	22.959
5.0577	23.016
5.0528	23.089
5.0479	23.185
5.0430	23.280
5.0380	23.361
5.0332	23.436
5.0283	23.505
5.0234	23.586
5.0185	23.692
5.0137	23.770
5.0088	23.855
5.0040	23.976
4.9992	24.101
4.9944	24.192
4.9896	24.265
4.9848	24.363
4.9800	24.451
4.9752	24.525
4.9704	24.639
4.9657	24.757
4.9609	24.840
4.9562	24.943
4.9514	25.034
4.9467	25.138
4.9420	25.240
4.9373	25.316
4.9326	25.402
4.9279	25.501
4.9232	25.596
4.9186	25.682
4.9139	25.741
4.9092	25.811
4.9046	25.914
4.9000	25.993
4.8953	26.052
4.8907	26.119
4.8861	26.203
4.8815	26.297
4.8769	26.382
4.8723	26.434
4.8678	26.487
4.8632	26.556
4.8586	26.660
4.8541	26.739
4.8495	26.804
4.8450	26.897
4.8405	26.966
4.8360	27.033
4.8315	27.105
4.8270	27.187
4.8225	27.235
4.8180	27.282
4.8135	27.343
4.8090	27.402
4.8046	27.456
4.8001	27.544
4.7957	27.633
4.7913	27.680
4.7868	27.693
4.7824	27.764
4.7780	27.838
4.7736	27.919
4.7692	28.007
4.7648	28.070
4.7605	28.126
4.7561	28.202
4.7517	28.269
4.7474	28.326
4.7431	28.416
4.7387	28.499
4.7344	28.583
4.7301	28.656
4.7258	28.708
4.7215	28.783
4.7172	28.810
4.7129	28.839
4.7086	28.986
4.7043	29.090
4.7000	29.178
4.6958	29.258
4.6915	29.307
4.6873	29.386
4.6831	29.465
4.6788	29.539
4.6746	29.613
4.6704	29.683
4.6662	29.742
4.6620	29.810
4.6578	29.898
4.6536	29.946
4.6495	30.039
4.6453	30.115
4.6411	30.163
4.6370	30.237
4.6328	30.333
4.6287	30.403
4.6246	30.460
4.6205	30.520
4.6163	30.589
4.6122	30.644
4.6081	30.721
4.6040	30.803
4.6000	30.870
4.5959	30.905
4.5918	30.957
4.5877	31.053
4.5837	31.111
4.5796	31.182
4.5756	31.248
4.5716	31.333
4.5675	31.398
4.5635	31.408
4.5595	31.447
4.5555	31.517
4.5515	31.542
4.5475	31.606
4.5435	31.705
4.5395	31.775
4.5356	31.820
4.5316	31.850
4.5276	31.885
4.5237	31.909
4.5197	31.938
4.5158	32.022
4.5119	32.080
4.5080	32.096
4.5040	32.106
4.5001	32.135
4.4962	32.175
4.4923	32.196
4.4884	32.223
4.4846	32.277
4.4807	32.329
4.4768	32.357
4.4730	32.401
4.4691	32.424
4.4652	32.442
4.4614	32.476
4.4576	32.514
4.4537	32.528
4.4499	32.537
4.4461	32.560
4.4423	32.587
4.4385	32.606
4.4347	32.625
4.4309	32.646
4.4271	32.692
4.4233	32.701
4.4196	32.721
4.4158	32.747
4.4120	32.795
4.4083	32.825
4.4045	32.808
4.4008	32.829
4.3971	32.865
4.3934	32.869
4.3896	32.890
4.3859	32.939
4.3822	32.955
4.3785	32.975
4.3748	33.008
4.3711	33.005
4.3674	33.024
4.3638	33.067
4.3601	33.083
4.3564	33.093
4.3528	33.118
4.3491	33.133
4.3455	33.137
4.3418	33.157
4.3382	33.186
4.3346	33.233
4.3310	33.250
4.3273	33.255
4.3237	33.267
4.3201	33.282
4.3165	33.292
4.3129	33.330
4.3094	33.360
4.3058	33.382
4.3022	33.412
4.2986	33.442
4.2951	33.479
4.2915	33.496
4.2880	33.500
4.2844	33.491
4.2809	33.515
4.2774	33.568
4.2738	33.579
4.2703	33.558
4.2668	33.553
4.2633	33.566
4.2598	33.587
4.2563	33.592
4.2528	33.604
4.2493	33.642
4.2458	33.701
4.2424	33.720
4.2389	33.717
4.2354	33.710
4.2320	33.715
4.2285	33.753
4.2251	33.739
4.2216	33.766
4.2182	33.784
4.2148	33.750
4.2113	33.762
4.2079	33.788
4.2045	33.760
4.2011	33.739
4.1977	33.769
4.1943	33.802
4.1909	33.784
4.1875	33.764
4.1841	33.782
4.1808	33.794
4.1774	33.789
4.1740	33.830
4.1707	33.848
4.1673	33.845
4.1640	33.849
4.1606	33.856
4.1573	33.874
4.1540	33.891
4.1506	33.900
4.1473	33.900
4.1440	33.896
4.1407	33.895
4.1374	33.919
4.1341	33.919
4.1308	33.914
4.1275	33.932
4.1242	33.943
4.1209	33.942
4.1177	33.918
4.1144	33.901
4.1111	33.894
4.1079	33.933
4.1046	33.937
4.1014	33.925
4.0981	33.942
4.0949	33.970
4.0917	33.971
4.0884	33.952
4.0852	33.946
4.0820	33.949
4.0788	33.939
4.0756	33.948
4.0724	33.981
4.0692	33.985
4.0660	33.991
4.0628	33.960
4.0596	33.965
4.0565	33.980
4.0533	33.977
4.0501	33.987
4.0470	33.994
4.0438	33.994
4.0406	33.984
4.0375	33.951
4.0344	33.973
4.0312	34.008
4.0281	34.000
4.0250	33.987
4.0218	33.971
4.0187	33.961
4.0156	33.968
4.0125	33.959
4.0094	33.978
4.0063	34.004
4.0032	34.008
4.0001	34.014
3.9970	33.993
3.9940	33.958
3.9909	33.945
3.9878	33.953
3.9847	33.967
3.9817	33.998
3.9786	34.011
3.9756	33.996
3.9725	33.987
3.9695	33.980
3.9665	33.983
3.9634	34.001
3.9604	33.993
3.9574	33.975
3.9544	33.993
3.9513	34.005
3.9483	33.972
3.9453	33.967
3.9423	33.985
3.9393	33.978
3.9363	33.944
3.9333	33.947
3.9304	33.966
3.9274	33.975
3.9244	33.968
3.9214	33.978
3.9185	34.003
3.9155	33.978
3.9126	33.968
3.9096	33.959
3.9067	33.962
3.9037	33.952
3.9008	33.939
3.8979	33.940
3.8949	33.933
3.8920	33.924
3.8891	33.928
3.8862	33.948
3.8833	33.939
3.8804	33.916
3.8775	33.895
3.8746	33.886
3.8717	33.900
3.8688	33.909
3.8659	33.898
3.8630	33.900
3.8601	33.888
3.8573	33.880
3.8544	33.889
3.8515	33.867
3.8487	33.842
3.8458	33.841
3.8430	33.845
3.8401	33.863
3.8373	33.864
3.8344	33.865
3.8316	33.848
3.8288	33.856
3.8259	33.852
3.8231	33.867
3.8203	33.858
3.8175	33.817
3.8147	33.833
3.8119	33.849
3.8091	33.828
3.8063	33.824
3.8035	33.793
3.8007	33.784
3.7979	33.773
3.7951	33.785
3.7924	33.804
3.7896	33.749
3.7868	33.722
3.7841	33.714
3.7813	33.715
3.7785	33.757
3.7758	33.757
3.7730	33.726
3.7703	33.721
3.7676	33.707
3.7648	33.680
3.7621	33.698
3.7594	33.703
3.7566	33.675
3.7539	33.664
3.7512	33.668
3.7485	33.663
3.7458	33.662
3.7431	33.656
3.7404	33.611
3.7377	33.588
3.7350	33.632
3.7323	33.650
3.7296	33.622
3.7269	33.611
3.7242	33.593
3.7216	33.591
3.7189	33.570
3.7162	33.573
3.7136	33.579
3.7109	33.572
3.7083	33.539
3.7056	33.530
3.7030	33.552
3.7003	33.532
3.6977	33.493
3.6950	33.515
3.6924	33.538
3.6898	33.515
3.6872	33.498
3.6845	33.502
3.6819	33.477
3.6793	33.443
3.6767	33.438
3.6741	33.471
3.6715	33.445
3.6689	33.411
3.6663	33.394
3.6637	33.367
3.6611	33.372
3.6585	33.370
3.6560	33.366
3.6534	33.359
3.6508	33.324
3.6482	33.298
3.6457	33.310
3.6431	33.281
3.6406	33.260
3.6380	33.295
3.6355	33.299
3.6329	33.290
3.6304	33.255
3.6278	33.216
3.6253	33.218
3.6227	33.235
3.6202	33.234
3.6177	33.218
3.6152	33.157
3.6127	33.136
3.6101	33.165
3.6076	33.166
3.6051	33.141
3.6026	33.119
3.6001	33.101
3.5976	33.094
3.5951	33.086
3.5926	33.068
3.5901	33.071
3.5876	33.081
3.5852	33.065
3.5827	33.038
3.5802	33.007
3.5777	32.974
3.5753	32.958
3.5728	32.951
3.5704	32.980
3.5679	33.007
3.5654	32.966
3.5630	32.912
3.5605	32.910
3.5581	32.903
3.5557	32.857
3.5532	32.849
3.5508	32.852
3.5484	32.836
3.5459	32.802
3.5435	32.778
3.5411	32.779
3.5387	32.744
3.5363	32.748
3.5338	32.787
3.5314	32.769
3.5290	32.736
3.5266	32.716
3.5242	32.655
3.5218	32.623
3.5195	32.597
3.5171	32.590
3.5147	32.580
3.5123	32.570
3.5099	32.572
3.5075	32.541
3.5052	32.552
3.5028	32.526
3.5004	32.455
3.4981	32.432
3.4957	32.415
3.4934	32.406
3.4910	32.440
3.4887	32.429
3.4863	32.369
3.4840	32.364
3.4816	32.369
3.4793	32.394
3.4770	32.416
3.4746	32.349
3.4723	32.337
3.4700	32.343
3.4677	32.298
3.4653	32.272
3.4630	32.250
3.4607	32.235
3.4584	32.232
3.4561	32.223
3.4538	32.164
3.4515	32.120
3.4492	32.132
3.4469	32.103
3.4446	32.068
3.4423	32.096
3.4400	32.087
3.4378	32.036
3.4355	32.021
3.4332	32.005
3.4309	31.995
3.4287	31.960
3.4264	31.918
3.4241	31.913
3.4219	31.905
3.4196	31.863
3.4174	31.826
3.4151	31.813
3.4129	31.816
3.4106	31.785
3.4084	31.764
3.4061	31.756
3.4039	31.728
3.4017	31.670
3.3994	31.666
3.3972	31.678
3.3950	31.667
3.3928	31.631
3.3906	31.652
3.3883	31.644
3.3861	31.596
3.3839	31.601
3.3817	31.607
3.3795	31.576
3.3773	31.582
3.3751	31.580
3.3729	31.555
3.3707	31.495
3.3685	31.466
3.3663	31.448
3.3641	31.428
3.3620	31.452
3.3598	31.472
3.3576	31.484
3.3554	31.431
3.3533	31.398
3.3511	31.389
3.3489	31.373
3.3468	31.385
3.3446	31.363
3.3425	31.319
3.3403	31.309
3.3382	31.346
3.3360	31.316
3.3339	31.258
3.3317	31.211
3.3296	31.193
3.3274	31.204
3.3253	31.181
3.3232	31.132
3.3210	31.143
3.3189	31.148
3.3168	31.116
3.3147	31.111
3.3126	31.071
3.3104	31.034
3.3083	31.003
3.3062	30.990
3.3041	30.959
3.3020	30.910
3.2999	30.890
3.2978	30.896
3.2957	30.898
3.2936	30.866
3.2915	30.827
3.2894	30.825
3.2874	30.775
3.2853	30.752
3.2832	30.739
3.2811	30.706
3.2790	30.682
3.2770	30.663
3.2749	30.637
3.2728	30.605
3.2708	30.585
3.2687	30.571
3.2666	30.561
3.2646	30.497
3.2625	30.479
3.2605	30.494
3.2584	30.488
3.2564	30.434
3.2543	30.355
3.2523	30.365
3.2503	30.361
3.2482	30.292
3.2462	30.264
3.2442	30.247
3.2421	30.240
3.2401	30.253
3.2381	30.201
3.2361	30.142
3.2340	30.087
3.2320	30.093
3.2300	30.065
3.2280	30.052
3.2260	29.994
3.2240	29.946
3.2220	29.904
3.2200	29.916
3.2180	29.935
3.2160	29.859
3.2140	29.826
3.2120	29.851
3.2100	29.790
3.2080	29.720
3.2060	29.714
3.2040	29.696
3.2021	29.673
3.2001	29.618
3.1981	29.590
3.1961	29.603
3.1942	29.583
3.1922	29.526
3.1902	29.483
3.1883	29.448
3.1863	29.433
3.1844	29.433
3.1824	29.417
3.1805	29.410
3.1785	29.351
3.1766	29.330
3.1746	29.357
3.1727	29.281
3.1707	29.229
3.1688	29.237
3.1669	29.194
3.1649	29.134
3.1630	29.096
3.1611	29.104
3.1591	29.077
3.1572	29.030
3.1553	28.995
3.1534	28.975
3.1515	28.966
3.1495	28.968
3.1476	28.906
3.1457	28.844
3.1438	28.841
3.1419	28.858
3.1400	28.821
3.1381	28.763
3.1362	28.687
3.1343	28.670
