Name: Hornblende Schist 
Type:  Rocks
Class:  Metamorphic 
Subclass: Schist 
Particle Size:  0-75 Micrometer
Sample No.:   schist2.doc
Owner:  JHU
Wavelength Range:  All
Origin:  Sample No. 241, The Hunt and Salisbury Collection at the U.S. 
Geological Survey, Denver, Co.
Description: Coarse grains of euhedral to subhedral hornblende with lesser 
amounts of anhedral alkali feldspar characterize this sample.  Modes were 78.4% 
hornblende and 21.6% feldspar.    



Measurement:  Directional (10 Degree) Hemispherical Reflectance
First Column:  X
Second Column:  Y  
X Units:  Wavelength (micrometers)
Y Units:  Reflectance (percent)
First X Value: 14.9831	
Last X Value:  0.4
Number of X Values: 2868
Additional Information:  None

14.983	1.0261
14.940	0.88050
14.897	0.81890
14.854	0.85420
14.812	0.97120
14.770	1.1317
14.728	1.2933
14.686	1.4204
14.645	1.5026
14.603	1.5474
14.562	1.5699
14.521	1.5923
14.481	1.6279
14.441	1.6759
14.400	1.7314
14.361	1.7889
14.321	1.8486
14.281	1.9144
14.242	1.9900
14.203	2.0792
14.164	2.1782
14.126	2.2786
14.087	2.3719
14.049	2.4496
14.011	2.5098
13.973	2.5564
13.936	2.5941
13.899	2.6263
13.861	2.6557
13.824	2.6836
13.788	2.7099
13.751	2.7321
13.715	2.7506
13.679	2.7667
13.643	2.7821
13.607	2.7970
13.571	2.8120
13.536	2.8257
13.500	2.8354
13.465	2.8371
13.430	2.8290
13.396	2.8134
13.361	2.7947
13.327	2.7767
13.293	2.7610
13.259	2.7454
13.225	2.7250
13.191	2.6928
13.158	2.6467
13.124	2.5905
13.091	2.5339
13.058	2.4887
13.026	2.4662
12.993	2.4754
12.960	2.5202
12.928	2.5986
12.896	2.7063
12.864	2.8382
12.832	2.9886
12.800	3.1520
12.769	3.3237
12.737	3.5008
12.706	3.6815
12.675	3.8634
12.644	4.0455
12.614	4.2267
12.583	4.4048
12.552	4.5767
12.522	4.7380
12.492	4.8831
12.462	5.0087
12.432	5.1105
12.402	5.1875
12.373	5.2414
12.343	5.2760
12.314	5.2966
12.285	5.3082
12.256	5.3156
12.227	5.3217
12.198	5.3262
12.169	5.3274
12.141	5.3229
12.113	5.3106
12.084	5.2888
12.056	5.2578
12.028	5.2180
12.000	5.1711
11.973	5.1176
11.945	5.0581
11.918	4.9954
11.890	4.9322
11.863	4.8725
11.836	4.8211
11.809	4.7825
11.782	4.7593
11.755	4.7512
11.729	4.7562
11.702	4.7697
11.676	4.7875
11.650	4.8052
11.624	4.8204
11.598	4.8310
11.572	4.8363
11.546	4.8348
11.520	4.8263
11.495	4.8097
11.469	4.7846
11.444	4.7503
11.419	4.7079
11.394	4.6579
11.369	4.6023
11.344	4.5433
11.319	4.4843
11.294	4.4282
11.270	4.3768
11.245	4.3323
11.221	4.2951
11.197	4.2643
11.173	4.2395
11.149	4.2196
11.125	4.2047
11.101	4.1942
11.077	4.1897
11.054	4.1919
11.030	4.2002
11.007	4.2115
10.983	4.2222
10.960	4.2257
10.937	4.2165
10.914	4.1895
10.891	4.1450
10.868	4.0863
10.846	4.0214
10.823	3.9617
10.800	3.9198
10.778	3.9065
10.755	3.9292
10.733	3.9894
10.711	4.0844
10.689	4.2073
10.667	4.3491
10.645	4.5021
10.623	4.6589
10.602	4.8156
10.580	4.9696
10.558	5.1197
10.537	5.2661
10.516	5.4075
10.494	5.5427
10.473	5.6696
10.452	5.7866
10.431	5.8920
10.410	5.9850
10.389	6.0658
10.368	6.1345
10.348	6.1915
10.327	6.2389
10.306	6.2792
10.286	6.3171
10.266	6.3557
10.245	6.3976
10.225	6.4423
10.205	6.4852
10.185	6.5188
10.165	6.5356
10.145	6.5309
10.125	6.5030
10.106	6.4523
10.086	6.3827
10.066	6.2976
10.047	6.2005
10.027	6.0923
10.008	5.9739
9.9887	5.8463
9.9695	5.7094
9.9504	5.5628
9.9313	5.4072
9.9123	5.2422
9.8934	5.0679
9.8746	4.8846
9.8558	4.6961
9.8371	4.5083
9.8185	4.3297
9.7999	4.1706
9.7814	4.0410
9.7630	3.9484
9.7447	3.8944
9.7264	3.8748
9.7082	3.8814
9.6900	3.9023
9.6719	3.9255
9.6539	3.9427
9.6360	3.9508
9.6181	3.9517
9.6003	3.9503
9.5825	3.9534
9.5649	3.9657
9.5472	3.9899
9.5297	4.0259
9.5122	4.0732
9.4948	4.1317
9.4774	4.2011
9.4601	4.2816
9.4429	4.3719
9.4257	4.4690
9.4086	4.5689
9.3916	4.6669
9.3746	4.7591
9.3577	4.8403
9.3408	4.9068
9.3240	4.9551
9.3073	4.9821
9.2906	4.9862
9.2740	4.9667
9.2574	4.9253
9.2409	4.8640
9.2245	4.7853
9.2081	4.6908
9.1918	4.5838
9.1755	4.4673
9.1593	4.3460
9.1431	4.2255
9.1270	4.1116
9.1110	4.0095
9.0950	3.9238
9.0791	3.8561
9.0632	3.8082
9.0474	3.7819
9.0316	3.7777
9.0159	3.7936
9.0003	3.8253
8.9847	3.8651
8.9691	3.9039
8.9536	3.9333
8.9382	3.9503
8.9228	3.9605
8.9075	3.9757
8.8922	4.0098
8.8770	4.0744
8.8618	4.1744
8.8467	4.3046
8.8316	4.4536
8.8166	4.6061
8.8016	4.7491
8.7867	4.8737
8.7718	4.9757
8.7570	5.0551
8.7422	5.1121
8.7275	5.1446
8.7129	5.1453
8.6982	5.1034
8.6837	5.0075
8.6692	4.8498
8.6547	4.6297
8.6403	4.3579
8.6259	4.0514
8.6116	3.7317
8.5973	3.4189
8.5830	3.1279
8.5688	2.8671
8.5547	2.6379
8.5406	2.4385
8.5266	2.2647
8.5126	2.1122
8.4986	1.9774
8.4847	1.8573
8.4708	1.7510
8.4570	1.6577
8.4432	1.5774
8.4295	1.5099
8.4158	1.4550
8.4022	1.4107
8.3886	1.3750
8.3750	1.3451
8.3615	1.3188
8.3481	1.2949
8.3347	1.2729
8.3213	1.2535
8.3079	1.2374
8.2946	1.2255
8.2814	1.2189
8.2682	1.2177
8.2550	1.2222
8.2419	1.2336
8.2288	1.2520
8.2158	1.2790
8.2028	1.3150
8.1898	1.3596
8.1769	1.4119
8.1640	1.4709
8.1512	1.5358
8.1384	1.6058
8.1256	1.6814
8.1129	1.7619
8.1002	1.8476
8.0876	1.9379
8.0750	2.0321
8.0624	2.1306
8.0499	2.2341
8.0374	2.3431
8.0250	2.4577
8.0126	2.5780
8.0002	2.7035
7.9879	2.8330
7.9756	2.9666
7.9634	3.1035
7.9512	3.2434
7.9390	3.3855
7.9268	3.5288
7.9147	3.6721
7.9027	3.8139
7.8906	3.9529
7.8786	4.0896
7.8667	4.2246
7.8548	4.3593
7.8429	4.4950
7.8310	4.6326
7.8192	4.7711
7.8075	4.9108
7.7957	5.0513
7.7840	5.1936
7.7723	5.3385
7.7607	5.4877
7.7491	5.6417
7.7375	5.8006
7.7260	5.9628
7.7145	6.1276
7.7031	6.2936
7.6916	6.4594
7.6802	6.6237
7.6689	6.7860
7.6575	6.9451
7.6462	7.1004
7.6350	7.2515
7.6238	7.3977
7.6126	7.5381
7.6014	7.6719
7.5903	7.7986
7.5792	7.9175
7.5681	8.0290
7.5571	8.1351
7.5461	8.2376
7.5351	8.3388
7.5242	8.4399
7.5133	8.5424
7.5024	8.6469
7.4916	8.7534
7.4807	8.8616
7.4700	8.9718
7.4592	9.0843
7.4485	9.1984
7.4378	9.3142
7.4272	9.4312
7.4165	9.5491
7.4059	9.6692
7.3954	9.7928
7.3848	9.9223
7.3743	10.059
7.3639	10.204
7.3534	10.356
7.3430	10.512
7.3326	10.671
7.3223	10.831
7.3119	10.991
7.3016	11.151
7.2914	11.312
7.2811	11.475
7.2709	11.639
7.2607	11.804
7.2506	11.969
7.2404	12.133
7.2303	12.296
7.2203	12.457
7.2102	12.612
7.2002	12.760
7.1902	12.899
7.1803	13.028
7.1703	13.147
7.1604	13.257
7.1506	13.359
7.1407	13.455
7.1309	13.548
7.1211	13.641
7.1113	13.738
7.1016	13.841
7.0919	13.952
7.0822	14.072
7.0725	14.200
7.0629	14.335
7.0533	14.476
7.0437	14.624
7.0341	14.777
7.0246	14.933
7.0151	15.090
7.0056	15.245
6.9962	15.399
6.9867	15.548
6.9773	15.693
6.9679	15.830
6.9586	15.957
6.9493	16.070
6.9400	16.164
6.9307	16.238
6.9214	16.295
6.9122	16.339
6.9030	16.376
6.8938	16.413
6.8847	16.452
6.8755	16.496
6.8664	16.545
6.8573	16.598
6.8483	16.653
6.8393	16.708
6.8302	16.765
6.8213	16.823
6.8123	16.885
6.8034	16.952
6.7944	17.027
6.7855	17.108
6.7767	17.191
6.7678	17.272
6.7590	17.347
6.7502	17.411
6.7414	17.462
6.7327	17.502
6.7239	17.534
6.7152	17.566
6.7065	17.604
6.6979	17.655
6.6892	17.722
6.6806	17.806
6.6720	17.904
6.6634	18.011
6.6549	18.123
6.6464	18.240
6.6378	18.359
6.6294	18.479
6.6209	18.597
6.6124	18.704
6.6040	18.795
6.5956	18.863
6.5872	18.908
6.5789	18.934
6.5705	18.946
6.5622	18.948
6.5539	18.941
6.5456	18.926
6.5374	18.899
6.5292	18.858
6.5209	18.805
6.5128	18.743
6.5046	18.678
6.4964	18.617
6.4883	18.566
6.4802	18.527
6.4721	18.499
6.4640	18.476
6.4560	18.454
6.4480	18.428
6.4399	18.399
6.4320	18.370
6.4240	18.346
6.4160	18.329
6.4081	18.318
6.4002	18.306
6.3923	18.282
6.3844	18.237
6.3766	18.164
6.3687	18.062
6.3609	17.934
6.3531	17.788
6.3454	17.629
6.3376	17.465
6.3299	17.298
6.3221	17.133
6.3144	16.972
6.3068	16.816
6.2991	16.669
6.2914	16.532
6.2838	16.405
6.2762	16.292
6.2686	16.192
6.2611	16.108
6.2535	16.042
6.2460	15.992
6.2385	15.958
6.2310	15.939
6.2235	15.934
6.2160	15.940
6.2086	15.955
6.2011	15.977
6.1937	16.005
6.1863	16.036
6.1790	16.067
6.1716	16.096
6.1643	16.123
6.1570	16.149
6.1496	16.175
6.1424	16.206
6.1351	16.249
6.1278	16.307
6.1206	16.387
6.1134	16.494
6.1062	16.629
6.0990	16.787
6.0918	16.961
6.0847	17.146
6.0776	17.331
6.0704	17.512
6.0633	17.684
6.0563	17.848
6.0492	18.003
6.0421	18.143
6.0351	18.266
6.0281	18.368
6.0211	18.446
6.0141	18.495
6.0071	18.517
6.0002	18.516
5.9932	18.497
5.9863	18.466
5.9794	18.433
5.9725	18.407
5.9657	18.397
5.9588	18.410
5.9520	18.453
5.9451	18.533
5.9383	18.651
5.9315	18.807
5.9247	18.994
5.9180	19.206
5.9112	19.433
5.9045	19.669
5.8978	19.906
5.8911	20.146
5.8844	20.387
5.8777	20.628
5.8711	20.867
5.8644	21.100
5.8578	21.323
5.8512	21.534
5.8446	21.732
5.8380	21.920
5.8314	22.104
5.8249	22.287
5.8184	22.472
5.8118	22.655
5.8053	22.834
5.7988	23.006
5.7923	23.168
5.7859	23.320
5.7794	23.470
5.7730	23.620
5.7666	23.773
5.7602	23.929
5.7538	24.082
5.7474	24.227
5.7410	24.356
5.7347	24.464
5.7283	24.549
5.7220	24.615
5.7157	24.663
5.7094	24.698
5.7031	24.727
5.6969	24.754
5.6906	24.782
5.6844	24.814
5.6782	24.851
5.6719	24.896
5.6657	24.949
5.6596	25.013
5.6534	25.092
5.6472	25.187
5.6411	25.301
5.6349	25.431
5.6288	25.576
5.6227	25.730
5.6166	25.888
5.6106	26.046
5.6045	26.202
5.5984	26.356
5.5924	26.511
5.5864	26.667
5.5804	26.827
5.5744	26.989
5.5684	27.151
5.5624	27.309
5.5564	27.458
5.5505	27.592
5.5445	27.705
5.5386	27.792
5.5327	27.850
5.5268	27.877
5.5209	27.874
5.5151	27.842
5.5092	27.787
5.5033	27.713
5.4975	27.629
5.4917	27.546
5.4859	27.472
5.4801	27.419
5.4743	27.395
5.4685	27.403
5.4628	27.441
5.4570	27.503
5.4513	27.577
5.4455	27.653
5.4398	27.722
5.4341	27.777
5.4284	27.818
5.4228	27.848
5.4171	27.869
5.4114	27.885
5.4058	27.896
5.4002	27.902
5.3945	27.899
5.3889	27.885
5.3833	27.857
5.3778	27.816
5.3722	27.766
5.3666	27.713
5.3611	27.665
5.3555	27.633
5.3500	27.625
5.3445	27.650
5.3390	27.710
5.3335	27.805
5.3280	27.931
5.3225	28.077
5.3171	28.232
5.3116	28.384
5.3062	28.524
5.3008	28.644
5.2954	28.743
5.2900	28.826
5.2846	28.898
5.2792	28.973
5.2738	29.065
5.2684	29.189
5.2631	29.356
5.2578	29.572
5.2524	29.833
5.2471	30.123
5.2418	30.423
5.2365	30.706
5.2312	30.951
5.2260	31.140
5.2207	31.267
5.2154	31.329
5.2102	31.332
5.2050	31.284
5.1998	31.193
5.1945	31.069
5.1893	30.918
5.1842	30.747
5.1790	30.563
5.1738	30.372
5.1686	30.181
5.1635	29.996
5.1584	29.824
5.1532	29.673
5.1481	29.547
5.1430	29.449
5.1379	29.380
5.1328	29.337
5.1277	29.314
5.1227	29.306
5.1176	29.306
5.1126	29.310
5.1075	29.315
5.1025	29.323
5.0975	29.337
5.0925	29.360
5.0875	29.399
5.0825	29.457
5.0775	29.539
5.0726	29.648
5.0676	29.784
5.0627	29.948
5.0577	30.139
5.0528	30.355
5.0479	30.592
5.0430	30.845
5.0380	31.109
5.0332	31.376
5.0283	31.641
5.0234	31.899
5.0185	32.145
5.0137	32.377
5.0088	32.596
5.0040	32.800
4.9992	32.990
4.9944	33.168
4.9896	33.335
4.9848	33.491
4.9800	33.640
4.9752	33.783
4.9704	33.924
4.9657	34.064
4.9609	34.207
4.9562	34.355
4.9514	34.510
4.9467	34.675
4.9420	34.847
4.9373	35.028
4.9326	35.215
4.9279	35.403
4.9232	35.589
4.9186	35.769
4.9139	35.941
4.9092	36.102
4.9046	36.252
4.9000	36.393
4.8953	36.527
4.8907	36.659
4.8861	36.790
4.8815	36.924
4.8769	37.062
4.8723	37.202
4.8678	37.342
4.8632	37.480
4.8586	37.612
4.8541	37.737
4.8495	37.854
4.8450	37.965
4.8405	38.072
4.8360	38.181
4.8315	38.296
4.8270	38.421
4.8225	38.561
4.8180	38.720
4.8135	38.900
4.8090	39.102
4.8046	39.325
4.8001	39.566
4.7957	39.823
4.7913	40.090
4.7868	40.363
4.7824	40.640
4.7780	40.918
4.7736	41.197
4.7692	41.477
4.7648	41.759
4.7605	42.046
4.7561	42.335
4.7517	42.629
4.7474	42.924
4.7431	43.221
4.7387	43.516
4.7344	43.809
4.7301	44.100
4.7258	44.388
4.7215	44.674
4.7172	44.958
4.7129	45.243
4.7086	45.528
4.7043	45.816
4.7000	46.107
4.6958	46.399
4.6915	46.690
4.6873	46.978
4.6831	47.257
4.6788	47.527
4.6746	47.787
4.6704	48.038
4.6662	48.285
4.6620	48.535
4.6578	48.794
4.6536	49.066
4.6495	49.353
4.6453	49.654
4.6411	49.965
4.6370	50.281
4.6328	50.597
4.6287	50.911
4.6246	51.222
4.6205	51.527
4.6163	51.828
4.6122	52.124
4.6081	52.414
4.6040	52.699
4.6000	52.979
4.5959	53.255
4.5918	53.531
4.5877	53.807
4.5837	54.086
4.5796	54.368
4.5756	54.653
4.5716	54.937
4.5675	55.217
4.5635	55.489
4.5595	55.751
4.5555	55.999
4.5515	56.233
4.5475	56.453
4.5435	56.664
4.5395	56.867
4.5356	57.066
4.5316	57.260
4.5276	57.448
4.5237	57.626
4.5197	57.792
4.5158	57.943
4.5119	58.079
4.5080	58.204
4.5040	58.319
4.5001	58.428
4.4962	58.533
4.4923	58.634
4.4884	58.732
4.4846	58.826
4.4807	58.915
4.4768	59.001
4.4730	59.085
4.4691	59.170
4.4652	59.257
4.4614	59.349
4.4576	59.445
4.4537	59.545
4.4499	59.649
4.4461	59.755
4.4423	59.860
4.4385	59.963
4.4347	60.063
4.4309	60.160
4.4271	60.254
4.4233	60.346
4.4196	60.438
4.4158	60.530
4.4120	60.620
4.4083	60.708
4.4045	60.794
4.4008	60.876
4.3971	60.954
4.3934	61.030
4.3896	61.104
4.3859	61.177
4.3822	61.250
4.3785	61.325
4.3748	61.400
4.3711	61.476
4.3674	61.553
4.3638	61.630
4.3601	61.706
4.3564	61.781
4.3528	61.854
4.3491	61.927
4.3455	61.999
4.3418	62.073
4.3382	62.149
4.3346	62.227
4.3310	62.307
4.3273	62.389
4.3237	62.471
4.3201	62.553
4.3165	62.636
4.3129	62.719
4.3094	62.804
4.3058	62.890
4.3022	62.979
4.2986	63.069
4.2951	63.159
4.2915	63.249
4.2880	63.337
4.2844	63.424
4.2809	63.509
4.2774	63.594
4.2738	63.678
4.2703	63.762
4.2668	63.843
4.2633	63.921
4.2598	63.995
4.2563	64.065
4.2528	64.130
4.2493	64.191
4.2458	64.249
4.2424	64.306
4.2389	64.364
4.2354	64.421
4.2320	64.481
4.2285	64.541
4.2251	64.601
4.2216	64.657
4.2182	64.710
4.2148	64.760
4.2113	64.806
4.2079	64.852
4.2045	64.899
4.2011	64.947
4.1977	64.998
4.1943	65.049
4.1909	65.100
4.1875	65.149
4.1841	65.198
4.1808	65.243
4.1774	65.286
4.1740	65.329
4.1707	65.372
4.1673	65.416
4.1640	65.462
4.1606	65.510
4.1573	65.560
4.1540	65.610
4.1506	65.661
4.1473	65.714
4.1440	65.767
4.1407	65.819
4.1374	65.871
4.1341	65.920
4.1308	65.967
4.1275	66.012
4.1242	66.055
4.1209	66.099
4.1177	66.142
4.1144	66.185
4.1111	66.227
4.1079	66.269
4.1046	66.312
4.1014	66.356
4.0981	66.400
4.0949	66.445
4.0917	66.489
4.0884	66.533
4.0852	66.574
4.0820	66.614
4.0788	66.652
4.0756	66.689
4.0724	66.726
4.0692	66.763
4.0660	66.800
4.0628	66.837
4.0596	66.872
4.0565	66.906
4.0533	66.937
4.0501	66.964
4.0470	66.990
4.0438	67.014
4.0406	67.037
4.0375	67.058
4.0344	67.076
4.0312	67.093
4.0281	67.107
4.0250	67.118
4.0218	67.128
4.0187	67.137
4.0156	67.145
4.0125	67.152
4.0094	67.158
4.0063	67.164
4.0032	67.170
4.0001	67.176
3.9970	67.183
3.9940	67.189
3.9909	67.196
3.9878	67.204
3.9847	67.215
3.9817	67.229
3.9786	67.246
3.9756	67.266
3.9725	67.289
3.9695	67.314
3.9665	67.341
3.9634	67.371
3.9604	67.404
3.9574	67.440
3.9544	67.478
3.9513	67.517
3.9483	67.556
3.9453	67.592
3.9423	67.625
3.9393	67.654
3.9363	67.680
3.9333	67.706
3.9304	67.730
3.9274	67.755
3.9244	67.780
3.9214	67.804
3.9185	67.825
3.9155	67.844
3.9126	67.862
3.9096	67.879
3.9067	67.896
3.9037	67.913
3.9008	67.929
3.8979	67.943
3.8949	67.954
3.8920	67.964
3.8891	67.972
3.8862	67.979
3.8833	67.986
3.8804	67.992
3.8775	67.997
3.8746	67.999
3.8717	67.999
3.8688	67.996
3.8659	67.993
3.8630	67.991
3.8601	67.989
3.8573	67.987
3.8544	67.985
3.8515	67.982
3.8487	67.979
3.8458	67.975
3.8430	67.971
3.8401	67.968
3.8373	67.964
3.8344	67.961
3.8316	67.957
3.8288	67.953
3.8259	67.947
3.8231	67.942
3.8203	67.936
3.8175	67.929
3.8147	67.921
3.8119	67.912
3.8091	67.900
3.8063	67.887
3.8035	67.875
3.8007	67.866
3.7979	67.858
3.7951	67.853
3.7924	67.847
3.7896	67.839
3.7868	67.826
3.7841	67.810
3.7813	67.793
3.7785	67.775
3.7758	67.758
3.7730	67.743
3.7703	67.728
3.7676	67.713
3.7648	67.696
3.7621	67.678
3.7594	67.659
3.7566	67.639
3.7539	67.618
3.7512	67.595
3.7485	67.570
3.7458	67.543
3.7431	67.515
3.7404	67.487
3.7377	67.458
3.7350	67.429
3.7323	67.397
3.7296	67.364
3.7269	67.329
3.7242	67.293
3.7216	67.257
3.7189	67.221
3.7162	67.185
3.7136	67.148
3.7109	67.110
3.7083	67.070
3.7056	67.031
3.7030	66.990
3.7003	66.948
3.6977	66.906
3.6950	66.868
3.6924	66.836
3.6898	66.814
3.6872	66.798
3.6845	66.787
3.6819	66.774
3.6793	66.752
3.6767	66.719
3.6741	66.679
3.6715	66.636
3.6689	66.593
3.6663	66.553
3.6637	66.518
3.6611	66.485
3.6585	66.454
3.6560	66.424
3.6534	66.392
3.6508	66.357
3.6482	66.317
3.6457	66.275
3.6431	66.230
3.6406	66.186
3.6380	66.142
3.6355	66.097
3.6329	66.052
3.6304	66.007
3.6278	65.963
3.6253	65.921
3.6227	65.881
3.6202	65.843
3.6177	65.805
3.6152	65.765
3.6127	65.722
3.6101	65.677
3.6076	65.631
3.6051	65.584
3.6026	65.536
3.6001	65.486
3.5976	65.432
3.5951	65.376
3.5926	65.319
3.5901	65.264
3.5876	65.212
3.5852	65.162
3.5827	65.114
3.5802	65.066
3.5777	65.016
3.5753	64.964
3.5728	64.910
3.5704	64.855
3.5679	64.798
3.5654	64.738
3.5630	64.676
3.5605	64.613
3.5581	64.547
3.5557	64.478
3.5532	64.405
3.5508	64.328
3.5484	64.247
3.5459	64.163
3.5435	64.077
3.5411	63.989
3.5387	63.900
3.5363	63.808
3.5338	63.714
3.5314	63.618
3.5290	63.519
3.5266	63.414
3.5242	63.301
3.5218	63.178
3.5195	63.044
3.5171	62.898
3.5147	62.739
3.5123	62.573
3.5099	62.404
3.5075	62.241
3.5052	62.095
3.5028	61.975
3.5004	61.888
3.4981	61.832
3.4957	61.801
3.4934	61.781
3.4910	61.763
3.4887	61.739
3.4863	61.705
3.4840	61.663
3.4816	61.615
3.4793	61.564
3.4770	61.510
3.4746	61.453
3.4723	61.392
3.4700	61.324
3.4677	61.250
3.4653	61.169
3.4630	61.081
3.4607	60.985
3.4584	60.880
3.4561	60.767
3.4538	60.646
3.4515	60.520
3.4492	60.390
3.4469	60.261
3.4446	60.131
3.4423	60.001
3.4400	59.867
3.4378	59.725
3.4355	59.574
3.4332	59.412
3.4309	59.237
3.4287	59.051
3.4264	58.859
3.4241	58.666
3.4219	58.481
3.4196	58.313
3.4174	58.168
3.4151	58.049
3.4129	57.956
3.4106	57.882
3.4084	57.820
3.4061	57.763
3.4039	57.704
3.4017	57.643
3.3994	57.579
3.3972	57.509
3.3950	57.433
3.3928	57.348
3.3906	57.250
3.3883	57.138
3.3861	57.017
3.3839	56.890
3.3817	56.763
3.3795	56.641
3.3773	56.529
3.3751	56.431
3.3729	56.347
3.3707	56.273
3.3685	56.205
3.3663	56.137
3.3641	56.063
3.3620	55.977
3.3598	55.879
3.3576	55.772
3.3554	55.661
3.3533	55.552
3.3511	55.452
3.3489	55.364
3.3468	55.292
3.3446	55.234
3.3425	55.190
3.3403	55.158
3.3382	55.134
3.3360	55.117
3.3339	55.103
3.3317	55.087
3.3296	55.067
3.3274	55.037
3.3253	54.997
3.3232	54.947
3.3210	54.892
3.3189	54.834
3.3168	54.778
3.3147	54.727
3.3126	54.683
3.3104	54.642
3.3083	54.605
3.3062	54.571
3.3041	54.540
3.3020	54.513
3.2999	54.489
3.2978	54.468
3.2957	54.448
3.2936	54.428
3.2915	54.407
3.2894	54.384
3.2874	54.361
3.2853	54.337
3.2832	54.311
3.2811	54.280
3.2790	54.240
3.2770	54.188
3.2749	54.124
3.2728	54.048
3.2708	53.964
3.2687	53.874
3.2666	53.780
3.2646	53.683
3.2625	53.584
3.2605	53.484
3.2584	53.382
3.2564	53.279
3.2543	53.175
3.2523	53.069
3.2503	52.957
3.2482	52.838
3.2462	52.713
3.2442	52.583
3.2421	52.453
3.2401	52.325
3.2381	52.200
3.2361	52.080
3.2340	51.960
3.2320	51.839
3.2300	51.714
3.2280	51.583
3.2260	51.448
3.2240	51.309
3.2220	51.170
3.2200	51.032
3.2180	50.896
3.2160	50.761
3.2140	50.628
3.2120	50.495
3.2100	50.360
3.2080	50.223
3.2060	50.086
3.2040	49.947
3.2021	49.808
3.2001	49.668
3.1981	49.528
3.1961	49.388
3.1942	49.249
3.1922	49.111
3.1902	48.975
3.1883	48.842
3.1863	48.712
