Name: Chloritic Gneiss  
Type:  Rocks
Class: Metamorphic 
Subclass: Gneiss 
Particle Size:  500-1500  Micrometers
Sample No.:  Gneiss1.doc
Owner:  JHU
Wavelength Range:  All
Origin:  Sample No. 380, The Hunt and Salisbury Collection at the U.S. 
Geological Survey, Denver, Co.
Description: This is a greenish rock containing only 20% quartz, 35% albite, a 
mixture of chlorite and muscovite (40%) and 5% rutile.




Measurement:  Directional (10 Degree) Hemispherical Reflectance
First Column:  X
Second Column:  Y  
X Units:  Wavelength (micrometers)
Y Units:  Reflectance (percent)
First X Value: 14.9831
Last X Value:  0.4
Number of X Values: 2868
Additional Information:  None 

14.9831	2.3653	
14.9399	2.3362	
14.897	2.3011	
14.8543	2.277	
14.8119	2.231	
14.7697	2.1735	
14.7277	2.1238	
14.686	2.092	
14.6445	2.0747	
14.6033	2.0759	
14.5622	2.0953	
14.5214	2.1306	
14.4809	2.1408	
14.4405	2.128	
14.4004	2.097	
14.3605	2.0525	
14.3209	2.0132
14.2814	1.993
14.2422	1.9994
14.2032	2.0295
14.1643	2.0617
14.1258	2.1043
14.0874	2.1557
14.0492	2.2097
14.0112	2.2777
13.9734	2.3658
13.9359	2.4579
13.8985	2.5219
13.8614	2.533
13.8244	2.4958
13.7876	2.424
13.7511	2.3419
13.7147	2.2805
13.6785	2.2666
13.6425	2.3075
13.6067	2.3902
13.5711	2.4925
13.5356	2.5972
13.5004	2.685
13.4653	2.7414
13.4304	2.7535
13.3957	2.7203
13.3612	2.6587
13.3269	2.5917
13.2927	2.5462
13.2587	2.5533
13.2249	2.6261
13.1912	2.7551
13.1577	2.9086
13.1244	3.0495
13.0913	3.1468
13.0583	3.1807
13.0255	3.1584
12.9929	3.1127
12.9604	3.0803
12.9281	3.0897
12.8959	3.1504
12.8639	3.2501
12.8321	3.3524
12.8004	3.4184
12.7688	3.4263
12.7375	3.3697
12.7063	3.2626
12.6752	3.1347
12.6443	3.0189
12.6135	2.9458
12.5829	2.9263
12.5524	2.9548
12.5221	3.0038
12.4919	3.0265
12.4619	2.9827
12.432	2.8536
12.4023	2.6476
12.3727	2.407
12.3432	2.1839
12.3139	2.0226
12.2847	1.9405
12.2557	1.9277
12.2268	1.962
12.198	2.0158
12.1694	2.0681
12.1409	2.1159
12.1125	2.1609
12.0843	2.2081
12.0562	2.2585
12.0282	2.3135
12.0003	2.3715
11.9726	2.4288
11.945	2.4821
11.9176	2.5311
11.8903	2.5721
11.8631	2.6045
11.836	2.6294
11.809	2.6516
11.7822	2.677
11.7555	2.7092
11.7289	2.7516
11.7024	2.8003
11.676	2.8494
11.6498	2.897
11.6237	2.9389
11.5977	2.9756
11.5718	3.0092
11.546	3.0424
11.5203	3.0774
11.4948	3.1101
11.4694	3.1373
11.444	3.1639
11.4188	3.1885
11.3937	3.2107
11.3688	3.2349
11.3439	3.2647
11.3191	3.2984
11.2944	3.3292
11.2699	3.3547
11.2455	3.3775
11.2211	3.395
11.1969	3.4075
11.1727	3.421
11.1487	3.4409
11.1248	3.4665
11.101	3.4945
11.0773	3.5229
11.0536	3.5501
11.0301	3.5738
11.0067	3.5906
10.9834	3.6015
10.9602	3.611
10.937	3.6212
10.914	3.6346
10.8911	3.6538
10.8682	3.6799
10.8455	3.7121
10.8229	3.7474
10.8003	3.7846
10.7779	3.8234
10.7555	3.862
10.7332	3.9034
10.7111	3.947
10.689	3.9915
10.667	4.0349
10.6451	4.0792
10.6233	4.1291
10.6015	4.1869
10.5799	4.2532
10.5584	4.3278
10.5369	4.4024
10.5155	4.4716
10.4942	4.5343
10.473	4.5933
10.4519	4.6534
10.4309	4.7204
10.4099	4.7977
10.3891	4.8848
10.3683	4.9812
10.3476	5.0904
10.327	5.2168
10.3065	5.3646
10.286	5.5341
10.2656	5.7227
10.2454	5.9239
10.2251	6.1333
10.205	6.346
10.185	6.5567
10.165	6.7642
10.1451	6.9678
10.1253	7.1618
10.1056	7.3418
10.0859	7.5108
10.0663	7.6759
10.0468	7.8398
10.0274	8.0006
10.008	8.159
9.9887	8.312
9.9695	8.4467
9.9504	8.5521
9.9313	8.617
9.9123	8.6281
9.8934	8.572
9.8746	8.4427
9.8558	8.2592
9.8371	8.0664
9.8185	7.9201
9.7999	7.8767
9.7814	7.9779
9.763	8.2353
9.7447	8.6241
9.7264	9.0914
9.7082	9.5799
9.69	10.0419
9.6719	10.4355
9.6539	10.732
9.636	10.9234
9.6181	11.0119
9.6003	10.9994
9.5825	10.8916
9.5649	10.7043
9.5472	10.4644
9.5297	10.203
9.5122	9.9562
9.4948	9.766
9.4774	9.6678
9.4601	9.6751
9.4429	9.7781
9.4257	9.9515
9.4086	10.1641
9.3916	10.3844
9.3746	10.585
9.3577	10.7531
9.3408	10.8912
9.324	11.0093
9.3073	11.1131
9.2906	11.2087
9.274	11.3023
9.2574	11.3911
9.2409	11.4688
9.2245	11.5263
9.2081	11.5599
9.1918	11.5692
9.1755	11.5521
9.1593	11.5071
9.1431	11.4347
9.127	11.3361
9.111	11.2206
9.095	11.0946
9.0791	10.97
9.0632	10.8632
9.0474	10.7884
9.0316	10.7507
9.0159	10.7517
9.0003	10.7917
8.9847	10.8689
8.9691	10.9712
8.9536	11.0875
8.9382	11.2118
8.9228	11.3383
8.9075	11.4571
8.8922	11.5651
8.877	11.6632
8.8618	11.7515
8.8467	11.8275
8.8316	11.8945
8.8166	11.9542
8.8016	12.007
8.7867	12.0535
8.7718	12.097
8.757	12.1378
8.7422	12.1678
8.7275	12.1709
8.7129	12.12
8.6982	11.9793
8.6837	11.7321
8.6692	11.4027
8.6547	11.0548
8.6403	10.7735
8.6259	10.6371
8.6116	10.6868
8.5973	10.9021
8.583	11.2092
8.5688	11.5268
8.5547	11.7979
8.5406	12.0002
8.5266	12.1415
8.5126	12.2474
8.4986	12.3426
8.4847	12.4402
8.4708	12.5422
8.457	12.65
8.4432	12.7625
8.4295	12.8776
8.4158	12.9886
8.4022	13.0848
8.3886	13.1551
8.375	13.1937
8.3615	13.2006
8.3481	13.1786
8.3347	13.1295
8.3213	13.0564
8.3079	12.9631
8.2946	12.8537
8.2814	12.7307
8.2682	12.5981
8.255	12.4579
8.2419	12.3066
8.2288	12.1321
8.2158	11.9173
8.2028	11.6447
8.1898	11.3023
8.1769	10.8855
8.164	10.4007
8.1512	9.8622
8.1384	9.2922
8.1256	8.7101
8.1129	8.1301
8.1002	7.5634
8.0876	7.0202
8.075	6.5094
8.0624	6.0371
8.0499	5.6061
8.0374	5.2197
8.025	4.8715
8.0126	4.5511
8.0002	4.2499
7.9879	3.9622
7.9756	3.6825
7.9634	3.4099
7.9512	3.148
7.939	2.9012
7.9268	2.6708
7.9147	2.4593
7.9027	2.2694
7.8906	2.101
7.8786	1.9523
7.8667	1.8237
7.8548	1.7157
7.8429	1.6253
7.831	1.5474
7.8192	1.4782
7.8075	1.4162
7.7957	1.3591
7.784	1.3051
7.7723	1.2565
7.7607	1.2149
7.7491	1.1782
7.7375	1.1424
7.726	1.1047
7.7145	1.0664
7.7031	1.0283
7.6916	0.9904
7.6802	0.9567
7.6689	0.9316
7.6575	0.9129
7.6462	0.8961
7.635	0.8793
7.6238	0.863
7.6126	0.8464
7.6014	0.8291
7.5903	0.8135
7.5792	0.8028
7.5681	0.7957
7.5571	0.7905
7.5461	0.7888
7.5351	0.7907
7.5242	0.7929
7.5133	0.7914
7.5024	0.7858
7.4916	0.7779
7.4807	0.7697
7.47	0.7649
7.4592	0.7661
7.4485	0.772
7.4378	0.7772
7.4272	0.7777
7.4165	0.7749
7.4059	0.7701
7.3954	0.7659
7.3848	0.767
7.3743	0.7744
7.3639	0.7841
7.3534	0.7931
7.343	0.8
7.3326	0.8064
7.3223	0.8113
7.3119	0.8149
7.3016	0.8201
7.2914	0.827
7.2811	0.8341
7.2709	0.8402
7.2607	0.8469
7.2506	0.8563
7.2404	0.8672
7.2303	0.8774
7.2203	0.8881
7.2102	0.8985
7.2002	0.9077
7.1902	0.9153
7.1803	0.9238
7.1703	0.9345
7.1604	0.9458
7.1506	0.9574
7.1407	0.9709
7.1309	0.9866
7.1211	1.0017
7.1113	1.0169
7.1016	1.033
7.0919	1.046
7.0822	1.0524
7.0725	1.0524
7.0629	1.0508
7.0533	1.0491
7.0437	1.0491
7.0341	1.0564
7.0246	1.0714
7.0151	1.087
7.0056	1.0965
6.9962	1.0988
6.9867	1.0969
6.9773	1.0934
6.9679	1.0917
6.9586	1.0965
6.9493	1.1071
6.94	1.1204
6.9307	1.1322
6.9214	1.1419
6.9122	1.1505
6.903	1.1599
6.8938	1.1699
6.8847	1.1777
6.8755	1.1834
6.8664	1.1893
6.8573	1.1957
6.8483	1.2037
6.8393	1.2158
6.8302	1.2317
6.8213	1.2473
6.8123	1.2584
6.8034	1.2641
6.7944	1.2653
6.7855	1.2648
6.7767	1.2658
6.7678	1.2722
6.759	1.2826
6.7502	1.2937
6.7414	1.3027
6.7327	1.3075
6.7239	1.3101
6.7152	1.3139
6.7065	1.3217
6.6979	1.3356
6.6892	1.3529
6.6806	1.3683
6.672	1.3792
6.6634	1.3856
6.6549	1.3901
6.6464	1.3956
6.6378	1.4017
6.6294	1.4095
6.6209	1.4181
6.6124	1.424
6.604	1.4287
6.5956	1.4337
6.5872	1.4406
6.5789	1.4481
6.5705	1.4531
6.5622	1.4576
6.5539	1.4619
6.5456	1.4652
6.5374	1.4702
6.5292	1.478
6.5209	1.4898
6.5128	1.5052
6.5046	1.5232
6.4964	1.5443
6.4883	1.5654
6.4802	1.5824
6.4721	1.595
6.464	1.6032
6.456	1.6096
6.448	1.617
6.4399	1.6267
6.432	1.6381
6.424	1.6473
6.416	1.6504
6.4081	1.6487
6.4002	1.6444
6.3923	1.6383
6.3844	1.6326
6.3766	1.6286
6.3687	1.6265
6.3609	1.6222
6.3531	1.6132
6.3454	1.6016
6.3376	1.5883
6.3299	1.5751
6.3221	1.5635
6.3144	1.5559
6.3068	1.553
6.2991	1.5523
6.2914	1.5535
6.2838	1.5564
6.2762	1.5592
6.2686	1.5623
6.2611	1.563
6.2535	1.5597
6.246	1.5514
6.2385	1.5398
6.231	1.5305
6.2235	1.5272
6.216	1.531
6.2086	1.5436
6.2011	1.5611
6.1937	1.5772
6.1863	1.5867
6.179	1.589
6.1716	1.5874
6.1643	1.5848
6.157	1.5841
6.1496	1.589
6.1424	1.6016
6.1351	1.6193
6.1278	1.6392
6.1206	1.6589
6.1134	1.6769
6.1062	1.6923
6.099	1.7048
6.0918	1.7153
6.0847	1.7264
6.0776	1.738
6.0704	1.7482
6.0633	1.7565
6.0563	1.7621
6.0492	1.7643
6.0421	1.7621
6.0351	1.7562
6.0281	1.7517
6.0211	1.7505
6.0141	1.7541
6.0071	1.7638
6.0002	1.7782
5.9932	1.7913
5.9863	1.7981
5.9794	1.7984
5.9725	1.7958
5.9657	1.7951
5.9588	1.7986
5.952	1.806
5.9451	1.8154
5.9383	1.823
5.9315	1.8261
5.9247	1.8251
5.918	1.8237
5.9112	1.8273
5.9045	1.8353
5.8978	1.8443
5.8911	1.8555
5.8844	1.8673
5.8777	1.8798
5.8711	1.8945
5.8644	1.9132
5.8578	1.9381
5.8512	1.9634
5.8446	1.9855
5.838	2.002
5.8314	2.0108
5.8249	2.0141
5.8184	2.0155
5.8118	2.0167
5.8053	2.0184
5.7988	2.0193
5.7923	2.0203
5.7859	2.0207
5.7794	2.021
5.773	2.0229
5.7666	2.0267
5.7602	2.0295
5.7538	2.0302
5.7474	2.0286
5.741	2.0257
5.7347	2.0229
5.7283	2.021
5.722	2.0205
5.7157	2.0212
5.7094	2.0229
5.7031	2.0271
5.6969	2.0331
5.6906	2.0402
5.6844	2.0482
5.6782	2.0549
5.6719	2.0572
5.6657	2.0544
5.6596	2.0482
5.6534	2.0416
5.6472	2.0354
5.6411	2.03
5.6349	2.0274
5.6288	2.0276
5.6227	2.03
5.6166	2.034
5.6106	2.039
5.6045	2.0454
5.5984	2.0518
5.5924	2.0549
5.5864	2.0537
5.5804	2.0501
5.5744	2.0454
5.5684	2.0406
5.5624	2.0395
5.5564	2.0463
5.5505	2.0615
5.5445	2.0833
5.5386	2.1086
5.5327	2.138
5.5268	2.1695
5.5209	2.2024
5.5151	2.236
5.5092	2.2673
5.5033	2.2933
5.4975	2.3142
5.4917	2.3288
5.4859	2.3428
5.4801	2.3601
5.4743	2.3824
5.4685	2.4077
5.4628	2.4323
5.457	2.4541
5.4513	2.4728
5.4455	2.4863
5.4398	2.4982
5.4341	2.5114
5.4284	2.5266
5.4228	2.5441
5.4171	2.565
5.4114	2.5891
5.4058	2.6133
5.4002	2.6324
5.3945	2.6471
5.3889	2.658
5.3833	2.6661
5.3778	2.6729
5.3722	2.6808
5.3666	2.6907
5.3611	2.7025
5.3555	2.7137
5.35	2.725
5.3445	2.7369
5.339	2.7492
5.3335	2.7596
5.328	2.7667
5.3225	2.7724
5.3171	2.7781
5.3116	2.7838
5.3062	2.7904
5.3008	2.7989
5.2954	2.8082
5.29	2.8157
5.2846	2.8205
5.2792	2.8238
5.2738	2.829
5.2684	2.8368
5.2631	2.8489
5.2578	2.8657
5.2524	2.8837
5.2471	2.9015
5.2418	2.9171
5.2365	2.932
5.2312	2.9503
5.226	2.9739
5.2207	3.0035
5.2154	3.0376
5.2102	3.0727
5.205	3.1042
5.1998	3.1295
5.1945	3.1492
5.1893	3.1688
5.1842	3.1904
5.179	3.2141
5.1738	3.2413
5.1686	3.2704
5.1635	3.2979
5.1584	3.3211
5.1532	3.3422
5.1481	3.3644
5.143	3.3872
5.1379	3.4097
5.1328	3.4334
5.1277	3.4585
5.1227	3.4836
5.1176	3.5098
5.1126	3.5404
5.1075	3.5762
5.1025	3.6148
5.0975	3.6545
5.0925	3.6948
5.0875	3.732
5.0825	3.7651
5.0775	3.7938
5.0726	3.8194
5.0676	3.8419
5.0627	3.8596
5.0577	3.8745
5.0528	3.8885
5.0479	3.9011
5.043	3.9127
5.038	3.924
5.0332	3.9352
5.0283	3.9444
5.0234	3.9501
5.0185	3.9546
5.0137	3.9593
5.0088	3.9648
5.004	3.9731
4.9992	3.9882
4.9944	4.0124
4.9896	4.0474
4.9848	4.0962
4.98	4.162
4.9752	4.2452
4.9704	4.343
4.9657	4.451
4.9609	4.5627
4.9562	4.6705
4.9514	4.7652
4.9467	4.8393
4.942	4.8905
4.9373	4.9182
4.9326	4.9255
4.9279	4.9182
4.9232	4.9049
4.9186	4.8971
4.9139	4.9014
4.9092	4.9258
4.9046	4.9774
4.9	5.057
4.8953	5.1633
4.8907	5.2907
4.8861	5.4326
4.8815	5.582
4.8769	5.7307
4.8723	5.8761
4.8678	6.0196
4.8632	6.1636
4.8586	6.3123
4.8541	6.4672
4.8495	6.6254
4.845	6.7805
4.8405	6.9245
4.836	7.0481
4.8315	7.1454
4.827	7.2146
4.8225	7.256
4.818	7.2695
4.8135	7.2567
4.809	7.2217
4.8046	7.1705
4.8001	7.1071
4.7957	7.0398
4.7913	6.9799
4.7868	6.9356
4.7824	6.9148
4.778	6.9262
4.7736	6.9752
4.7692	7.059
4.7648	7.1708
4.7605	7.302
4.7561	7.441
4.7517	7.5762
4.7474	7.7039
4.7431	7.8246
4.7387	7.939
4.7344	8.0472
4.7301	8.1531
4.7258	8.2575
4.7215	8.3558
4.7172	8.4434
4.7129	8.5178
4.7086	8.5744
4.7043	8.6097
4.7	8.626
4.6958	8.6329
4.6915	8.6409
4.6873	8.6604
4.6831	8.7018
4.6788	8.7705
4.6746	8.864
4.6704	8.9753
4.6662	9.098
4.662	9.2266
4.6578	9.3594
4.6536	9.4999
4.6495	9.6564
4.6453	9.8347
4.6411	10.0374
4.637	10.261
4.6328	10.5004
4.6287	10.7493
4.6246	10.9999
4.6205	11.2473
4.6163	11.4884
4.6122	11.7172
4.6081	11.9282
4.604	12.1188
4.6	12.2915
4.5959	12.4482
4.5918	12.5934
4.5877	12.7326
4.5837	12.8676
4.5796	12.9974
4.5756	13.1213
4.5716	13.2413
4.5675	13.3581
4.5635	13.4672
4.5595	13.5655
4.5555	13.6503
4.5515	13.7145
4.5475	13.7557
4.5435	13.7756
4.5395	13.7808
4.5356	13.7758
4.5316	13.7623
4.5276	13.7417
4.5237	13.7145
4.5197	13.6785
4.5158	13.634
4.5119	13.5854
4.508	13.5416
4.504	13.5127
4.5001	13.5066
4.4962	13.5274
4.4923	13.5755
4.4884	13.6446
4.4846	13.7239
4.4807	13.8049
4.4768	13.8869
4.473	13.9754
4.4691	14.0808
4.4652	14.213
4.4614	14.3769
4.4576	14.5682
4.4537	14.774
4.4499	14.9781
4.4461	15.1688
4.4423	15.3407
4.4385	15.4963
4.4347	15.6431
4.4309	15.7899
4.4271	15.9458
4.4233	16.1148
4.4196	16.2984
4.4158	16.4956
4.412	16.7043
4.4083	16.9238
4.4045	17.1549
4.4008	17.3998
4.3971	17.6615
4.3934	17.9402
4.3896	18.2348
4.3859	18.5396
4.3822	18.8482
4.3785	19.1577
4.3748	19.4651
4.3711	19.7682
4.3674	20.0652
4.3638	20.3548
4.3601	20.6361
4.3564	20.9073
4.3528	21.1685
4.3491	21.4221
4.3455	21.6682
4.3418	21.9069
4.3382	22.138
4.3346	22.3606
4.331	22.5728
4.3273	22.7732
4.3237	22.9612
4.3201	23.1345
4.3165	23.2911
4.3129	23.4324
4.3094	23.561
4.3058	23.6806
4.3022	23.7967
4.2986	23.917
4.2951	24.0498
4.2915	24.1985
4.288	24.3665
4.2844	24.555
4.2809	24.7626
4.2774	24.985
4.2738	25.2159
4.2703	25.4482
4.2668	25.6715
4.2633	25.8745
4.2598	26.0495
4.2563	26.1921
4.2528	26.3024
4.2493	26.3872
4.2458	26.4585
4.2424	26.5286
4.2389	26.6072
4.2354	26.701
4.232	26.8132
4.2285	26.9399
4.2251	27.0735
4.2216	27.2082
4.2182	27.3383
4.2148	27.4586
4.2113	27.5644
4.2079	27.6556
4.2045	27.7363
4.2011	27.8105
4.1977	27.8867
4.1943	27.976
4.1909	28.0842
4.1875	28.214
4.1841	28.3608
4.1808	28.5188
4.1774	28.6782
4.174	28.8292
4.1707	28.9685
4.1673	29.0959
4.164	29.2112
4.1606	29.3187
4.1573	29.4234
4.154	29.529
4.1506	29.6347
4.1473	29.7389
4.144	29.8442
4.1407	29.9518
4.1374	30.0586
4.1341	30.1665
4.1308	30.2778
4.1275	30.392
4.1242	30.5064
4.1209	30.6198
4.1177	30.734
4.1144	30.8493
4.1111	30.9637
4.1079	31.0788
4.1046	31.1962
4.1014	31.3149
4.0981	31.4345
4.0949	31.5522
4.0917	31.6646
4.0884	31.77
4.0852	31.8655
4.082	31.9512
4.0788	32.0277
4.0756	32.0935
4.0724	32.1499
4.0692	32.1963
4.066	32.2306
4.0628	32.2527
4.0596	32.2628
4.0565	32.2638
4.0533	32.2583
4.0501	32.2474
4.047	32.2325
4.0438	32.2143
4.0406	32.1925
4.0375	32.1676
4.0344	32.1411
4.0312	32.1151
4.0281	32.0909
4.025	32.0677
4.0218	32.0438
4.0187	32.0203
4.0156	31.9983
4.0125	31.981
4.0094	31.9727
4.0063	31.9744
4.0032	31.9853
4.0001	32.0023
3.997	32.0241
3.994	32.0488
3.9909	32.0755
3.9878	32.107
3.9847	32.1451
3.9817	32.1904
3.9786	32.2437
3.9756	32.3055
3.9725	32.3753
3.9695	32.4492
3.9665	32.524
3.9634	32.597
3.9604	32.6668
3.9574	32.7329
3.9544	32.7992
3.9513	32.8696
3.9483	32.9437
3.9453	33.0178
3.9423	33.0886
3.9393	33.1537
3.9363	33.2101
3.9333	33.2568
3.9304	33.2977
3.9274	33.3347
3.9244	33.3664
3.9214	33.3915
3.9185	33.4081
3.9155	33.4164
3.9126	33.4138
3.9096	33.4
3.9067	33.3768
3.9037	33.3439
3.9008	33.3034
3.8979	33.2577
3.8949	33.2073
3.892	33.1544
3.8891	33.099
3.8862	33.0408
3.8833	32.9783
3.8804	32.9124
3.8775	32.8461
3.8746	32.7812
3.8717	32.7194
3.8688	32.6631
3.8659	32.6138
3.863	32.5712
3.8601	32.5326
3.8573	32.4989
3.8544	32.4696
3.8515	32.4428
3.8487	32.418
3.8458	32.3955
3.843	32.3767
3.8401	32.3623
3.8373	32.3516
3.8344	32.3469
3.8316	32.3474
3.8288	32.3493
3.8259	32.3509
3.8231	32.3521
3.8203	32.3524
3.8175	32.3509
3.8147	32.3471
3.8119	32.3424
3.8091	32.3344
3.8063	32.3204
3.8035	32.2991
3.8007	32.2697
3.7979	32.2313
3.7951	32.1833
3.7924	32.1279
3.7896	32.0691
3.7868	32.0075
3.7841	31.9446
3.7813	31.8811
3.7785	31.8153
3.7758	31.744
3.773	31.667
3.7703	31.5865
3.7676	31.5046
3.7648	31.421
3.7621	31.3407
3.7594	31.2666
3.7566	31.1962
3.7539	31.1283
3.7512	31.0636
3.7485	31.0027
3.7458	30.945
3.7431	30.8921
3.7404	30.8514
3.7377	30.8251
3.735	30.8104
3.7323	30.8057
3.7296	30.8088
3.7269	30.8171
3.7242	30.8289
3.7216	30.8445
3.7189	30.8668
3.7162	30.895
3.7136	30.9274
3.7109	30.9622
3.7083	30.9985
3.7056	31.0373
3.703	31.0773
3.7003	31.1169
3.6977	31.1574
3.695	31.2
3.6924	31.245
3.6898	31.2924
3.6872	31.3414
3.6845	31.3909
3.6819	31.4375
3.6793	31.4795
3.6767	31.5169
3.6741	31.5505
3.6715	31.581
3.6689	31.609
3.6663	31.6336
3.6637	31.6528
3.6611	31.6663
3.6585	31.6758
3.656	31.6803
3.6534	31.6793
3.6508	31.6736
3.6482	31.6627
3.6457	31.6452
3.6431	31.6201
3.6406	31.591
3.638	31.5607
3.6355	31.5282
3.6329	31.4948
3.6304	31.4622
3.6278	31.4274
3.6253	31.3876
3.6227	31.3409
3.6202	31.2886
3.6177	31.2327
3.6152	31.1754
3.6127	31.1214
3.6101	31.074
3.6076	31.0309
3.6051	30.9907
3.6026	30.9509
3.6001	30.9075
3.5976	30.8628
3.5951	30.8178
3.5926	30.7721
3.5901	30.7252
3.5876	30.6733
3.5852	30.6158
3.5827	30.553
3.5802	30.4848
3.5777	30.4152
3.5753	30.3475
3.5728	30.2814
3.5704	30.2184
3.5679	30.1568
3.5654	30.0941
3.563	30.0311
3.5605	29.9662
3.5581	29.8989
3.5557	29.8296
3.5532	29.7573
3.5508	29.6832
3.5484	29.606
3.5459	29.5269
3.5435	29.4483
3.5411	29.3689
3.5387	29.2865
3.5363	29.1989
3.5338	29.1032
3.5314	28.9979
3.529	28.8863
3.5266	28.7738
3.5242	28.663
3.5218	28.5562
3.5195	28.4529
3.5171	28.348
3.5147	28.2363
3.5123	28.1162
3.5099	27.994
3.5075	27.8782
3.5052	27.7761
3.5028	27.6977
3.5004	27.6492
3.4981	27.6248
3.4957	27.6101
3.4934	27.5921
3.491	27.5637
3.4887	27.5192
3.4863	27.455
3.484	27.379
3.4816	27.3037
3.4793	27.2312
3.477	27.1587
3.4746	27.0879
3.4723	27.0176
3.47	26.9425
3.4677	26.8589
3.4653	26.7699
3.463	26.6785
3.4607	26.5859
3.4584	26.4968
3.4561	26.4175
3.4538	26.3467
3.4515	26.2794
3.4492	26.2157
3.4469	26.1565
3.4446	26.1009
3.4423	26.0512
3.44	26.01
3.4378	25.9725
3.4355	25.9304
3.4332	25.8766
3.4309	25.8084
3.4287	25.7248
3.4264	25.6273
3.4241	25.5209
3.4219	25.4103
3.4196	25.2971
3.4174	25.187
3.4151	25.0876
3.4129	25.0014
3.4106	24.9298
3.4084	24.8754
3.4061	24.8368
3.4039	24.8098
3.4017	24.7885
3.3994	24.766
3.3972	24.7371
3.395	24.6942
3.3928	24.6345
3.3906	24.5635
3.3883	24.4827
3.3861	24.3977
3.3839	24.3144
3.3817	24.2336
3.3795	24.1592
3.3773	24.0946
3.3751	24.0413
3.3729	24.0039
3.3707	23.9804
3.3685	23.9705
3.3663	23.9722
3.3641	23.9793
3.362	23.9873
3.3598	23.9937
3.3576	23.9954
3.3554	23.9951
3.3533	23.992
3.3511	23.9866
3.3489	23.9821
3.3468	23.9771
3.3446	23.9665
3.3425	23.9485
3.3403	23.9236
3.3382	23.8945
3.336	23.8587
3.3339	23.8151
3.3317	23.7661
3.3296	23.7091
3.3274	23.6387
3.3253	23.5565
3.3232	23.4684
3.321	23.378
3.3189	23.288
3.3168	23.2032
3.3147	23.1232
3.3126	23.0455
3.3104	22.9681
3.3083	22.8951
3.3062	22.8281
3.3041	22.7651
3.302	22.7068
3.2999	22.6517
3.2978	22.5927
3.2957	22.5271
3.2936	22.4565
3.2915	22.3867
3.2894	22.3187
3.2874	22.2519
3.2853	22.1863
3.2832	22.1198
3.2811	22.0492
3.279	21.9763
3.277	21.9038
3.2749	21.8335
3.2728	21.7655
3.2708	21.6978
3.2687	21.6293
3.2666	21.5597
3.2646	21.4877
3.2625	21.4176
3.2605	21.3518
3.2584	21.2888
3.2564	21.227
3.2543	21.1649
3.2523	21.1015
3.2503	21.0366
3.2482	20.9707
3.2462	20.9059
3.2442	20.8431
3.2421	20.7806
