Name:  Murray
Type:  Stony Meteorites
Class:  Carbonaceous Chondrite
Subclass:  CM2
Particle Size:  0-75 micrometers
Sample No.:  Murray
Owner:  JHU
Wavelength range:  IR
Origin:  Meteorite seen to fall in Kentucky in 1950.  Arizona State University 
sample No. 635.2 obtained via Tom Jones.
Description:  None.





Measurement:  Bidirectional reflectance
First Column:  X
Second Column:  Y
X Units:  Wavelength (micrometers)
Y Units:  Reflectance (percent)
First X Value:  25.044
Last X Value:  2.0795
Number of X Values:  2286
Additional information:  None

25.044	0.48580
24.924	0.51830
24.805	0.54910
24.686	0.57350
24.569	0.59010
24.454	0.59940
24.339	0.60230
24.225	0.60080
24.112	0.59570
24.001	0.58810
23.890	0.57930
23.781	0.57030
23.672	0.56180
23.564	0.55350
23.458	0.54420
23.352	0.53200
23.247	0.51610
23.144	0.49660
23.041	0.47610
22.939	0.45900
22.838	0.44900
22.738	0.44820
22.638	0.45560
22.540	0.46700
22.442	0.47800
22.345	0.48390
22.250	0.48220
22.154	0.47390
22.060	0.46120
21.967	0.44730
21.874	0.43580
21.782	0.42800
21.691	0.42480
21.601	0.42500
21.511	0.42750
21.422	0.43020
21.334	0.43160
21.247	0.43070
21.160	0.42750
21.074	0.42290
20.988	0.41800
20.904	0.41380
20.820	0.41140
20.737	0.41040
20.654	0.41060
20.572	0.41140
20.491	0.41190
20.410	0.41280
20.330	0.41410
20.251	0.41670
20.172	0.42090
20.094	0.42700
20.016	0.43410
19.939	0.44140
19.863	0.44750
19.787	0.45170
19.712	0.45340
19.637	0.45240
19.563	0.44950
19.489	0.44560
19.416	0.44090
19.344	0.43630
19.272	0.43160
19.201	0.42630
19.130	0.41970
19.059	0.41160
18.990	0.40210
18.920	0.39180
18.851	0.38180
18.783	0.37260
18.715	0.36470
18.648	0.35910
18.581	0.35570
18.515	0.35450
18.449	0.35500
18.384	0.35740
18.319	0.36080
18.254	0.36430
18.190	0.36670
18.126	0.36690
18.063	0.36450
18.001	0.35890
17.938	0.35110
17.876	0.34280
17.815	0.33540
17.754	0.33030
17.693	0.32810
17.633	0.32890
17.573	0.33130
17.514	0.33500
17.455	0.33910
17.396	0.34280
17.338	0.34590
17.280	0.34810
17.223	0.34910
17.166	0.34890
17.109	0.34790
17.053	0.34640
16.997	0.34500
16.942	0.34420
16.886	0.34450
16.832	0.34520
16.777	0.34620
16.723	0.34640
16.669	0.34550
16.616	0.34300
16.563	0.33980
16.510	0.33670
16.458	0.33420
16.406	0.33300
16.354	0.33250
16.302	0.33300
16.251	0.33300
16.200	0.33250
16.150	0.33060
16.100	0.32710
16.050	0.32280
16.000	0.31760
15.951	0.31230
15.902	0.30740
15.854	0.30350
15.805	0.30030
15.757	0.29810
15.710	0.29660
15.662	0.29520
15.615	0.29350
15.568	0.29170
15.521	0.28960
15.475	0.28740
15.429	0.28490
15.383	0.28270
15.338	0.28050
15.292	0.27880
15.248	0.27710
15.203	0.27560
15.158	0.27490
15.114	0.27470
15.070	0.27560
15.027	0.27760
14.983	0.28030
14.940	0.28320
14.897	0.28590
14.854	0.28810
14.812	0.28960
14.770	0.29080
14.728	0.29220
14.686	0.29420
14.645	0.29710
14.603	0.30100
14.562	0.30590
14.521	0.31150
14.481	0.31790
14.441	0.32500
14.400	0.33280
14.361	0.34130
14.321	0.35030
14.281	0.35940
14.242	0.36820
14.203	0.37650
14.164	0.38380
14.126	0.39040
14.087	0.39620
14.049	0.40190
14.011	0.40700
13.973	0.41140
13.936	0.41530
13.899	0.41870
13.861	0.42160
13.824	0.42410
13.788	0.42680
13.751	0.42940
13.715	0.43290
13.679	0.43700
13.643	0.44210
13.607	0.44870
13.571	0.45680
13.536	0.46580
13.500	0.47580
13.465	0.48660
13.430	0.49710
13.396	0.50760
13.361	0.51810
13.327	0.52860
13.293	0.54000
13.259	0.55220
13.225	0.56540
13.191	0.57930
13.158	0.59350
13.124	0.60770
13.091	0.62130
13.058	0.63430
13.026	0.64700
12.993	0.65890
12.960	0.67020
12.928	0.68140
12.896	0.69190
12.864	0.70240
12.832	0.71290
12.800	0.72360
12.769	0.73440
12.737	0.74540
12.706	0.75610
12.675	0.76640
12.644	0.77590
12.614	0.78470
12.583	0.79250
12.552	0.79980
12.522	0.80660
12.492	0.81300
12.462	0.81880
12.432	0.82420
12.402	0.82910
12.373	0.83350
12.343	0.83690
12.314	0.83960
12.285	0.84110
12.256	0.84110
12.227	0.83980
12.198	0.83720
12.169	0.83280
12.141	0.82670
12.113	0.81860
12.084	0.80830
12.056	0.79590
12.028	0.78100
12.000	0.76440
11.973	0.74660
11.945	0.72900
11.918	0.71290
11.890	0.69990
11.863	0.69090
11.836	0.68600
11.809	0.68460
11.782	0.68580
11.755	0.68770
11.729	0.68850
11.702	0.68730
11.676	0.68330
11.650	0.67720
11.624	0.66940
11.598	0.66160
11.572	0.65480
11.546	0.65010
11.520	0.64750
11.495	0.64650
11.469	0.64650
11.444	0.64650
11.419	0.64600
11.394	0.64400
11.369	0.64090
11.344	0.63620
11.319	0.63090
11.294	0.62480
11.270	0.61840
11.245	0.61250
11.221	0.60720
11.197	0.60200
11.173	0.59690
11.149	0.59160
11.125	0.58520
11.101	0.57810
11.077	0.57030
11.054	0.56250
11.030	0.55490
11.007	0.54860
10.983	0.54350
10.960	0.53950
10.937	0.53640
10.914	0.53370
10.891	0.53080
10.868	0.52760
10.846	0.52390
10.823	0.51980
10.800	0.51560
10.778	0.51120
10.755	0.50680
10.733	0.50220
10.711	0.49730
10.689	0.49220
10.667	0.48630
10.645	0.48020
10.623	0.47390
10.602	0.46730
10.580	0.46070
10.558	0.45410
10.537	0.44730
10.516	0.44040
10.494	0.43360
10.473	0.42650
10.452	0.41920
10.431	0.41210
10.410	0.40530
10.389	0.39840
10.368	0.39210
10.348	0.38600
10.327	0.38060
10.306	0.37570
10.286	0.37130
10.266	0.36720
10.245	0.36300
10.225	0.35840
10.205	0.35350
10.185	0.34790
10.165	0.34230
10.145	0.33640
10.125	0.33110
10.106	0.32670
10.086	0.32320
10.066	0.32060
10.047	0.31910
10.027	0.31790
10.008	0.31710
9.9887	0.31640
9.9695	0.31520
9.9504	0.31370
9.9313	0.31180
9.9123	0.30960
9.8934	0.30660
9.8746	0.30300
9.8558	0.29910
9.8371	0.29470
9.8185	0.28980
9.7999	0.28490
9.7814	0.28000
9.7630	0.27540
9.7447	0.27150
9.7264	0.26860
9.7082	0.26610
9.6900	0.26490
9.6719	0.26420
9.6539	0.26440
9.6360	0.26540
9.6181	0.26680
9.6003	0.26880
9.5825	0.27100
9.5649	0.27370
9.5472	0.27610
9.5297	0.27860
9.5122	0.28080
9.4948	0.28300
9.4774	0.28490
9.4601	0.28710
9.4429	0.28910
9.4257	0.29130
9.4086	0.29350
9.3916	0.29590
9.3746	0.29830
9.3577	0.30050
9.3408	0.30270
9.3240	0.30420
9.3073	0.30520
9.2906	0.30540
9.2740	0.30520
9.2574	0.30420
9.2409	0.30270
9.2245	0.30130
9.2081	0.30030
9.1918	0.29960
9.1755	0.29960
9.1593	0.30080
9.1431	0.30320
9.1270	0.30640
9.1110	0.31030
9.0950	0.31470
9.0791	0.31910
9.0632	0.32320
9.0474	0.32670
9.0316	0.32930
9.0159	0.33130
9.0003	0.33300
8.9847	0.33400
8.9691	0.33470
8.9536	0.33500
8.9382	0.33520
8.9228	0.33540
8.9075	0.33590
8.8922	0.33640
8.8770	0.33720
8.8618	0.33840
8.8467	0.34010
8.8316	0.34130
8.8166	0.34250
8.8016	0.34280
8.7867	0.34200
8.7718	0.34060
8.7570	0.33910
8.7422	0.33790
8.7275	0.33810
8.7129	0.33980
8.6982	0.34350
8.6837	0.34860
8.6692	0.35470
8.6547	0.36110
8.6403	0.36720
8.6259	0.37280
8.6116	0.37770
8.5973	0.38210
8.5830	0.38570
8.5688	0.38960
8.5547	0.39360
8.5406	0.39770
8.5266	0.40280
8.5126	0.40840
8.4986	0.41500
8.4847	0.42210
8.4708	0.42970
8.4570	0.43770
8.4432	0.44580
8.4295	0.45410
8.4158	0.46260
8.4022	0.47170
8.3886	0.48120
8.3750	0.49150
8.3615	0.50200
8.3481	0.51320
8.3347	0.52470
8.3213	0.53690
8.3079	0.54910
8.2946	0.56230
8.2814	0.57570
8.2682	0.58980
8.2550	0.60420
8.2419	0.61910
8.2288	0.63400
8.2158	0.64940
8.2028	0.66450
8.1898	0.68040
8.1769	0.69630
8.1640	0.71260
8.1512	0.72900
8.1384	0.74540
8.1256	0.76170
8.1129	0.77780
8.1002	0.79350
8.0876	0.80910
8.0750	0.82450
8.0624	0.83980
8.0499	0.85500
8.0374	0.87010
8.0250	0.88450
8.0126	0.89840
8.0002	0.91160
7.9879	0.92380
7.9756	0.93550
7.9634	0.94630
7.9512	0.95700
7.9390	0.96750
7.9268	0.97780
7.9147	0.98780
7.9027	0.99780
7.8906	1.0073
7.8786	1.0164
7.8667	1.0251
7.8548	1.0334
7.8429	1.0415
7.8310	1.0491
7.8192	1.0566
7.8075	1.0642
7.7957	1.0718
7.7840	1.0791
7.7723	1.0864
7.7607	1.0933
7.7491	1.0996
7.7375	1.1052
7.7260	1.1103
7.7145	1.1145
7.7031	1.1182
7.6916	1.1213
7.6802	1.1243
7.6689	1.1270
7.6575	1.1296
7.6462	1.1321
7.6350	1.1345
7.6238	1.1370
7.6126	1.1394
7.6014	1.1416
7.5903	1.1436
7.5792	1.1457
7.5681	1.1482
7.5571	1.1506
7.5461	1.1531
7.5351	1.1560
7.5242	1.1587
7.5133	1.1614
7.5024	1.1638
7.4916	1.1660
7.4807	1.1680
7.4700	1.1694
7.4592	1.1709
7.4485	1.1724
7.4378	1.1738
7.4272	1.1753
7.4165	1.1772
7.4059	1.1790
7.3954	1.1807
7.3848	1.1824
7.3743	1.1838
7.3639	1.1851
7.3534	1.1858
7.3430	1.1863
7.3326	1.1865
7.3223	1.1860
7.3119	1.1855
7.3016	1.1848
7.2914	1.1838
7.2811	1.1824
7.2709	1.1809
7.2607	1.1792
7.2506	1.1772
7.2404	1.1750
7.2303	1.1728
7.2203	1.1704
7.2102	1.1682
7.2002	1.1660
7.1902	1.1643
7.1803	1.1628
7.1703	1.1619
7.1604	1.1609
7.1506	1.1602
7.1407	1.1597
7.1309	1.1589
7.1211	1.1584
7.1113	1.1580
7.1016	1.1577
7.0919	1.1577
7.0822	1.1577
7.0725	1.1580
7.0629	1.1580
7.0533	1.1577
7.0437	1.1572
7.0341	1.1570
7.0246	1.1565
7.0151	1.1567
7.0056	1.1572
6.9962	1.1584
6.9867	1.1602
6.9773	1.1619
6.9679	1.1636
6.9586	1.1653
6.9493	1.1665
6.9400	1.1675
6.9307	1.1687
6.9214	1.1707
6.9122	1.1733
6.9030	1.1772
6.8938	1.1819
6.8847	1.1873
6.8755	1.1926
6.8664	1.1975
6.8573	1.2019
6.8483	1.2058
6.8393	1.2097
6.8302	1.2144
6.8213	1.2197
6.8123	1.2263
6.8034	1.2336
6.7944	1.2417
6.7855	1.2498
6.7767	1.2578
6.7678	1.2651
6.7590	1.2720
6.7502	1.2783
6.7414	1.2844
6.7327	1.2903
6.7239	1.2959
6.7152	1.3010
6.7065	1.3059
6.6979	1.3105
6.6892	1.3147
6.6806	1.3188
6.6720	1.3230
6.6634	1.3271
6.6549	1.3308
6.6464	1.3340
6.6378	1.3367
6.6294	1.3384
6.6209	1.3394
6.6124	1.3401
6.6040	1.3411
6.5956	1.3423
6.5872	1.3435
6.5789	1.3442
6.5705	1.3445
6.5622	1.3437
6.5539	1.3423
6.5456	1.3403
6.5374	1.3386
6.5292	1.3376
6.5209	1.3374
6.5128	1.3374
6.5046	1.3374
6.4964	1.3364
6.4883	1.3340
6.4802	1.3298
6.4721	1.3245
6.4640	1.3191
6.4560	1.3142
6.4480	1.3105
6.4399	1.3081
6.4320	1.3061
6.4240	1.3040
6.4160	1.3005
6.4081	1.2957
6.4002	1.2895
6.3923	1.2822
6.3844	1.2749
6.3766	1.2678
6.3687	1.2615
6.3609	1.2556
6.3531	1.2502
6.3454	1.2446
6.3376	1.2390
6.3299	1.2332
6.3221	1.2275
6.3144	1.2224
6.3068	1.2180
6.2991	1.2146
6.2914	1.2119
6.2838	1.2100
6.2762	1.2085
6.2686	1.2075
6.2611	1.2070
6.2535	1.2063
6.2460	1.2058
6.2385	1.2053
6.2310	1.2048
6.2235	1.2046
6.2160	1.2043
6.2086	1.2043
6.2011	1.2046
6.1937	1.2046
6.1863	1.2048
6.1790	1.2043
6.1716	1.2039
6.1643	1.2034
6.1570	1.2029
6.1496	1.2029
6.1424	1.2036
6.1351	1.2051
6.1278	1.2073
6.1206	1.2100
6.1134	1.2129
6.1062	1.2161
6.0990	1.2200
6.0918	1.2244
6.0847	1.2297
6.0776	1.2361
6.0704	1.2432
6.0633	1.2505
6.0563	1.2573
6.0492	1.2629
6.0421	1.2676
6.0351	1.2712
6.0281	1.2744
6.0211	1.2778
6.0141	1.2820
6.0071	1.2874
6.0002	1.2939
5.9932	1.3010
5.9863	1.3086
5.9794	1.3164
5.9725	1.3247
5.9657	1.3335
5.9588	1.3433
5.9520	1.3538
5.9451	1.3650
5.9383	1.3767
5.9315	1.3884
5.9247	1.4004
5.9180	1.4123
5.9112	1.4243
5.9045	1.4360
5.8978	1.4473
5.8911	1.4578
5.8844	1.4668
5.8777	1.4744
5.8711	1.4807
5.8644	1.4861
5.8578	1.4915
5.8512	1.4973
5.8446	1.5039
5.8380	1.5110
5.8314	1.5183
5.8249	1.5254
5.8184	1.5320
5.8118	1.5381
5.8053	1.5437
5.7988	1.5496
5.7923	1.5557
5.7859	1.5623
5.7794	1.5688
5.7730	1.5749
5.7666	1.5806
5.7602	1.5847
5.7538	1.5879
5.7474	1.5901
5.7410	1.5920
5.7347	1.5937
5.7283	1.5959
5.7220	1.5981
5.7157	1.6006
5.7094	1.6030
5.7031	1.6050
5.6969	1.6069
5.6906	1.6086
5.6844	1.6106
5.6782	1.6128
5.6719	1.6150
5.6657	1.6174
5.6596	1.6196
5.6534	1.6216
5.6472	1.6230
5.6411	1.6238
5.6349	1.6240
5.6288	1.6238
5.6227	1.6238
5.6166	1.6240
5.6106	1.6248
5.6045	1.6257
5.5984	1.6267
5.5924	1.6279
5.5864	1.6289
5.5804	1.6301
5.5744	1.6316
5.5684	1.6335
5.5624	1.6360
5.5564	1.6394
5.5505	1.6436
5.5445	1.6482
5.5386	1.6528
5.5327	1.6570
5.5268	1.6602
5.5209	1.6626
5.5151	1.6638
5.5092	1.6645
5.5033	1.6650
5.4975	1.6658
5.4917	1.6665
5.4859	1.6677
5.4801	1.6692
5.4743	1.6704
5.4685	1.6711
5.4628	1.6719
5.4570	1.6721
5.4513	1.6726
5.4455	1.6733
5.4398	1.6748
5.4341	1.6768
5.4284	1.6792
5.4228	1.6814
5.4171	1.6831
5.4114	1.6846
5.4058	1.6853
5.4002	1.6855
5.3945	1.6858
5.3889	1.6860
5.3833	1.6870
5.3778	1.6882
5.3722	1.6902
5.3666	1.6921
5.3611	1.6943
5.3555	1.6963
5.3500	1.6977
5.3445	1.6990
5.3390	1.6995
5.3335	1.6997
5.3280	1.6997
5.3225	1.6999
5.3171	1.7004
5.3116	1.7009
5.3062	1.7017
5.3008	1.7026
5.2954	1.7036
5.2900	1.7043
5.2846	1.7053
5.2792	1.7058
5.2738	1.7063
5.2684	1.7063
5.2631	1.7065
5.2578	1.7065
5.2524	1.7065
5.2471	1.7065
5.2418	1.7070
5.2365	1.7075
5.2312	1.7080
5.2260	1.7085
5.2207	1.7087
5.2154	1.7087
5.2102	1.7085
5.2050	1.7082
5.1998	1.7078
5.1945	1.7075
5.1893	1.7075
5.1842	1.7078
5.1790	1.7082
5.1738	1.7090
5.1686	1.7097
5.1635	1.7102
5.1584	1.7104
5.1532	1.7104
5.1481	1.7104
5.1430	1.7102
5.1379	1.7100
5.1328	1.7100
5.1277	1.7104
5.1227	1.7114
5.1176	1.7126
5.1126	1.7141
5.1075	1.7161
5.1025	1.7175
5.0975	1.7192
5.0925	1.7205
5.0875	1.7214
5.0825	1.7224
5.0775	1.7229
5.0726	1.7236
5.0676	1.7246
5.0627	1.7258
5.0577	1.7273
5.0528	1.7292
5.0479	1.7310
5.0430	1.7329
5.0380	1.7344
5.0332	1.7356
5.0283	1.7366
5.0234	1.7373
5.0185	1.7378
5.0137	1.7383
5.0088	1.7385
5.0040	1.7390
4.9992	1.7395
4.9944	1.7405
4.9896	1.7415
4.9848	1.7427
4.9800	1.7436
4.9752	1.7449
4.9704	1.7456
4.9657	1.7458
4.9609	1.7458
4.9562	1.7458
4.9514	1.7456
4.9467	1.7454
4.9420	1.7454
4.9373	1.7456
4.9326	1.7458
4.9279	1.7463
4.9232	1.7468
4.9186	1.7473
4.9139	1.7476
4.9092	1.7478
4.9046	1.7480
4.9000	1.7483
4.8953	1.7488
4.8907	1.7490
4.8861	1.7495
4.8815	1.7502
4.8769	1.7510
4.8723	1.7515
4.8678	1.7524
4.8632	1.7532
4.8586	1.7539
4.8541	1.7544
4.8495	1.7551
4.8450	1.7554
4.8405	1.7556
4.8360	1.7554
4.8315	1.7554
4.8270	1.7551
4.8225	1.7554
4.8180	1.7559
4.8135	1.7568
4.8090	1.7578
4.8046	1.7590
4.8001	1.7602
4.7957	1.7610
4.7913	1.7615
4.7868	1.7615
4.7824	1.7610
4.7780	1.7605
4.7736	1.7600
4.7692	1.7595
4.7648	1.7595
4.7605	1.7598
4.7561	1.7602
4.7517	1.7607
4.7474	1.7610
4.7431	1.7610
4.7387	1.7605
4.7344	1.7600
4.7301	1.7590
4.7258	1.7583
4.7215	1.7578
4.7172	1.7576
4.7129	1.7578
4.7086	1.7583
4.7043	1.7590
4.7000	1.7598
4.6958	1.7605
4.6915	1.7610
4.6873	1.7612
4.6831	1.7612
4.6788	1.7612
4.6746	1.7612
4.6704	1.7612
4.6662	1.7612
4.6620	1.7615
4.6578	1.7620
4.6536	1.7622
4.6495	1.7624
4.6453	1.7629
4.6411	1.7632
4.6370	1.7632
4.6328	1.7632
4.6287	1.7629
4.6246	1.7629
4.6205	1.7629
4.6163	1.7632
4.6122	1.7639
4.6081	1.7651
4.6040	1.7661
4.6000	1.7671
4.5959	1.7676
4.5918	1.7678
4.5877	1.7676
4.5837	1.7668
4.5796	1.7661
4.5756	1.7654
4.5716	1.7646
4.5675	1.7639
4.5635	1.7634
4.5595	1.7634
4.5555	1.7634
4.5515	1.7637
4.5475	1.7644
4.5435	1.7651
4.5395	1.7659
4.5356	1.7666
4.5316	1.7671
4.5276	1.7673
4.5237	1.7671
4.5197	1.7664
4.5158	1.7656
4.5119	1.7646
4.5080	1.7639
4.5040	1.7634
4.5001	1.7634
4.4962	1.7637
4.4923	1.7642
4.4884	1.7649
4.4846	1.7651
4.4807	1.7654
4.4768	1.7654
4.4730	1.7649
4.4691	1.7646
4.4652	1.7639
4.4614	1.7634
4.4576	1.7627
4.4537	1.7622
4.4499	1.7617
4.4461	1.7617
4.4423	1.7617
4.4385	1.7617
4.4347	1.7622
4.4309	1.7627
4.4271	1.7632
4.4233	1.7637
4.4196	1.7642
4.4158	1.7642
4.4120	1.7642
4.4083	1.7642
4.4045	1.7639
4.4008	1.7637
4.3971	1.7637
4.3934	1.7637
4.3896	1.7637
4.3859	1.7639
4.3822	1.7642
4.3785	1.7644
4.3748	1.7646
4.3711	1.7646
4.3674	1.7642
4.3638	1.7637
4.3601	1.7629
4.3564	1.7622
4.3528	1.7612
4.3491	1.7607
4.3455	1.7605
4.3418	1.7602
4.3382	1.7602
4.3346	1.7602
4.3310	1.7605
4.3273	1.7605
4.3237	1.7602
4.3201	1.7600
4.3165	1.7600
4.3129	1.7598
4.3094	1.7595
4.3058	1.7593
4.3022	1.7590
4.2986	1.7590
4.2951	1.7590
4.2915	1.7590
4.2880	1.7590
4.2844	1.7588
4.2809	1.7585
4.2774	1.7581
4.2738	1.7573
4.2703	1.7566
4.2668	1.7559
4.2633	1.7554
4.2598	1.7551
4.2563	1.7551
4.2528	1.7554
4.2493	1.7556
4.2458	1.7559
4.2424	1.7559
4.2389	1.7556
4.2354	1.7551
4.2320	1.7544
4.2285	1.7532
4.2251	1.7522
4.2216	1.7512
4.2182	1.7505
4.2148	1.7500
4.2113	1.7495
4.2079	1.7490
4.2045	1.7488
4.2011	1.7480
4.1977	1.7476
4.1943	1.7466
4.1909	1.7456
4.1875	1.7449
4.1841	1.7439
4.1808	1.7429
4.1774	1.7422
4.1740	1.7417
4.1707	1.7410
4.1673	1.7407
4.1640	1.7402
4.1606	1.7397
4.1573	1.7395
4.1540	1.7388
4.1506	1.7380
4.1473	1.7375
4.1440	1.7368
4.1407	1.7363
4.1374	1.7356
4.1341	1.7351
4.1308	1.7346
4.1275	1.7339
4.1242	1.7329
4.1209	1.7319
4.1177	1.7310
4.1144	1.7300
4.1111	1.7292
4.1079	1.7285
4.1046	1.7283
4.1014	1.7280
4.0981	1.7280
4.0949	1.7280
4.0917	1.7280
4.0884	1.7275
4.0852	1.7268
4.0820	1.7258
4.0788	1.7251
4.0756	1.7241
4.0724	1.7236
4.0692	1.7234
4.0660	1.7231
4.0628	1.7231
4.0596	1.7231
4.0565	1.7227
4.0533	1.7219
4.0501	1.7209
4.0470	1.7197
4.0438	1.7183
4.0406	1.7170
4.0375	1.7156
4.0344	1.7144
4.0312	1.7134
4.0281	1.7124
4.0250	1.7119
4.0218	1.7114
4.0187	1.7107
4.0156	1.7102
4.0125	1.7095
4.0094	1.7082
4.0063	1.7070
4.0032	1.7056
4.0001	1.7039
3.9970	1.7021
3.9940	1.7002
3.9909	1.6985
3.9878	1.6970
3.9847	1.6956
3.9817	1.6943
3.9786	1.6934
3.9756	1.6926
3.9725	1.6919
3.9695	1.6914
3.9665	1.6912
3.9634	1.6912
3.9604	1.6914
3.9574	1.6916
3.9544	1.6919
3.9513	1.6921
3.9483	1.6924
3.9453	1.6924
3.9423	1.6924
3.9393	1.6924
3.9363	1.6924
3.9333	1.6921
3.9304	1.6919
3.9274	1.6916
3.9244	1.6914
3.9214	1.6909
3.9185	1.6907
3.9155	1.6902
3.9126	1.6899
3.9096	1.6892
3.9067	1.6885
3.9037	1.6875
3.9008	1.6863
3.8979	1.6848
3.8949	1.6833
3.8920	1.6821
3.8891	1.6809
3.8862	1.6802
3.8833	1.6794
3.8804	1.6790
3.8775	1.6785
3.8746	1.6777
3.8717	1.6765
3.8688	1.6753
3.8659	1.6741
3.8630	1.6726
3.8601	1.6714
3.8573	1.6702
3.8544	1.6692
3.8515	1.6682
3.8487	1.6672
3.8458	1.6665
3.8430	1.6655
3.8401	1.6648
3.8373	1.6643
3.8344	1.6636
3.8316	1.6631
3.8288	1.6623
3.8259	1.6614
3.8231	1.6602
3.8203	1.6587
3.8175	1.6575
3.8147	1.6562
3.8119	1.6553
3.8091	1.6550
3.8063	1.6550
3.8035	1.6553
3.8007	1.6553
3.7979	1.6553
3.7951	1.6545
3.7924	1.6536
3.7896	1.6521
3.7868	1.6504
3.7841	1.6487
3.7813	1.6470
3.7785	1.6455
3.7758	1.6440
3.7730	1.6431
3.7703	1.6421
3.7676	1.6411
3.7648	1.6399
3.7621	1.6389
3.7594	1.6377
3.7566	1.6365
3.7539	1.6352
3.7512	1.6338
3.7485	1.6321
3.7458	1.6304
3.7431	1.6287
3.7404	1.6269
3.7377	1.6252
3.7350	1.6238
3.7323	1.6226
3.7296	1.6216
3.7269	1.6208
3.7242	1.6201
3.7216	1.6194
3.7189	1.6186
3.7162	1.6179
3.7136	1.6167
3.7109	1.6152
3.7083	1.6138
3.7056	1.6121
3.7030	1.6101
3.7003	1.6082
3.6977	1.6062
3.6950	1.6045
3.6924	1.6028
3.6898	1.6011
3.6872	1.5994
3.6845	1.5979
3.6819	1.5962
3.6793	1.5947
3.6767	1.5933
3.6741	1.5918
3.6715	1.5903
3.6689	1.5889
3.6663	1.5874
3.6637	1.5859
3.6611	1.5847
3.6585	1.5835
3.6560	1.5823
3.6534	1.5815
3.6508	1.5808
3.6482	1.5798
3.6457	1.5791
3.6431	1.5779
3.6406	1.5767
3.6380	1.5749
3.6355	1.5735
3.6329	1.5718
3.6304	1.5701
3.6278	1.5684
3.6253	1.5664
3.6227	1.5647
3.6202	1.5630
3.6177	1.5613
3.6152	1.5596
3.6127	1.5579
3.6101	1.5566
3.6076	1.5554
3.6051	1.5542
3.6026	1.5532
3.6001	1.5522
3.5976	1.5513
3.5951	1.5505
3.5926	1.5493
3.5901	1.5481
3.5876	1.5464
3.5852	1.5444
3.5827	1.5422
3.5802	1.5400
3.5777	1.5381
3.5753	1.5364
3.5728	1.5347
3.5704	1.5332
3.5679	1.5317
3.5654	1.5300
3.5630	1.5283
3.5605	1.5266
3.5581	1.5249
3.5557	1.5232
3.5532	1.5217
3.5508	1.5205
3.5484	1.5195
3.5459	1.5183
3.5435	1.5168
3.5411	1.5154
3.5387	1.5134
3.5363	1.5112
3.5338	1.5088
3.5314	1.5059
3.5290	1.5029
3.5266	1.4998
