Name: Riebeckite Na_2(Fe^2+,Mg)_3,Fe_2^3+Si_8O_22(OH)_2
Type: Mineral
Class: Silicates
Subclass: Inosilicates
Particle Size: 0-45um
Sample No.: IN-7A
Owner: JPL
Wavelength range: IR
Origin: Canada, Ontario
Collected by Ward's
Description: 





Measurement: Hemispherical reflectance
First Column: X
Second Column: Y
X Units:  Wavelength (micrometers)
Y Units:  Reflectance (percent)
First X Value: 15.3853
Last X Value: 2.00032
Number of X Values: 2256
Additional information: in07aa.txt
 
15.3853	2.1744
15.3397	2.35914
15.2945	2.37122
15.2495	2.32528
15.2048	2.19305
15.1603	2.09992
15.1161	1.96472
15.0722	1.8139
15.0285	1.9091
14.9851	2.21326
14.9419	2.10829
14.8989	2.06768
14.8563	2.10843
14.8138	2.04333
14.7716	2.27103
14.7296	2.43075
14.6879	2.31199
14.6464	2.10901
14.6052	2.13574
14.5641	2.27952
14.5233	2.39224
14.4828	2.63082
14.4424	2.66442
14.4023	2.82202
14.3624	2.79852
14.3227	2.82101
14.2833	3.01095
14.244	3.21162
14.205	3.00274
14.1662	2.84426
14.1276	3.0463
14.0892	3.21935
14.051	3.35541
14.0131	3.51762
13.9753	3.55834
13.9377	3.4384
13.9004	3.37055
13.8632	3.41901
13.8262	3.62108
13.7895	3.62742
13.7529	3.46221
13.7165	3.35059
13.6803	3.53667
13.6443	3.71559
13.6085	3.58842
13.5729	3.39664
13.5374	3.39063
13.5022	3.49861
13.4671	3.49119
13.4322	3.26653
13.3975	3.21525
13.363	3.29096
13.3286	3.2955
13.2944	3.41336
13.2604	3.54643
13.2266	3.59367
13.193	3.4359
13.1595	3.34404
13.1262	3.69082
13.093	3.97021
13.06	4.09321
13.0272	4.29752
12.9946	4.75669
12.9621	5.1255
12.9298	5.12653
12.8976	5.24983
12.8656	5.2727
12.8337	5.29387
12.8021	5.34481
12.7705	5.39621
12.7391	5.65284
12.7079	5.86446
12.6769	5.79878
12.6459	5.76697
12.6152	5.91739
12.5845	5.89496
12.5541	5.92198
12.5238	6.12776
12.4936	6.39412
12.4635	6.48073
12.4337	6.4437
12.4039	6.46711
12.3743	6.54077
12.3448	6.63277
12.3155	6.74459
12.2863	6.90342
12.2573	7.09688
12.2284	7.09845
12.1996	6.98604
12.171	7.06222
12.1425	7.10543
12.1141	7.06638
12.0859	7.01911
12.0578	6.92558
12.0298	6.74504
12.0019	6.71315
11.9742	6.78249
11.9466	6.85452
11.9192	6.73613
11.8918	6.55551
11.8646	6.43817
11.8375	6.29233
11.8106	6.16634
11.7837	6.04213
11.757	5.95581
11.7304	5.93242
11.7039	5.8241
11.6776	5.76121
11.6513	5.63863
11.6252	5.47344
11.5992	5.49806
11.5733	5.52699
11.5475	5.34801
11.5219	5.32383
11.4963	5.31073
11.4709	5.20579
11.4455	5.10166
11.4203	5.11141
11.3952	5.08244
11.3702	5.0044
11.3454	5.01195
11.3206	4.99999
11.2959	5.00734
11.2714	5.10903
11.2469	5.15031
11.2226	5.0959
11.1983	5.14532
11.1742	5.13186
11.1502	5.04992
11.1263	5.1124
11.1024	5.14211
11.0787	5.16595
11.0551	5.21034
11.0316	5.28743
11.0081	5.25091
10.9848	5.28381
10.9616	5.35338
10.9385	5.36109
10.9154	5.35268
10.8925	5.32941
10.8697	5.34059
10.8469	5.36078
10.8243	5.25951
10.8017	5.27256
10.7793	5.3447
10.7569	5.46177
10.7346	5.48047
10.7125	5.56868
10.6904	5.65791
10.6684	5.7241
10.6465	5.91237
10.6247	6.04578
10.6029	6.13786
10.5813	6.35532
10.5597	6.55481
10.5383	6.5988
10.5169	6.57861
10.4956	6.57485
10.4744	6.7657
10.4533	7.08824
10.4323	7.36164
10.4113	7.59659
10.3904	7.80765
10.3697	8.03937
10.349	8.25054
10.3284	8.35714
10.3078	8.4913
10.2874	8.6107
10.267	8.69465
10.2467	8.78809
10.2265	8.83658
10.2064	8.8711
10.1863	8.91722
10.1663	8.97368
10.1464	8.9574
10.1266	8.894
10.1069	8.78082
10.0872	8.72057
10.0676	8.74401
10.0481	8.66434
10.0287	8.46822
10.0093	8.26957
9.99005	8.19048
9.97084	8.09471
9.95169	7.90436
9.93263	7.70528
9.91364	7.54097
9.89472	7.41813
9.87587	7.24898
9.8571	6.96242
9.83839	6.78255
9.81976	6.54831
9.80119	6.26031
9.78271	6.06472
9.76428	5.96416
9.74592	6.03972
9.72764	6.06494
9.70943	6.0467
9.69128	6.06478
9.6732	6.0401
9.65518	6.18683
9.63724	6.33367
9.61935	6.49492
9.60155	6.63494
9.5838	6.63243
9.56611	6.69266
9.5485	6.83105
9.53094	6.97131
9.51345	7.06545
9.49604	7.08788
9.47867	7.07666
9.46137	7.02797
9.44414	7.01219
9.42697	7.00003
9.40986	6.99343
9.39281	6.96548
9.37583	6.72552
9.35891	6.73753
9.34204	6.80326
9.32524	6.5604
9.3085	6.41851
9.29182	6.5286
9.27519	6.46953
9.25863	6.21396
9.24213	6.01142
9.22568	5.7866
9.2093	5.42569
9.19297	5.31087
9.17669	5.08008
9.16048	4.69892
9.14433	4.42722
9.12823	4.25559
9.11218	3.96426
9.0962	3.7431
9.08027	3.68174
9.06439	3.5195
9.04858	3.28172
9.03281	3.17498
9.0171	3.12781
9.00145	3.01845
8.98585	2.97193
8.9703	2.961
8.9548	3.13183
8.93937	3.29782
8.92398	3.39508
8.90865	3.59016
8.89337	3.78811
8.87814	4.01763
8.86296	4.36267
8.84784	4.64144
8.83277	4.80944
8.81774	5.02442
8.80277	5.18717
8.78786	5.30221
8.77298	5.28681
8.75816	5.20066
8.7434	5.17108
8.72868	4.91511
8.714	4.54397
8.69938	4.16088
8.68481	3.70824
8.67029	3.29329
8.65581	3.08284
8.64139	2.87823
8.62701	2.64002
8.61268	2.25921
8.5984	2.01675
8.58416	1.81081
8.56997	1.56117
8.55583	1.40584
8.54174	1.39232
8.52769	1.42895
8.51368	1.46274
8.49973	1.30401
8.48582	1.32498
8.47195	1.47976
8.45813	1.36622
8.44436	1.34947
8.43062	1.44942
8.41693	1.4666
8.4033	1.46902
8.3897	1.54676
8.37614	1.68029
8.36264	1.81494
8.34917	1.93478
8.33574	2.05219
8.32236	2.21992
8.30903	2.33313
8.29573	2.40869
8.28248	2.58159
8.26927	2.78841
8.2561	2.91749
8.24298	3.02037
8.2299	3.09723
8.21685	3.19982
8.20385	3.30105
8.19089	3.47325
8.17797	3.79504
8.16509	3.92871
8.15225	4.06526
8.13946	4.28713
8.1267	4.56045
8.11398	4.79894
8.10131	4.92429
8.08867	4.98378
8.07606	5.04895
8.0635	5.23449
8.05099	5.56691
8.0385	5.70549
8.02606	5.84019
8.01366	6.19167
8.00129	6.5524
7.98896	6.68578
7.97667	6.79613
7.96442	6.97723
7.9522	7.17736
7.94002	7.41261
7.92788	7.63323
7.91578	7.75433
7.90371	7.95785
7.89168	8.21901
7.87969	8.37772
7.86773	8.59802
7.85581	8.83697
7.84392	9.01074
7.83207	9.08886
7.82026	9.19227
7.80849	9.5078
7.79674	9.71869
7.78503	9.85572
7.77337	10.0098
7.76173	10.2081
7.75012	10.4244
7.73856	10.6257
7.72703	10.8048
7.71553	10.9419
7.70406	11.1452
7.69263	11.2612
7.68123	11.3967
7.66987	11.6064
7.65855	11.7601
7.64725	11.9156
7.63598	12.1131
7.62475	12.2619
7.61356	12.4589
7.60239	12.6296
7.59126	12.7995
7.58017	12.9541
7.5691	13.0666
7.55806	13.2597
7.54707	13.4555
7.5361	13.6472
7.52516	13.8849
7.51425	14.0393
7.50338	14.199
7.49253	14.4064
7.48172	14.6298
7.47094	14.8467
7.46019	14.9531
7.44947	14.9708
7.43879	15.1431
7.42813	15.3535
7.4175	15.5419
7.4069	15.7744
7.39634	15.9353
7.3858	16.0472
7.37529	16.1503
7.36482	16.2606
7.35437	16.5052
7.34396	16.7448
7.33357	16.8446
7.32321	16.8605
7.31288	16.9043
7.30258	16.9654
7.29231	17.1246
7.28207	17.4465
7.27185	17.6218
7.26167	17.6853
7.25152	17.8628
7.24139	17.8663
7.23129	17.894
7.22122	18.1112
7.21117	18.416
7.20116	18.5287
7.19117	18.5268
7.18121	18.7945
7.17128	19.1381
7.16137	19.2336
7.1515	19.3549
7.14164	19.375
7.13182	19.3351
7.12203	19.5804
7.11225	19.7006
7.10251	19.7298
7.0928	19.8678
7.08311	20.0472
7.07344	20.174
7.06381	20.2874
7.0542	20.6814
7.04461	21.0517
7.03506	20.7497
7.02552	20.7074
7.01601	20.7941
7.00653	20.8322
6.99708	21.0297
6.98765	21.1298
6.97824	21.1401
6.96886	21.4724
6.95951	21.8848
6.95018	21.5183
6.94087	21.3076
6.9316	21.3409
6.92234	21.4662
6.91311	21.6922
6.90391	21.8673
6.89473	21.775
6.88557	21.8049
6.87644	22.1043
6.86733	22.9455
6.85824	22.945
6.84918	22.318
6.84015	22.1696
6.83114	22.5632
6.82215	22.6791
6.81319	22.5252
6.80424	22.7982
6.79532	23.508
6.78643	23.8424
6.77756	23.6242
6.76871	23.5124
6.75989	23.5133
6.75109	23.7126
6.74231	23.8811
6.73355	24.1141
6.72482	24.4833
6.71611	24.9056
6.70742	25.0294
6.69875	24.8025
6.69011	25.1438
6.68149	25.7496
6.67289	25.7306
6.66431	25.5438
6.65576	25.5424
6.64722	26.3897
6.63871	27.6848
6.63022	27.3852
6.62175	26.5944
6.61331	26.4544
6.60488	26.4725
6.59648	26.7821
6.5881	26.9897
6.57974	27.424
6.5714	27.7927
6.56308	27.1668
6.55478	26.9456
6.54651	26.6967
6.53825	26.473
6.53001	26.6215
6.5218	26.9272
6.51361	26.5041
6.50544	26.6109
6.49729	27.706
6.48915	27.7376
6.48104	26.8311
6.47295	26.24
6.46488	25.6684
6.45683	25.3902
6.4488	25.3119
6.44079	25.2969
6.4328	25.4436
6.42482	25.8182
6.41687	26.8789
6.40894	26.2788
6.40103	24.6634
6.39314	24.1488
6.38526	24.0302
6.37741	24.0859
6.36957	24.0649
6.36176	23.5262
6.35396	23.5043
6.34618	24.081
6.33843	23.5803
6.33069	22.8625
6.32297	22.7308
6.31527	22.5387
6.30758	22.3873
6.29992	22.2582
6.29227	22.1889
6.28465	22.1496
6.27704	22.1402
6.26945	22.0888
6.26188	21.9895
6.25432	21.8799
6.24679	21.8954
6.23927	21.9639
6.23177	21.9486
6.22429	22.0343
6.21683	22.1389
6.20938	22.0959
6.20195	22.087
6.19454	22.389
6.18715	23.0847
6.17978	22.9218
6.17242	22.5565
6.16508	22.8899
6.15776	23.0791
6.15045	22.9029
6.14317	22.9684
6.1359	23.0235
6.12864	23.0839
6.12141	23.6842
6.11419	24.4567
6.10699	24.2057
6.0998	23.8088
6.09263	23.8092
6.08549	24.0367
6.07835	24.7795
6.07123	25.1567
6.06413	24.7505
6.05705	25.4193
6.04998	27.0064
6.04293	26.0187
6.0359	24.7902
6.02888	24.7309
6.02187	24.9924
6.01489	25.308
6.00792	25.2233
6.00096	25.2265
5.99403	25.7112
5.98711	25.8561
5.9802	25.6058
5.97331	25.896
5.96644	26.0533
5.95958	25.582
5.95274	25.6461
5.94591	26.1291
5.9391	27.2659
5.9323	26.9746
5.92552	26.0487
5.91876	25.9493
5.91201	25.8702
5.90528	26.1404
5.89856	27.1785
5.89186	27.2251
5.88517	27.5953
5.8785	27.7124
5.87184	26.7441
5.8652	26.8001
5.85857	26.6881
5.85196	26.5417
5.84536	26.4975
5.83878	26.7141
5.83221	27.1912
5.82566	27.9236
5.81912	27.8981
5.81259	27.1319
5.80608	26.9486
5.79959	27.0175
5.79311	27.032
5.78665	27.1438
5.78019	27.3405
5.77376	27.9213
5.76734	28.8533
5.76093	28.2695
5.75453	27.6544
5.74815	27.9168
5.74179	27.8067
5.73543	27.727
5.7291	27.754
5.72277	28.0305
5.71646	28.3357
5.71017	28.539
5.70389	28.2474
5.69762	28.1822
5.69136	28.3978
5.68513	28.4326
5.6789	28.7002
5.67268	28.7868
5.66648	28.6535
5.6603	28.9261
5.65413	29.1886
5.64797	29.514
5.64182	29.9773
5.63569	29.5708
5.62957	29.2227
5.62347	29.2868
5.61737	29.4799
5.61129	29.5977
5.60522	29.7637
5.59917	29.768
5.59313	29.7302
5.5871	30.106
5.58109	30.6027
5.57509	30.5511
5.5691	30.3017
5.56312	30.4618
5.55716	30.6934
5.55121	30.8641
5.54528	30.9548
5.53935	31.1309
5.53344	31.3235
5.52754	31.6171
5.52166	31.873
5.51578	32.0261
5.50992	32.2157
5.50407	32.4648
5.49823	32.6344
5.49241	32.8515
5.4866	33.1472
5.4808	33.6756
5.47501	33.9303
5.46923	34.2629
5.46347	34.6047
5.45772	34.4846
5.45198	34.5398
5.44625	34.7957
5.44054	35.0186
5.43484	35.2405
5.42914	35.6931
5.42347	36.3193
5.4178	36.2524
5.41214	36.1408
5.4065	36.2928
5.40087	36.4391
5.39525	36.5692
5.38964	36.7349
5.38404	36.9609
5.37846	37.1223
5.37288	37.2489
5.36732	37.3185
5.36177	37.4549
5.35623	37.7424
5.35071	38.1058
5.34519	38.0315
5.33968	37.9014
5.33419	37.9067
5.32871	37.8783
5.32324	37.9009
5.31778	37.9397
5.31233	38.0518
5.30689	38.0955
5.30147	38.0774
5.29605	38.1833
5.29065	38.4027
5.28525	38.3499
5.27987	38.379
5.2745	38.4663
5.26914	38.4414
5.26379	38.4158
5.25845	38.5244
5.25312	38.6053
5.24781	38.6793
5.2425	38.6853
5.23721	38.7387
5.23192	38.755
5.22665	38.7511
5.22138	38.8626
5.21613	39.1188
5.21089	39.116
5.20566	38.9894
5.20044	39.0658
5.19522	39.0228
5.19002	38.9992
5.18483	38.9925
5.17965	38.999
5.17448	39.1009
5.16933	39.1372
5.16418	39.0777
5.15904	39.118
5.15391	39.2012
5.14879	39.2987
5.14368	39.2091
5.13859	39.1532
5.1335	39.1944
5.12842	39.2314
5.12335	39.2397
5.1183	39.2877
5.11325	39.3588
5.10821	39.4158
5.10318	39.4225
5.09817	39.4205
5.09316	39.5394
5.08816	39.6535
5.08317	39.728
5.07819	39.6865
5.07322	39.7091
5.06826	39.8337
5.06331	39.8938
5.05837	39.9777
5.05344	40.1153
5.04852	40.2032
5.04361	40.2995
5.03871	40.3388
5.03382	40.3656
5.02894	40.4972
5.02406	40.6817
5.0192	40.7909
5.01435	40.762
5.0095	40.8239
5.00467	41.0274
4.99984	41.185
4.99502	41.2539
4.99021	41.3385
4.98542	41.4803
4.98063	41.6352
4.97585	41.822
4.97108	41.9835
4.96632	42.057
4.96156	42.2275
4.95682	42.4148
4.95209	42.4993
4.94736	42.57
4.94264	42.6819
4.93794	42.8826
4.93324	43.1073
4.92855	43.2701
4.92387	43.4559
4.9192	43.6655
4.91453	43.8269
4.90988	44.0488
4.90524	44.2858
4.9006	44.4636
4.89597	44.6676
4.89135	44.8463
4.88674	45.0233
4.88214	45.2577
4.87755	45.4618
4.87296	45.6586
4.86839	45.8269
4.86382	46.068
4.85926	46.2984
4.85471	46.5155
4.85017	46.7349
4.84564	46.9197
4.84111	47.0812
4.8366	47.256
4.83209	47.4329
4.82759	47.6284
4.8231	47.8363
4.81862	48.0361
4.81415	48.185
4.80968	48.3612
4.80522	48.5168
4.80077	48.739
4.79633	48.9385
4.7919	49.1187
4.78747	49.3391
4.78306	49.5618
4.77865	49.7671
4.77425	49.9431
4.76986	50.0568
4.76547	50.28
4.7611	50.4859
4.75673	50.6163
4.75237	50.7732
4.74802	51.0096
4.74367	51.1914
4.73934	51.3828
4.73501	51.6467
4.73069	51.8287
4.72638	51.9648
4.72207	52.1466
4.71777	52.3234
4.71348	52.5246
4.7092	52.7539
4.70493	52.9373
4.70066	53.1321
4.69641	53.3134
4.69216	53.4767
4.68791	53.6581
4.68368	53.8689
4.67945	54.0891
4.67523	54.3033
4.67102	54.5294
4.66682	54.7464
4.66262	54.9407
4.65843	55.1353
4.65425	55.4262
4.65007	55.7061
4.64591	55.8873
4.64175	55.9941
4.6376	56.2092
4.63345	56.5527
4.62932	56.9125
4.62519	57.1378
4.62106	57.3183
4.61695	57.5617
4.61284	57.8432
4.60874	58.0966
4.60465	58.2837
4.60056	58.5014
4.59648	58.795
4.59241	59.0544
4.58835	59.2139
4.58429	59.3374
4.58024	59.5435
4.5762	59.8006
4.57216	60.0616
4.56814	60.2266
4.56411	60.3665
4.5601	60.5945
4.55609	60.8416
4.55209	61.0014
4.5481	61.1484
4.54411	61.3062
4.54013	61.4304
4.53616	61.595
4.5322	61.8392
4.52824	61.9434
4.52429	62.0203
4.52034	62.172
4.51641	62.29
4.51247	62.3527
4.50855	62.4577
4.50463	62.6453
4.50072	62.7452
4.49682	62.7799
4.49292	62.9533
4.48903	63.1209
4.48515	63.2309
4.48127	63.3048
4.4774	63.301
4.47354	63.3062
4.46968	63.4133
4.46584	63.5544
4.46199	63.6622
4.45815	63.6815
4.45432	63.7119
4.4505	63.7189
4.44668	63.7811
4.44287	63.9187
4.43907	64.0043
4.43527	64.0764
4.43148	64.1631
4.4277	64.1726
4.42392	64.2138
4.42015	64.2588
4.41638	64.3197
4.41262	64.3877
4.40887	64.3573
4.40513	64.3493
4.40139	64.3904
4.39765	64.4741
4.39393	64.5224
4.39021	64.5233
4.38649	64.5662
4.38278	64.6288
4.37908	64.7109
4.37539	64.791
4.3717	64.8405
4.36801	64.8159
4.36434	64.8522
4.36067	64.883
4.357	64.8446
4.35335	64.8874
4.34969	64.9633
4.34605	64.9771
4.34241	65.0191
4.33877	65.1369
4.33514	65.1877
4.33152	65.1566
4.32791	65.1765
4.3243	65.2425
4.32069	65.3135
4.3171	65.3308
4.31351	65.3953
4.30992	65.5503
4.30634	65.6631
4.30277	65.6878
4.2992	65.707
4.29564	65.6993
4.29208	65.7652
4.28853	65.8921
4.28499	65.9642
4.28145	66.0548
4.27792	66.0819
4.27439	66.0256
4.27087	66.0425
4.26735	66.0669
4.26384	66.0275
4.26034	65.8867
4.25684	65.8154
4.25335	65.926
4.24986	66.1247
4.24638	66.306
4.24291	66.4528
4.23944	66.4813
4.23598	66.545
4.23252	66.5855
4.22906	66.624
4.22562	66.6423
4.22218	66.571
4.21874	66.4934
4.21531	66.3925
4.21189	66.329
4.20847	66.2685
4.20506	66.2414
4.20165	66.2288
4.19825	66.2604
4.19485	66.3379
4.19146	66.35
4.18807	66.3361
4.18469	66.3313
4.18132	66.3762
4.17795	66.4441
4.17458	66.4514
4.17123	66.4585
4.16787	66.5346
4.16453	66.5349
4.16118	66.56
4.15785	66.6104
4.15451	66.6242
4.15119	66.6815
4.14787	66.6867
4.14455	66.674
4.14124	66.7481
4.13794	66.8055
4.13464	66.8118
4.13134	66.8002
4.12805	66.8598
4.12477	66.8861
4.12149	66.8997
4.11822	66.9087
4.11495	66.9185
4.11168	66.909
4.10843	66.946
4.10517	67.0343
4.10192	67.08
4.09868	67.0216
4.09545	67.0607
4.09221	67.122
4.08899	67.1397
4.08576	67.1399
4.08255	67.1633
4.07933	67.1587
4.07613	67.153
4.07292	67.1327
4.06973	67.1711
4.06654	67.2464
4.06335	67.2465
4.06017	67.1958
4.05699	67.2476
4.05382	67.2753
4.05065	67.261
4.04749	67.2903
4.04433	67.2902
4.04118	67.1628
4.03803	67.1097
4.03489	67.1407
4.03175	67.1649
4.02862	67.1108
4.02549	67.0188
4.02237	67.0055
4.01925	67.0124
4.01614	66.976
4.01303	66.9071
4.00993	66.8287
4.00683	66.8149
4.00373	66.7395
4.00064	66.6022
3.99756	66.5291
3.99448	66.4483
3.9914	66.4018
3.98833	66.3891
3.98527	66.3564
3.98221	66.2976
3.97915	66.2401
3.9761	66.2732
3.97305	66.3357
3.97001	66.2579
3.96697	66.2722
3.96394	66.4153
3.96091	66.5399
3.95789	66.6917
3.95487	66.8067
3.95186	66.845
3.94885	66.902
3.94584	67.0688
3.94284	67.2328
3.93984	67.3268
3.93685	67.4095
3.93386	67.488
3.93088	67.5173
3.9279	67.5516
3.92493	67.6177
3.92196	67.7063
3.919	67.71
3.91604	67.7346
3.91308	67.7527
3.91013	67.7901
3.90718	67.8182
3.90424	67.8896
3.9013	67.919
3.89837	67.9023
3.89544	67.9272
3.89252	67.9417
3.8896	67.9912
3.88668	68.0944
3.88377	68.1235
3.88086	68.1267
3.87796	68.2039
3.87506	68.252
3.87217	68.1731
3.86928	68.1331
3.86639	68.1866
3.86351	68.2394
3.86064	68.2646
3.85776	68.2874
3.8549	68.3144
3.85203	68.3487
3.84917	68.3296
3.84631	68.3233
3.84346	68.3318
3.84062	68.3338
3.83777	68.3259
3.83494	68.3194
3.8321	68.3797
3.82927	68.4064
3.82644	68.3712
3.82362	68.361
3.82081	68.4267
3.81799	68.4513
3.81518	68.4343
3.81238	68.4901
3.80958	68.5706
3.80678	68.6282
3.80399	68.6587
3.8012	68.6932
3.79841	68.7207
3.79563	68.7766
3.79286	68.8025
3.79008	68.8345
3.78731	68.8727
3.78455	68.9337
3.78179	68.9343
3.77903	68.8501
3.77628	68.8494
3.77353	68.8289
3.77079	68.8166
3.76805	68.8292
3.76531	68.8915
3.76258	68.9032
3.75985	68.9099
3.75713	69.0096
3.7544	68.9694
3.75169	68.9162
3.74898	68.9182
3.74627	68.9029
3.74356	68.8995
3.74086	68.9326
3.73816	68.9526
3.73547	68.9147
3.73278	68.8751
3.7301	68.894
3.72741	68.9002
3.72474	68.895
3.72206	68.8902
3.71939	68.8631
3.71673	68.817
3.71406	68.8118
3.71141	68.8454
3.70875	68.8615
3.7061	68.8051
3.70345	68.7843
3.70081	68.8145
3.69817	68.7976
3.69553	68.7698
3.6929	68.7724
3.69027	68.7537
3.68765	68.7453
3.68503	68.7541
3.68241	68.7338
3.6798	68.7118
3.67719	68.7047
3.67458	68.6603
3.67198	68.6554
3.66938	68.617
3.66678	68.5915
3.66419	68.6025
3.66161	68.7195
3.65902	68.7565
3.65644	68.6472
3.65387	68.6145
3.65129	68.5417
3.64872	68.4558
3.64616	68.4883
3.64359	68.5512
3.64103	68.6153
3.63848	68.5906
3.63593	68.5648
3.63338	68.5139
3.63084	68.4489
3.6283	68.3458
3.62576	68.3664
3.62322	68.4104
3.62069	68.4524
3.61817	68.4623
3.61564	68.4566
3.61312	68.4776
3.61061	68.4477
3.6081	68.348
3.60559	68.3059
3.60308	68.2465
3.60058	68.2102
3.59808	68.1925
3.59558	68.2257
3.59309	68.2472
3.59061	68.2283
3.58812	68.2014
3.58564	68.1861
3.58316	68.1159
3.58069	68.0384
3.57822	67.9933
3.57575	68.0038
3.57328	67.962
3.57082	67.9154
3.56836	67.9251
3.56591	67.9217
3.56346	67.8649
3.56101	67.8345
3.55857	67.7982
3.55613	67.7314
3.55369	67.6573
3.55126	67.6046
3.54883	67.6113
3.5464	67.5885
3.54397	67.508
3.54155	67.4427
3.53914	67.3527
3.53672	67.2464
3.53431	67.1776
3.5319	67.1241
3.5295	67.0007
3.5271	66.8725
3.5247	66.8023
3.52231	66.7388
3.51991	66.6234
3.51753	66.3574
3.51514	66.1846
3.51276	66.0546
3.51038	65.7989
3.50801	65.564
3.50563	65.3207
3.50327	65.2117
3.5009	65.1598
3.49854	65.152
3.49618	65.2472
3.49382	65.2635
3.49147	65.2296
3.48912	65.2579
3.48677	65.2622
3.48443	65.1726
3.48209	65.0772
3.47975	65.0768
3.47742	65.1312
3.47509	65.173
3.47276	65.1225
3.47044	65.1285
3.46812	65.1886
3.4658	65.2163
