Name: Gray Sandstone
Type: Rock
Class: Sedimentary
Subclass:  Sandstone 
Particle Size: Solid surface
Sample No.: Ward58.txt
Owner: JPL
Wavelength range:  VNIR SWIR IR 
Origin: Ward's Collection of American Rocks.  Sample locality - Berea, Cuyahoga County, Ohio.
Collected by:  Ward's Natural Science
Description: A light-gray, fine-grained sandstone showing fine parallel
bedding lines.
Geologic age - Mississippian.



Measurement: Hemispherical reflectance
First Column: X
Second Column: Y
X Units: Wavelength (micrometers)
Y Units: Reflectance (percent)
First X Value: 2.500
Last X Value: 0.400
Number of X Values: 2101
Additional information: None

2.500  40.815282
2.499  40.909200
2.498  40.842380
2.497  41.050332
2.496  40.810002
2.495  41.081831
2.494  40.943520
2.493  41.050734
2.492  40.827441
2.491  41.172750
2.490  41.178869
2.489  41.130991
2.488  41.025997
2.487  41.418944
2.486  41.349683
2.485  41.393795
2.484  41.535066
2.483  41.560520
2.482  41.433412
2.481  41.688334
2.480  41.818096
2.479  41.791424
2.478  41.811637
2.477  41.967137
2.476  41.901731
2.475  41.949642
2.474  42.053283
2.473  42.301479
2.472  42.087297
2.471  42.204053
2.470  42.139097
2.469  42.520134
2.468  42.335585
2.467  42.385168
2.466  42.371939
2.465  42.393179
2.464  42.398405
2.463  42.602548
2.462  42.530538
2.461  42.588651
2.460  42.525117
2.459  42.559510
2.458  42.640088
2.457  42.853581
2.456  42.675099
2.455  42.931080
2.454  42.835996
2.453  42.917164
2.452  42.860301
2.451  42.919284
2.450  42.919156
2.449  43.107794
2.448  43.054065
2.447  43.263053
2.446  43.321243
2.445  43.395234
2.444  43.318717
2.443  43.420472
2.442  43.474625
2.441  43.646531
2.440  43.617326
2.439  43.823984
2.438  43.872141
2.437  44.022842
2.436  44.076731
2.435  44.217443
2.434  44.235602
2.433  44.437512
2.432  44.467159
2.431  44.567989
2.430  44.700034
2.429  44.857296
2.428  44.937967
2.427  45.026659
2.426  45.116126
2.425  45.179939
2.424  45.214158
2.423  45.359293
2.422  45.473073
2.421  45.572659
2.420  45.601798
2.419  45.794053
2.418  45.785100
2.417  45.920556
2.416  45.949678
2.415  46.045860
2.414  46.059785
2.413  46.172375
2.412  46.269188
2.411  46.327010
2.410  46.324105
2.409  46.429836
2.408  46.401097
2.407  46.483441
2.406  46.499813
2.405  46.547271
2.404  46.471037
2.403  46.551071
2.402  46.484310
2.401  46.527641
2.400  46.498994
2.399  46.527186
2.398  46.466147
2.397  46.437113
2.396  46.406447
2.395  46.389987
2.394  46.325068
2.393  46.326150
2.392  46.318550
2.391  46.260389
2.390  46.139327
2.389  46.138739
2.388  46.126897
2.387  46.102163
2.386  46.055516
2.385  46.038651
2.384  45.970335
2.383  46.040671
2.382  46.060408
2.381  46.036055
2.380  46.007493
2.379  46.079531
2.378  46.044664
2.377  46.078240
2.376  46.149049
2.375  46.253589
2.374  46.280975
2.373  46.281417
2.372  46.361992
2.371  46.444813
2.370  46.501880
2.369  46.551637
2.368  46.532868
2.367  46.607289
2.366  46.660661
2.365  46.667912
2.364  46.701954
2.363  46.709377
2.362  46.695709
2.361  46.708074
2.360  46.736616
2.359  46.725489
2.358  46.694008
2.357  46.717554
2.356  46.734434
2.355  46.771991
2.354  46.820742
2.353  46.843653
2.352  46.917091
2.351  46.966745
2.350  47.012355
2.349  47.034003
2.348  47.019612
2.347  47.048777
2.346  47.108943
2.345  47.179338
2.344  47.226429
2.343  47.291406
2.342  47.393792
2.341  47.458287
2.340  47.531570
2.339  47.550700
2.338  47.633192
2.337  47.644443
2.336  47.688444
2.335  47.797750
2.334  47.827346
2.333  47.843124
2.332  47.855452
2.331  47.848198
2.330  47.920344
2.329  47.890950
2.328  47.926086
2.327  47.942352
2.326  47.991234
2.325  48.008984
2.324  48.096619
2.323  48.132998
2.322  48.114107
2.321  48.163494
2.320  48.257945
2.319  48.298294
2.318  48.332262
2.317  48.409164
2.316  48.534962
2.315  48.531328
2.314  48.626143
2.313  48.710489
2.312  48.798262
2.311  48.867021
2.310  48.986161
2.309  49.079413
2.308  49.159027
2.307  49.238709
2.306  49.352668
2.305  49.377195
2.304  49.490014
2.303  49.514462
2.302  49.672551
2.301  49.738172
2.300  49.859920
2.299  49.891286
2.298  49.952199
2.297  49.999814
2.296  50.023573
2.295  50.080968
2.294  50.132267
2.293  50.196393
2.292  50.330683
2.291  50.321082
2.290  50.367885
2.289  50.351900
2.288  50.433079
2.287  50.433702
2.286  50.616093
2.285  50.553837
2.284  50.631820
2.283  50.686621
2.282  50.680863
2.281  50.752931
2.280  50.780437
2.279  50.824610
2.278  50.821643
2.277  50.862750
2.276  50.946321
2.275  50.934897
2.274  51.106229
2.273  51.020943
2.272  51.058210
2.271  51.071602
2.270  51.219921
2.269  51.188305
2.268  51.185304
2.267  51.256861
2.266  51.262294
2.265  51.242974
2.264  51.274319
2.263  51.242731
2.262  51.283242
2.261  51.282432
2.260  51.311362
2.259  51.323155
2.258  51.453437
2.257  51.327924
2.256  51.389463
2.255  51.380405
2.254  51.387156
2.253  51.315550
2.252  51.391449
2.251  51.368946
2.250  51.507679
2.249  51.448208
2.248  51.439950
2.247  51.464759
2.246  51.431670
2.245  51.471653
2.244  51.551961
2.243  51.447039
2.242  51.482417
2.241  51.480258
2.240  51.546993
2.239  51.498989
2.238  51.584570
2.237  51.510543
2.236  51.516064
2.235  51.475957
2.234  51.549254
2.233  51.440039
2.232  51.418089
2.231  51.294000
2.230  51.343783
2.229  51.224060
2.228  51.139728
2.227  50.951027
2.226  50.994379
2.225  50.799612
2.224  50.639333
2.223  50.413434
2.222  50.276952
2.221  49.931069
2.220  49.772986
2.219  49.251781
2.218  48.843325
2.217  48.397231
2.216  48.031973
2.215  47.408244
2.214  47.008526
2.213  46.573839
2.212  46.365800
2.211  45.830641
2.210  45.550132
2.209  45.251038
2.208  45.269257
2.207  45.191582
2.206  45.170292
2.205  45.329568
2.204  45.625092
2.203  45.814370
2.202  46.219398
2.201  46.415613
2.200  46.836813
2.199  46.955309
2.198  47.404493
2.197  47.562909
2.196  47.840530
2.195  47.987171
2.194  48.206974
2.193  48.200398
2.192  48.478956
2.191  48.560641
2.190  48.834201
2.189  48.943054
2.188  49.119958
2.187  49.242265
2.186  49.404489
2.185  49.480163
2.184  49.725264
2.183  49.816327
2.182  49.929679
2.181  49.982741
2.180  50.105635
2.179  50.149990
2.178  50.157848
2.177  50.106607
2.176  50.119469
2.175  50.049927
2.174  50.068071
2.173  50.046916
2.172  50.085068
2.171  50.044098
2.170  50.041383
2.169  50.056655
2.168  49.994958
2.167  49.887620
2.166  49.983591
2.165  49.913540
2.164  50.004731
2.163  49.977253
2.162  50.160254
2.161  50.078779
2.160  50.204486
2.159  50.266418
2.158  50.411871
2.157  50.536235
2.156  50.692841
2.155  50.871518
2.154  51.035089
2.153  51.301061
2.152  51.486585
2.151  51.698553
2.150  51.927226
2.149  52.171117
2.148  52.415718
2.147  52.672079
2.146  52.927009
2.145  53.164066
2.144  53.491889
2.143  53.594090
2.142  53.884467
2.141  53.989129
2.140  54.190268
2.139  54.351261
2.138  54.594029
2.137  54.597964
2.136  54.684897
2.135  54.808393
2.134  54.835303
2.133  54.920904
2.132  54.956035
2.131  54.970545
2.130  55.076090
2.129  55.094274
2.128  55.096959
2.127  55.102979
2.126  55.045362
2.125  55.052253
2.124  55.172635
2.123  55.150049
2.122  55.121521
2.121  55.066030
2.120  55.130107
2.119  55.043295
2.118  55.096142
2.117  55.114600
2.116  55.055750
2.115  55.024391
2.114  55.044074
2.113  55.071579
2.112  55.087632
2.111  55.058367
2.110  55.105244
2.109  55.140705
2.108  55.146048
2.107  55.214269
2.106  55.172291
2.105  55.185071
2.104  55.216623
2.103  55.223283
2.102  55.253538
2.101  55.250109
2.100  55.237938
2.099  55.228350
2.098  55.241194
2.097  55.265990
2.096  55.321845
2.095  55.316917
2.094  55.372405
2.093  55.357373
2.092  55.352291
2.091  55.351968
2.090  55.355427
2.089  55.383709
2.088  55.427955
2.087  55.445923
2.086  55.463009
2.085  55.479722
2.084  55.508275
2.083  55.535436
2.082  55.614133
2.081  55.651341
2.080  55.701806
2.079  55.742362
2.078  55.699560
2.077  55.714088
2.076  55.733444
2.075  55.742794
2.074  55.794276
2.073  55.812480
2.072  55.770969
2.071  55.786491
2.070  55.893334
2.069  55.891040
2.068  55.869779
2.067  55.903908
2.066  55.927460
2.065  55.967064
2.064  55.960189
2.063  55.968674
2.062  55.996580
2.061  56.026307
2.060  55.982280
2.059  56.006894
2.058  56.010177
2.057  55.979898
2.056  55.984430
2.055  56.014364
2.054  56.004184
2.053  56.031246
2.052  56.071881
2.051  56.011831
2.050  55.961979
2.049  55.986550
2.048  56.019460
2.047  56.018747
2.046  56.019522
2.045  56.043077
2.044  55.987062
2.043  56.007331
2.042  55.984703
2.041  55.948863
2.040  55.975363
2.039  56.038315
2.038  56.008337
2.037  56.008636
2.036  55.948459
2.035  55.936830
2.034  55.974415
2.033  55.973188
2.032  55.870406
2.031  55.867360
2.030  55.924697
2.029  55.957353
2.028  55.920258
2.027  55.870303
2.026  55.831452
2.025  55.807889
2.024  55.813341
2.023  55.778303
2.022  55.712396
2.021  55.741567
2.020  55.725584
2.019  55.701696
2.018  55.687010
2.017  55.696576
2.016  55.626953
2.015  55.651416
2.014  55.628941
2.013  55.596440
2.012  55.558623
2.011  55.512619
2.010  55.433691
2.009  55.549900
2.008  55.494757
2.007  55.469907
2.006  55.446061
2.005  55.417704
2.004  55.332790
2.003  55.342126
2.002  55.300003
2.001  55.284771
2.000  55.283056
1.999  55.272131
1.998  55.191143
1.997  55.135273
1.996  55.089930
1.995  55.105249
1.994  55.132348
1.993  55.117517
1.992  54.988827
1.991  54.990050
1.990  54.954439
1.989  54.973551
1.988  54.900976
1.987  54.822780
1.986  54.785920
1.985  54.819998
1.984  54.726874
1.983  54.703691
1.982  54.593543
1.981  54.656458
1.980  54.550906
1.979  54.648374
1.978  54.494057
1.977  54.505359
1.976  54.399655
1.975  54.435665
1.974  54.365404
1.973  54.321479
1.972  54.302366
1.971  54.351158
1.970  54.278565
1.969  54.293638
1.968  54.153433
1.967  54.124407
1.966  54.123121
1.965  54.167005
1.964  54.057274
1.963  54.094464
1.962  53.988436
1.961  54.033870
1.960  53.875291
1.959  53.967377
1.958  53.903110
1.957  53.871931
1.956  53.839808
1.955  53.822933
1.954  53.772937
1.953  53.750163
1.952  53.790400
1.951  53.672447
1.950  53.692456
1.949  53.679653
1.948  53.574456
1.947  53.654068
1.946  53.631427
1.945  53.574982
1.944  53.504921
1.943  53.534339
1.942  53.516541
1.941  53.509328
1.940  53.405586
1.939  53.450883
1.938  53.392919
1.937  53.456853
1.936  53.419123
1.935  53.468098
1.934  53.343777
1.933  53.484394
1.932  53.395835
1.931  53.411340
1.930  53.307758
1.929  53.479801
1.928  53.331910
1.927  53.453699
1.926  53.285431
1.925  53.428837
1.924  53.208835
1.923  53.331089
1.922  53.396819
1.921  53.430912
1.920  53.415790
1.919  53.338857
1.918  53.391706
1.917  53.484455
1.916  53.491173
1.915  53.520253
1.914  53.437341
1.913  53.577259
1.912  53.563247
1.911  53.675888
1.910  53.707412
1.909  53.944919
1.908  53.799800
1.907  53.929902
1.906  54.068174
1.905  54.161304
1.904  54.294099
1.903  54.516961
1.902  54.616113
1.901  54.787085
1.900  55.005860
1.899  55.151065
1.898  55.225683
1.897  55.470454
1.896  55.624905
1.895  55.876176
1.894  56.034548
1.893  56.201679
1.892  56.218236
1.891  56.430080
1.890  56.530238
1.889  56.733975
1.888  56.890959
1.887  57.017312
1.886  57.208221
1.885  57.412854
1.884  57.409683
1.883  57.472752
1.882  57.587972
1.881  57.748266
1.880  57.672277
1.879  57.821847
1.878  57.899193
1.877  57.964370
1.876  57.928923
1.875  58.082776
1.874  58.169508
1.873  58.217185
1.872  58.298573
1.871  58.406202
1.870  58.438759
1.869  58.619554
1.868  58.588422
1.867  58.653870
1.866  58.642079
1.865  58.670911
1.864  58.628994
1.863  58.746582
1.862  58.630452
1.861  58.609568
1.860  58.636971
1.859  58.617086
1.858  58.631730
1.857  58.714696
1.856  58.722172
1.855  58.743857
1.854  58.737695
1.853  58.784558
1.852  58.805573
1.851  58.749689
1.850  58.688035
1.849  58.723865
1.848  58.696008
1.847  58.685739
1.846  58.710011
1.845  58.738911
1.844  58.676321
1.843  58.647803
1.842  58.676064
1.841  58.682376
1.840  58.751092
1.839  58.769731
1.838  58.715441
1.837  58.731334
1.836  58.768236
1.835  58.771943
1.834  58.748959
1.833  58.775515
1.832  58.774251
1.831  58.713135
1.830  58.690158
1.829  58.745703
1.828  58.717209
1.827  58.733110
1.826  58.639148
1.825  58.654467
1.824  58.633633
1.823  58.670483
1.822  58.572872
1.821  58.583712
1.820  58.596016
1.819  58.556205
1.818  58.567794
1.817  58.602567
1.816  58.574617
1.815  58.584776
1.814  58.636536
1.813  58.705441
1.812  58.686230
1.811  58.629972
1.810  58.643756
1.809  58.660150
1.808  58.637544
1.807  58.595419
1.806  58.625963
1.805  58.661682
1.804  58.626461
1.803  58.618384
1.802  58.678299
1.801  58.680242
1.800  58.580903
1.799  58.618983
1.798  58.602733
1.797  58.593400
1.796  58.597400
1.795  58.593067
1.794  58.628051
1.793  58.626003
1.792  58.569872
1.791  58.541412
1.790  58.594275
1.789  58.613402
1.788  58.576103
1.787  58.576737
1.786  58.536494
1.785  58.530210
1.784  58.561937
1.783  58.583919
1.782  58.595981
1.781  58.601358
1.780  58.566243
1.779  58.550736
1.778  58.561825
1.777  58.613077
1.776  58.601546
1.775  58.592331
1.774  58.655865
1.773  58.636065
1.772  58.642124
1.771  58.600315
1.770  58.576483
1.769  58.595415
1.768  58.617076
1.767  58.633461
1.766  58.629830
1.765  58.593056
1.764  58.574046
1.763  58.587196
1.762  58.561405
1.761  58.581282
1.760  58.587117
1.759  58.556060
1.758  58.597437
1.757  58.585984
1.756  58.591703
1.755  58.517217
1.754  58.556029
1.753  58.589283
1.752  58.576229
1.751  58.553078
1.750  58.588487
1.749  58.573180
1.748  58.561362
1.747  58.544930
1.746  58.568631
1.745  58.504161
1.744  58.537390
1.743  58.539000
1.742  58.569308
1.741  58.617004
1.740  58.573992
1.739  58.562285
1.738  58.523344
1.737  58.543868
1.736  58.548030
1.735  58.466040
1.734  58.557715
1.733  58.499791
1.732  58.514192
1.731  58.537547
1.730  58.600231
1.729  58.556243
1.728  58.504352
1.727  58.508491
1.726  58.524218
1.725  58.519521
1.724  58.543939
1.723  58.459759
1.722  58.481309
1.721  58.495115
1.720  58.559869
1.719  58.518665
1.718  58.567194
1.717  58.536700
1.716  58.564434
1.715  58.492092
1.714  58.484057
1.713  58.430934
1.712  58.484651
1.711  58.466955
1.710  58.452334
1.709  58.340414
1.708  58.435561
1.707  58.425760
1.706  58.448729
1.705  58.432777
1.704  58.407629
1.703  58.323769
1.702  58.349880
1.701  58.381392
1.700  58.331924
1.699  58.261731
1.698  58.380544
1.697  58.339593
1.696  58.312323
1.695  58.312385
1.694  58.398976
1.693  58.280594
1.692  58.247823
1.691  58.175397
1.690  58.329991
1.689  58.240363
1.688  58.261177
1.687  58.330838
1.686  58.308974
1.685  58.168220
1.684  58.209077
1.683  58.170231
1.682  58.228250
1.681  58.210606
1.680  58.184484
1.679  58.174456
1.678  58.242659
1.677  58.169234
1.676  58.148837
1.675  58.217871
1.674  58.118784
1.673  58.130548
1.672  58.061659
1.671  58.094134
1.670  58.061222
1.669  58.238592
1.668  58.009602
1.667  58.067211
1.666  58.155729
1.665  58.065253
1.664  58.110632
1.663  58.069496
1.662  58.106299
1.661  58.003773
1.660  58.077319
1.659  57.990058
1.658  57.952669
1.657  57.956865
1.656  58.032102
1.655  57.898439
1.654  57.961196
1.653  57.814087
1.652  57.936216
1.651  57.940978
1.650  57.882893
1.649  57.862391
1.648  57.883037
1.647  57.834523
1.646  57.860648
1.645  57.807565
1.644  57.846112
1.643  57.805273
1.642  57.929522
1.641  57.688154
1.640  57.906188
1.639  57.806563
1.638  57.851672
1.637  57.795915
1.636  57.810160
1.635  57.860057
1.634  57.730244
1.633  57.693871
1.632  57.782755
1.631  57.647289
1.630  57.715872
1.629  57.657070
1.628  57.674692
1.627  57.635394
1.626  57.666088
1.625  57.678989
1.624  57.669199
1.623  57.653096
1.622  57.642707
1.621  57.592804
1.620  57.575068
1.619  57.607043
1.618  57.592333
1.617  57.570713
1.616  57.635065
1.615  57.547596
1.614  57.611288
1.613  57.485603
1.612  57.535331
1.611  57.475656
1.610  57.537985
1.609  57.407398
1.608  57.472382
1.607  57.392403
1.606  57.476719
1.605  57.374231
1.604  57.444632
1.603  57.452470
1.602  57.311824
1.601  57.336107
1.600  57.385806
1.599  57.345958
1.598  57.321083
1.597  57.291179
1.596  57.316030
1.595  57.283078
1.594  57.320897
1.593  57.263970
1.592  57.261991
1.591  57.139743
1.590  57.260899
1.589  57.218541
1.588  57.158686
1.587  57.154410
1.586  57.192236
1.585  57.165265
1.584  57.118097
1.583  57.132528
1.582  57.161771
1.581  57.026690
1.580  57.024494
1.579  57.047733
1.578  56.928748
1.577  56.981975
1.576  56.966442
1.575  56.891324
1.574  56.934194
1.573  56.830107
1.572  56.882148
1.571  56.916747
1.570  56.857818
1.569  56.807178
1.568  56.850030
1.567  56.834887
1.566  56.790316
1.565  56.725473
1.564  56.797653
1.563  56.771277
1.562  56.806972
1.561  56.768315
1.560  56.702991
1.559  56.682163
1.558  56.704468
1.557  56.639788
1.556  56.632597
1.555  56.629600
1.554  56.529087
1.553  56.556775
1.552  56.580014
1.551  56.510620
1.550  56.498380
1.549  56.419223
1.548  56.445614
1.547  56.475536
1.546  56.449505
1.545  56.377035
1.544  56.412651
1.543  56.335536
1.542  56.337619
1.541  56.349308
1.540  56.399384
1.539  56.348091
1.538  56.319013
1.537  56.221360
1.536  56.255235
1.535  56.215979
1.534  56.240002
1.533  56.266459
1.532  56.168326
1.531  56.122338
1.530  56.128599
1.529  56.063501
1.528  56.012710
1.527  56.007040
1.526  56.030532
1.525  56.059626
1.524  56.038940
1.523  56.038548
1.522  56.024491
1.521  55.996758
1.520  55.969659
1.519  55.950924
1.518  55.910253
1.517  55.848157
1.516  55.794961
1.515  55.744292
1.514  55.765284
1.513  55.765038
1.512  55.787749
1.511  55.722707
1.510  55.680171
1.509  55.665322
1.508  55.638675
1.507  55.576432
1.506  55.523233
1.505  55.504831
1.504  55.499306
1.503  55.479877
1.502  55.476581
1.501  55.449702
1.500  55.447639
1.499  55.437248
1.498  55.418684
1.497  55.416135
1.496  55.366470
1.495  55.300539
1.494  55.268511
1.493  55.255561
1.492  55.229832
1.491  55.200885
1.490  55.206835
1.489  55.214481
1.488  55.155296
1.487  55.127355
1.486  55.099190
1.485  55.055682
1.484  55.022447
1.483  55.010597
1.482  54.996538
1.481  54.986611
1.480  54.956055
1.479  54.908605
1.478  54.891213
1.477  54.891745
1.476  54.822584
1.475  54.781434
1.474  54.755058
1.473  54.699980
1.472  54.695546
1.471  54.648530
1.470  54.589633
1.469  54.640014
1.468  54.624443
1.467  54.544070
1.466  54.504591
1.465  54.532130
1.464  54.548427
1.463  54.533013
1.462  54.495369
1.461  54.448378
1.460  54.369949
1.459  54.346592
1.458  54.325924
1.457  54.289858
1.456  54.290086
1.455  54.289197
1.454  54.214558
1.453  54.253673
1.452  54.190001
1.451  54.243190
1.450  54.206797
1.449  54.147771
1.448  54.109026
1.447  54.058820
1.446  54.041112
1.445  54.041681
1.444  54.008986
1.443  54.045648
1.442  53.957866
1.441  53.970924
1.440  53.917788
1.439  53.868299
1.438  53.756162
1.437  53.748389
1.436  53.691739
1.435  53.700747
1.434  53.620674
1.433  53.555977
1.432  53.435584
1.431  53.391172
1.430  53.345183
1.429  53.275381
1.428  53.098245
