Name: Pegmatite
Type: Rock
Class: Igneous
Subclass:  Felsic 
Particle Size: Solid surface
Sample No.: Ward15.txt
Owner: JPL
Wavelength range:  VNIR SWIR IR
Origin: Ward's Collection of American Rocks.  Sample locality - Portland, Middlesex County, Connecticut.
Collected by:  Ward's Natural Science
Description: A light gray graphic granite composed chiefly of perthite
and smoky quartz with some muscovite.
Geologic age - Late Devonian (?).



Measurement: Hemispherical reflectance
First Column: X
Second Column: Y
X Units: Wavelength (micrometers)
Y Units: Reflectance (percent)
First X Value: 2.500
Last X Value: 0.400
Number of X Values: 2101
Additional information: None

2.500  44.914004
2.499  44.867416
2.498  44.940985
2.497  44.949397
2.496  44.655727
2.495  45.185133
2.494  45.028174
2.493  45.082702
2.492  45.110241
2.491  45.204678
2.490  45.270686
2.489  45.480016
2.488  45.270468
2.487  45.429389
2.486  45.479481
2.485  45.473997
2.484  45.364963
2.483  45.582604
2.482  45.456598
2.481  45.694917
2.480  45.631046
2.479  45.803588
2.478  45.705443
2.477  45.888679
2.476  45.904066
2.475  46.097547
2.474  45.948155
2.473  46.159721
2.472  46.016922
2.471  46.132366
2.470  46.219277
2.469  46.289889
2.468  46.327932
2.467  46.399756
2.466  46.298951
2.465  46.491527
2.464  46.365620
2.463  46.499731
2.462  46.542861
2.461  46.701315
2.460  46.721492
2.459  46.876045
2.458  46.796194
2.457  46.864590
2.456  46.832094
2.455  46.849761
2.454  46.936463
2.453  47.023473
2.452  46.989416
2.451  47.158292
2.450  47.133250
2.449  47.207864
2.448  47.117210
2.447  47.285747
2.446  47.194246
2.445  47.361026
2.444  47.422068
2.443  47.425753
2.442  47.499083
2.441  47.597405
2.440  47.586720
2.439  47.567519
2.438  47.658686
2.437  47.741826
2.436  47.784813
2.435  47.833790
2.434  47.911326
2.433  48.014283
2.432  48.079707
2.431  48.158849
2.430  48.283813
2.429  48.364184
2.428  48.352548
2.427  48.493917
2.426  48.518248
2.425  48.574531
2.424  48.689995
2.423  48.796344
2.422  48.922058
2.421  48.928007
2.420  48.948039
2.419  49.120046
2.418  49.182809
2.417  49.347307
2.416  49.397382
2.415  49.553854
2.414  49.556012
2.413  49.628421
2.412  49.710920
2.411  49.792186
2.410  49.877316
2.409  50.018153
2.408  50.097999
2.407  50.192193
2.406  50.256206
2.405  50.414307
2.404  50.411404
2.403  50.471620
2.402  50.516161
2.401  50.624594
2.400  50.666820
2.399  50.807040
2.398  50.760403
2.397  50.868694
2.396  50.980653
2.395  51.072920
2.394  51.132793
2.393  51.152101
2.392  51.161740
2.391  51.304611
2.390  51.321447
2.389  51.338698
2.388  51.342971
2.387  51.421146
2.386  51.490658
2.385  51.525887
2.384  51.622313
2.383  51.616930
2.382  51.640166
2.381  51.827782
2.380  51.905181
2.379  51.933841
2.378  51.943007
2.377  52.002006
2.376  52.107264
2.375  52.255509
2.374  52.311466
2.373  52.363989
2.372  52.373684
2.371  52.459151
2.370  52.569102
2.369  52.609922
2.368  52.695301
2.367  52.768134
2.366  52.874224
2.365  53.005380
2.364  52.973375
2.363  52.962648
2.362  53.073110
2.361  53.144357
2.360  53.180380
2.359  53.232421
2.358  53.309680
2.357  53.348819
2.356  53.387807
2.355  53.433938
2.354  53.456862
2.353  53.424753
2.352  53.480293
2.351  53.609471
2.350  53.641651
2.349  53.666487
2.348  53.776589
2.347  53.878886
2.346  53.944762
2.345  53.924991
2.344  54.019112
2.343  54.125248
2.342  54.122839
2.341  54.183661
2.340  54.295295
2.339  54.335789
2.338  54.367735
2.337  54.446212
2.336  54.527112
2.335  54.613073
2.334  54.695103
2.333  54.688330
2.332  54.797718
2.331  54.911207
2.330  54.965571
2.329  54.977296
2.328  55.044382
2.327  55.075071
2.326  55.079562
2.325  55.107814
2.324  55.188600
2.323  55.241561
2.322  55.296445
2.321  55.397322
2.320  55.502772
2.319  55.556580
2.318  55.635491
2.317  55.628048
2.316  55.735474
2.315  55.793198
2.314  55.890069
2.313  55.936456
2.312  55.989264
2.311  56.020427
2.310  56.110719
2.309  56.177603
2.308  56.214851
2.307  56.273035
2.306  56.422000
2.305  56.435297
2.304  56.563818
2.303  56.648349
2.302  56.685780
2.301  56.709980
2.300  56.921156
2.299  56.915677
2.298  56.936964
2.297  57.061463
2.296  57.141777
2.295  57.169854
2.294  57.270798
2.293  57.343569
2.292  57.430723
2.291  57.443305
2.290  57.532590
2.289  57.536452
2.288  57.622118
2.287  57.683175
2.286  57.746523
2.285  57.714910
2.284  57.745880
2.283  57.852109
2.282  57.916531
2.281  57.886815
2.280  57.963770
2.279  58.011869
2.278  58.042319
2.277  58.023983
2.276  58.100206
2.275  58.209615
2.274  58.220176
2.273  58.246229
2.272  58.302007
2.271  58.248606
2.270  58.365655
2.269  58.375911
2.268  58.456073
2.267  58.435232
2.266  58.456081
2.265  58.568657
2.264  58.598576
2.263  58.575972
2.262  58.604917
2.261  58.607584
2.260  58.588028
2.259  58.610103
2.258  58.677471
2.257  58.752185
2.256  58.715487
2.255  58.766954
2.254  58.745144
2.253  58.731724
2.252  58.755369
2.251  58.681775
2.250  58.746902
2.249  58.744306
2.248  58.637828
2.247  58.745970
2.246  58.821690
2.245  58.707385
2.244  58.779444
2.243  58.804905
2.242  58.826055
2.241  58.792419
2.240  58.813448
2.239  58.732439
2.238  58.770145
2.237  58.693082
2.236  58.783036
2.235  58.779645
2.234  58.773659
2.233  58.684798
2.232  58.720486
2.231  58.755008
2.230  58.691327
2.229  58.665869
2.228  58.591925
2.227  58.599307
2.226  58.511925
2.225  58.459085
2.224  58.338772
2.223  58.205050
2.222  58.083330
2.221  58.005285
2.220  57.868482
2.219  57.618439
2.218  57.398458
2.217  57.099739
2.216  56.984684
2.215  56.630782
2.214  56.370013
2.213  56.036354
2.212  55.995660
2.211  55.524260
2.210  55.482878
2.209  55.074044
2.208  55.086990
2.207  54.847291
2.206  54.842075
2.205  54.723551
2.204  54.679989
2.203  54.652065
2.202  54.910122
2.201  54.896305
2.200  55.064819
2.199  55.103556
2.198  55.231859
2.197  55.389828
2.196  55.487986
2.195  55.555301
2.194  55.812189
2.193  55.805651
2.192  56.002726
2.191  56.109591
2.190  56.222128
2.189  56.300404
2.188  56.444261
2.187  56.561130
2.186  56.725127
2.185  56.755234
2.184  57.130275
2.183  57.060567
2.182  57.379983
2.181  57.453473
2.180  57.523334
2.179  57.716586
2.178  57.795479
2.177  57.845485
2.176  58.053831
2.175  57.992601
2.174  58.173268
2.173  58.190690
2.172  58.310479
2.171  58.350898
2.170  58.438015
2.169  58.471290
2.168  58.557865
2.167  58.654845
2.166  58.724769
2.165  58.761941
2.164  58.809373
2.163  58.949365
2.162  59.028488
2.161  59.116143
2.160  59.181242
2.159  59.234374
2.158  59.350389
2.157  59.499068
2.156  59.641147
2.155  59.734991
2.154  59.930078
2.153  59.968139
2.152  60.159166
2.151  60.240199
2.150  60.447107
2.149  60.514495
2.148  60.719999
2.147  60.824740
2.146  60.996732
2.145  61.095967
2.144  61.203152
2.143  61.267773
2.142  61.412691
2.141  61.527802
2.140  61.630280
2.139  61.666780
2.138  61.753291
2.137  61.843520
2.136  61.910733
2.135  61.939318
2.134  62.095748
2.133  62.059398
2.132  62.080741
2.131  62.019005
2.130  62.135716
2.129  62.061499
2.128  62.051984
2.127  62.033661
2.126  62.078460
2.125  62.076253
2.124  62.063206
2.123  62.140511
2.122  62.216539
2.121  62.130879
2.120  62.059996
2.119  61.990432
2.118  61.982812
2.117  61.994513
2.116  62.012220
2.115  62.010137
2.114  61.964623
2.113  61.867959
2.112  61.862462
2.111  61.916209
2.110  61.943973
2.109  61.889609
2.108  61.844857
2.107  61.818565
2.106  61.884909
2.105  61.840331
2.104  61.881326
2.103  61.851387
2.102  61.845564
2.101  61.890476
2.100  61.832069
2.099  61.812281
2.098  61.852139
2.097  61.889900
2.096  61.946066
2.095  61.972603
2.094  61.943593
2.093  61.950262
2.092  62.108228
2.091  62.117548
2.090  62.126087
2.089  62.168134
2.088  62.205326
2.087  62.205500
2.086  62.283985
2.085  62.371466
2.084  62.365765
2.083  62.350990
2.082  62.414063
2.081  62.454222
2.080  62.459866
2.079  62.536169
2.078  62.570132
2.077  62.548066
2.076  62.551520
2.075  62.579200
2.074  62.603886
2.073  62.589267
2.072  62.591013
2.071  62.610840
2.070  62.598006
2.069  62.604234
2.068  62.685285
2.067  62.659351
2.066  62.655396
2.065  62.705595
2.064  62.691798
2.063  62.696205
2.062  62.744363
2.061  62.782829
2.060  62.760344
2.059  62.778541
2.058  62.755802
2.057  62.738927
2.056  62.757072
2.055  62.761300
2.054  62.755589
2.053  62.738718
2.052  62.696142
2.051  62.720918
2.050  62.719204
2.049  62.757960
2.048  62.764025
2.047  62.734312
2.046  62.742434
2.045  62.789060
2.044  62.761107
2.043  62.758508
2.042  62.786323
2.041  62.747499
2.040  62.745415
2.039  62.736188
2.038  62.712587
2.037  62.654486
2.036  62.580530
2.035  62.632965
2.034  62.635696
2.033  62.585376
2.032  62.563448
2.031  62.516662
2.030  62.495029
2.029  62.466300
2.028  62.437052
2.027  62.478815
2.026  62.443054
2.025  62.438585
2.024  62.318614
2.023  62.325669
2.022  62.310338
2.021  62.308233
2.020  62.271520
2.019  62.230227
2.018  62.225743
2.017  62.219001
2.016  62.166115
2.015  62.114824
2.014  62.084642
2.013  62.031012
2.012  61.952622
2.011  62.015474
2.010  61.970456
2.009  61.884099
2.008  61.865842
2.007  61.867201
2.006  61.709316
2.005  61.793257
2.004  61.773131
2.003  61.761469
2.002  61.640206
2.001  61.601748
2.000  61.518951
1.999  61.556619
1.998  61.440920
1.997  61.391452
1.996  61.331167
1.995  61.296532
1.994  61.284483
1.993  61.203354
1.992  61.138292
1.991  61.117068
1.990  60.990225
1.989  60.840786
1.988  60.801986
1.987  60.851523
1.986  60.695570
1.985  60.746622
1.984  60.711617
1.983  60.605588
1.982  60.518335
1.981  60.569904
1.980  60.457692
1.979  60.489340
1.978  60.370785
1.977  60.382201
1.976  60.340821
1.975  60.323718
1.974  60.197715
1.973  60.262502
1.972  60.159583
1.971  60.210081
1.970  60.179628
1.969  60.161248
1.968  60.032475
1.967  60.099391
1.966  60.047977
1.965  59.939886
1.964  59.869861
1.963  59.885904
1.962  59.852826
1.961  59.833094
1.960  59.821823
1.959  59.731040
1.958  59.624789
1.957  59.677231
1.956  59.652384
1.955  59.643271
1.954  59.586807
1.953  59.565716
1.952  59.509646
1.951  59.591843
1.950  59.408768
1.949  59.484073
1.948  59.468610
1.947  59.487876
1.946  59.340416
1.945  59.372863
1.944  59.373988
1.943  59.379731
1.942  59.492490
1.941  59.375628
1.940  59.336197
1.939  59.345921
1.938  59.244650
1.937  59.399505
1.936  59.332448
1.935  59.227202
1.934  59.222951
1.933  59.237938
1.932  59.076700
1.931  59.157516
1.930  59.002397
1.929  59.133305
1.928  59.114454
1.927  59.126585
1.926  58.920195
1.925  58.958542
1.924  59.046117
1.923  58.873301
1.922  58.890050
1.921  58.863026
1.920  58.829538
1.919  58.799721
1.918  58.822484
1.917  58.746918
1.916  58.716584
1.915  58.661075
1.914  58.727837
1.913  58.806833
1.912  58.699237
1.911  58.802513
1.910  58.843399
1.909  58.843781
1.908  58.799453
1.907  58.822776
1.906  58.855814
1.905  58.848016
1.904  58.871906
1.903  58.892527
1.902  58.925015
1.901  59.133063
1.900  59.127082
1.899  59.293821
1.898  59.496004
1.897  59.658091
1.896  59.971166
1.895  60.318406
1.894  60.585972
1.893  61.035624
1.892  61.388535
1.891  61.766166
1.890  62.204516
1.889  62.722328
1.888  62.988025
1.887  63.347964
1.886  63.636690
1.885  63.908434
1.884  64.130269
1.883  64.395234
1.882  64.602194
1.881  64.762084
1.880  64.974146
1.879  65.166909
1.878  65.313380
1.877  65.408177
1.876  65.460129
1.875  65.639175
1.874  65.732529
1.873  65.819544
1.872  65.923032
1.871  65.955610
1.870  66.026754
1.869  66.087943
1.868  66.207436
1.867  66.321673
1.866  66.422149
1.865  66.546687
1.864  66.534501
1.863  66.645293
1.862  66.678923
1.861  66.775796
1.860  66.808514
1.859  66.821347
1.858  66.800884
1.857  66.809398
1.856  66.821004
1.855  66.898360
1.854  66.885818
1.853  66.933789
1.852  66.913914
1.851  66.931018
1.850  66.925176
1.849  66.987434
1.848  66.967799
1.847  66.940188
1.846  66.914077
1.845  67.053261
1.844  66.983014
1.843  66.967711
1.842  67.020021
1.841  67.050516
1.840  67.032246
1.839  66.994710
1.838  67.075921
1.837  67.081980
1.836  67.060193
1.835  67.039758
1.834  67.100498
1.833  67.102121
1.832  67.107373
1.831  67.112161
1.830  67.078445
1.829  67.112647
1.828  67.162728
1.827  67.192801
1.826  67.109395
1.825  67.079088
1.824  67.138539
1.823  67.221063
1.822  67.195709
1.821  67.233696
1.820  67.219445
1.819  67.192180
1.818  67.149923
1.817  67.193333
1.816  67.199734
1.815  67.276675
1.814  67.248130
1.813  67.243563
1.812  67.238686
1.811  67.246042
1.810  67.255988
1.809  67.271827
1.808  67.269399
1.807  67.237998
1.806  67.226206
1.805  67.217479
1.804  67.287479
1.803  67.261306
1.802  67.255322
1.801  67.275074
1.800  67.274588
1.799  67.339198
1.798  67.347420
1.797  67.306857
1.796  67.330346
1.795  67.324308
1.794  67.343631
1.793  67.379014
1.792  67.307847
1.791  67.321070
1.790  67.334062
1.789  67.356773
1.788  67.411344
1.787  67.381619
1.786  67.336735
1.785  67.343170
1.784  67.362421
1.783  67.394917
1.782  67.402247
1.781  67.426105
1.780  67.415753
1.779  67.335949
1.778  67.358058
1.777  67.378197
1.776  67.391135
1.775  67.424964
1.774  67.406972
1.773  67.384033
1.772  67.392606
1.771  67.390400
1.770  67.407570
1.769  67.444048
1.768  67.429670
1.767  67.405888
1.766  67.489739
1.765  67.482028
1.764  67.467952
1.763  67.476064
1.762  67.452670
1.761  67.446080
1.760  67.441352
1.759  67.437076
1.758  67.424937
1.757  67.435407
1.756  67.482510
1.755  67.513416
1.754  67.494530
1.753  67.498259
1.752  67.526848
1.751  67.491212
1.750  67.503407
1.749  67.500534
1.748  67.511969
1.747  67.503301
1.746  67.606582
1.745  67.595380
1.744  67.619010
1.743  67.560242
1.742  67.542929
1.741  67.551199
1.740  67.537560
1.739  67.567902
1.738  67.639026
1.737  67.610734
1.736  67.621544
1.735  67.649838
1.734  67.701881
1.733  67.634109
1.732  67.645798
1.731  67.637694
1.730  67.693205
1.729  67.652659
1.728  67.666144
1.727  67.754062
1.726  67.811277
1.725  67.796361
1.724  67.737524
1.723  67.845759
1.722  67.819468
1.721  67.747350
1.720  67.737166
1.719  67.693280
1.718  67.810000
1.717  67.766792
1.716  67.797966
1.715  67.733518
1.714  67.722544
1.713  67.719034
1.712  67.788553
1.711  67.783127
1.710  67.806890
1.709  67.810078
1.708  67.783891
1.707  67.760205
1.706  67.843141
1.705  67.818523
1.704  67.798117
1.703  67.859687
1.702  67.909581
1.701  67.872532
1.700  67.814608
1.699  67.867648
1.698  67.875620
1.697  67.815852
1.696  67.812574
1.695  67.860710
1.694  67.821522
1.693  67.844404
1.692  67.871535
1.691  67.823163
1.690  67.912715
1.689  67.875725
1.688  67.882034
1.687  67.923532
1.686  67.918784
1.685  67.848966
1.684  67.903534
1.683  67.807139
1.682  67.877775
1.681  67.891993
1.680  67.945823
1.679  67.950186
1.678  67.999155
1.677  67.896715
1.676  67.978376
1.675  67.935829
1.674  67.957185
1.673  67.895106
1.672  67.989826
1.671  67.941482
1.670  67.981097
1.669  67.993842
1.668  67.954373
1.667  67.969406
1.666  67.974191
1.665  67.993815
1.664  67.989027
1.663  67.993950
1.662  67.965467
1.661  67.964566
1.660  67.990619
1.659  68.094176
1.658  67.997515
1.657  68.030896
1.656  68.054651
1.655  67.953108
1.654  68.014415
1.653  68.081346
1.652  68.114224
1.651  68.017335
1.650  68.065335
1.649  68.051952
1.648  68.031328
1.647  68.056090
1.646  68.101262
1.645  68.004635
1.644  68.102816
1.643  68.013356
1.642  68.161019
1.641  67.948513
1.640  68.096612
1.639  68.094778
1.638  68.108651
1.637  68.091557
1.636  68.062709
1.635  67.974058
1.634  68.035948
1.633  68.070309
1.632  68.033224
1.631  67.971311
1.630  68.072118
1.629  68.067922
1.628  68.171566
1.627  68.087594
1.626  68.001604
1.625  68.044637
1.624  68.023026
1.623  68.120519
1.622  68.119357
1.621  68.023992
1.620  68.086174
1.619  68.117751
1.618  68.087108
1.617  68.018161
1.616  68.128576
1.615  68.195183
1.614  68.153866
1.613  68.079804
1.612  68.088130
1.611  67.932420
1.610  68.123344
1.609  68.077537
1.608  68.169386
1.607  68.072566
1.606  68.149065
1.605  68.062790
1.604  68.032019
1.603  68.053582
1.602  68.059880
1.601  68.094984
1.600  68.138406
1.599  68.061534
1.598  68.085545
1.597  68.016423
1.596  68.132726
1.595  68.010493
1.594  68.062744
1.593  68.029205
1.592  68.136972
1.591  68.062806
1.590  68.056137
1.589  68.071730
1.588  68.077623
1.587  67.980927
1.586  68.009075
1.585  67.987671
1.584  68.006858
1.583  67.995176
1.582  68.033165
1.581  67.963704
1.580  68.028576
1.579  67.953458
1.578  67.949421
1.577  67.866369
1.576  67.932311
1.575  67.901081
1.574  67.906798
1.573  67.973554
1.572  67.957878
1.571  67.919724
1.570  67.970347
1.569  67.930145
1.568  67.910630
1.567  67.889667
1.566  67.892053
1.565  67.843774
1.564  67.877149
1.563  67.823070
1.562  67.802943
1.561  67.766570
1.560  67.820542
1.559  67.805367
1.558  67.820549
1.557  67.784540
1.556  67.818793
1.555  67.798438
1.554  67.784064
1.553  67.728443
1.552  67.787708
1.551  67.761460
1.550  67.721940
1.549  67.649806
1.548  67.686298
1.547  67.726592
1.546  67.694745
1.545  67.769086
1.544  67.736968
1.543  67.713442
1.542  67.721165
1.541  67.706613
1.540  67.751420
1.539  67.678127
1.538  67.680922
1.537  67.717063
1.536  67.659337
1.535  67.719240
1.534  67.688399
1.533  67.609544
1.532  67.662073
1.531  67.629729
1.530  67.623902
1.529  67.617609
1.528  67.575233
1.527  67.601850
1.526  67.656073
1.525  67.645597
1.524  67.609305
1.523  67.605745
1.522  67.596673
1.521  67.592411
1.520  67.635409
1.519  67.620094
1.518  67.601735
1.517  67.616511
1.516  67.609015
1.515  67.550883
1.514  67.514607
1.513  67.504053
1.512  67.535181
1.511  67.514585
1.510  67.479613
1.509  67.509574
1.508  67.511879
1.507  67.473870
1.506  67.444970
1.505  67.408876
1.504  67.351358
1.503  67.338083
1.502  67.344954
1.501  67.351440
1.500  67.340099
1.499  67.334404
1.498  67.309508
1.497  67.260702
1.496  67.243669
1.495  67.261367
1.494  67.238105
1.493  67.224859
1.492  67.213806
1.491  67.141976
1.490  67.116133
1.489  67.126420
1.488  67.150169
1.487  67.137442
1.486  67.141962
1.485  67.110794
1.484  67.061567
1.483  67.100528
1.482  67.043992
1.481  66.999601
1.480  66.940458
1.479  66.947906
1.478  66.970432
1.477  66.884029
1.476  66.864494
1.475  66.870111
1.474  66.820338
1.473  66.799897
1.472  66.825763
1.471  66.765233
1.470  66.701905
1.469  66.675525
1.468  66.688691
1.467  66.681641
1.466  66.679684
1.465  66.667799
1.464  66.676210
1.463  66.742914
1.462  66.647211
1.461  66.645669
1.460  66.691088
1.459  66.621800
1.458  66.565163
1.457  66.510487
1.456  66.548848
1.455  66.589613
1.454  66.547208
1.453  66.492093
1.452  66.521421
1.451  66.517492
1.450  66.478615
1.449  66.482044
1.448  66.442561
1.447  66.460069
1.446  66.463109
1.445  66.501468
1.444  66.420442
1.443  66.450179
1.442  66.424195
1.441  66.346363
1.440  66.303364
1.439  66.327696
1.438  66.287229
1.437  66.256542
1.436  66.203317
1.435  66.216741
1.434  66.123808
1.433  66.111073
1.432  66.110090
1.431  66.049949
1.430  65.971684
1.429  66.001491
