Name: Cummingtonite (Mg,Fe^2+)_7Si_8O_22(OH)_2
Type: Mineral
Class: Silicates
Subclass: Inosilicates
Particle Size: 0-45um
Sample No.: IN-6A
Owner: JPL
Wavelength range: IR
Origin: USA, South Dakota
Collected by Ward's
Description: 





Measurement: Hemispherical reflectance
First Column: X
Second Column: Y
X Units:  Wavelength (micrometers)
Y Units:  Reflectance (percent)
First X Value: 15.3853
Last X Value: 2.00032
Number of X Values: 2256
Additional information: in06aa.txt
 
15.3853	1.98269
15.3397	2.3089
15.2945	2.66444
15.2495	2.63396
15.2048	2.61809
15.1603	2.83818
15.1161	2.74017
15.0722	2.51864
15.0285	2.75254
14.9851	2.8911
14.9419	3.01593
14.8989	3.32585
14.8563	3.13634
14.8138	3.24636
14.7716	3.43977
14.7296	3.24525
14.6879	3.19219
14.6464	3.22813
14.6052	3.26647
14.5641	3.22362
14.5233	3.09016
14.4828	3.13931
14.4424	3.09897
14.4023	3.18414
14.3624	3.02939
14.3227	2.83435
14.2833	2.96771
14.244	3.08638
14.205	3.06189
14.1662	3.28558
14.1276	3.44129
14.0892	3.37115
14.051	3.34113
14.0131	3.486
13.9753	3.54527
13.9377	3.66744
13.9004	3.59378
13.8632	3.65362
13.8262	3.79495
13.7895	3.7828
13.7529	3.91346
13.7165	3.96578
13.6803	4.04823
13.6443	4.24089
13.6085	4.17751
13.5729	4.04453
13.5374	4.13522
13.5022	4.30276
13.4671	4.5219
13.4322	4.62349
13.3975	4.62836
13.363	4.70457
13.3286	4.81692
13.2944	4.86291
13.2604	4.77847
13.2266	4.80319
13.193	4.76869
13.1595	4.59558
13.1262	4.45328
13.093	4.3815
13.06	4.20448
13.0272	4.12601
12.9946	3.98189
12.9621	3.81559
12.9298	3.83616
12.8976	3.86728
12.8656	3.71235
12.8337	3.66383
12.8021	3.63658
12.7705	3.65376
12.7391	3.63026
12.7079	3.62788
12.6769	3.78745
12.6459	4.033
12.6152	4.1554
12.5845	4.25282
12.5541	4.34325
12.5238	4.57488
12.4936	4.76999
12.4635	4.876
12.4337	5.01333
12.4039	5.09678
12.3743	5.29514
12.3448	5.47328
12.3155	5.49896
12.2863	5.65252
12.2573	5.68434
12.2284	5.58494
12.1996	5.79586
12.171	6.11312
12.1425	6.30428
12.1141	6.36453
12.0859	6.31166
12.0578	6.40939
12.0298	6.56613
12.0019	6.63913
11.9742	6.65551
11.9466	6.76047
11.9192	6.79528
11.8918	6.80641
11.8646	6.73333
11.8375	6.7568
11.8106	6.83615
11.7837	6.82298
11.757	6.8859
11.7304	6.79935
11.7039	6.81678
11.6776	6.87751
11.6513	6.84493
11.6252	6.67529
11.5992	6.54936
11.5733	6.50868
11.5475	6.57112
11.5219	6.6614
11.4963	6.66754
11.4709	6.59756
11.4455	6.62553
11.4203	6.48696
11.3952	6.21472
11.3702	6.17295
11.3454	6.18537
11.3206	6.06592
11.2959	5.95417
11.2714	6.00312
11.2469	5.9754
11.2226	6.0246
11.1983	6.0517
11.1742	5.84117
11.1502	5.69812
11.1263	5.65776
11.1024	5.62174
11.0787	5.70936
11.0551	5.69813
11.0316	5.60579
11.0081	5.64803
10.9848	5.70419
10.9616	5.77796
10.9385	5.7189
10.9154	5.71112
10.8925	5.75927
10.8697	5.77119
10.8469	5.754
10.8243	5.70356
10.8017	5.77122
10.7793	5.7997
10.7569	5.72798
10.7346	5.71232
10.7125	5.697
10.6904	5.71259
10.6684	5.7813
10.6465	5.83728
10.6247	5.95121
10.6029	5.97183
10.5813	6.01439
10.5597	6.1214
10.5383	6.2164
10.5169	6.32612
10.4956	6.44657
10.4744	6.48235
10.4533	6.61786
10.4323	6.79042
10.4113	6.82379
10.3904	6.77424
10.3697	6.86844
10.349	6.93365
10.3284	6.86103
10.3078	6.75402
10.2874	6.71156
10.267	6.74594
10.2467	6.68852
10.2265	6.69246
10.2064	6.73194
10.1863	6.63339
10.1663	6.49673
10.1464	6.69783
10.1266	6.97738
10.1069	6.98807
10.0872	7.04591
10.0676	7.27019
10.0481	7.54654
10.0287	7.82913
10.0093	8.01688
9.99005	8.23038
9.97084	8.45811
9.95169	8.59923
9.93263	8.70069
9.91364	8.80231
9.89472	8.90064
9.87587	8.98032
9.8571	9.03511
9.83839	9.00209
9.81976	9.09714
9.80119	9.11907
9.78271	9.07552
9.76428	9.22808
9.74592	9.37751
9.72764	9.27634
9.70943	9.15029
9.69128	9.21491
9.6732	9.32236
9.65518	9.30108
9.63724	9.23181
9.61935	9.14942
9.60155	9.06129
9.5838	8.94104
9.56611	8.90824
9.5485	8.9728
9.53094	8.95772
9.51345	8.77111
9.49604	8.63908
9.47867	8.59957
9.46137	8.4878
9.44414	8.40548
9.42697	8.2768
9.40986	8.30126
9.39281	8.25422
9.37583	7.96362
9.35891	7.85829
9.34204	7.79283
9.32524	7.53758
9.3085	7.39851
9.29182	7.38547
9.27519	7.26383
9.25863	7.25273
9.24213	7.34448
9.22568	7.53584
9.2093	7.96953
9.19297	8.29606
9.17669	8.20297
9.16048	8.20081
9.14433	8.35541
9.12823	8.26391
9.11218	8.08575
9.0962	8.00764
9.08027	7.99116
9.06439	7.85144
9.04858	7.49551
9.03281	7.26445
9.0171	7.1351
9.00145	6.96687
8.98585	6.78383
8.9703	6.61207
8.9548	6.52557
8.93937	6.3486
8.92398	6.27429
8.90865	6.41191
8.89337	6.45242
8.87814	6.47611
8.86296	6.69578
8.84784	6.79456
8.83277	6.88674
8.81774	6.97182
8.80277	7.05152
8.78786	7.01896
8.77298	7.06025
8.75816	7.1613
8.7434	7.18998
8.72868	7.06471
8.714	6.97889
8.69938	7.11745
8.68481	7.00712
8.67029	6.87805
8.65581	6.75462
8.64139	6.33018
8.62701	6.03412
8.61268	5.84127
8.5984	5.81632
8.58416	6.03818
8.56997	6.14794
8.55583	5.99728
8.54174	5.76563
8.52769	5.64657
8.51368	5.63333
8.49973	5.58033
8.48582	5.54739
8.47195	5.57773
8.45813	5.58155
8.44436	5.62937
8.43062	5.59084
8.41693	5.65704
8.4033	5.75613
8.3897	5.66317
8.37614	5.52425
8.36264	5.59112
8.34917	5.76903
8.33574	5.83412
8.32236	5.78272
8.30903	5.80962
8.29573	5.92704
8.28248	6.01418
8.26927	6.04728
8.2561	6.23188
8.24298	6.38219
8.2299	6.44981
8.21685	6.54344
8.20385	6.68387
8.19089	6.74969
8.17797	6.73021
8.16509	6.60665
8.15225	6.50562
8.13946	6.4297
8.1267	6.42616
8.11398	6.44216
8.10131	6.32552
8.08867	6.2036
8.07606	6.12158
8.0635	6.10808
8.05099	6.17125
8.0385	6.24245
8.02606	6.15045
8.01366	5.98937
8.00129	5.99284
7.98896	6.02996
7.97667	6.11737
7.96442	6.25634
7.9522	6.23692
7.94002	6.1749
7.92788	6.20381
7.91578	6.14403
7.90371	6.13851
7.89168	6.18199
7.87969	6.21697
7.86773	6.30923
7.85581	6.36235
7.84392	6.32038
7.83207	6.31196
7.82026	6.31299
7.80849	6.30774
7.79674	6.45227
7.78503	6.58487
7.77337	6.63146
7.76173	6.65232
7.75012	6.70727
7.73856	6.78663
7.72703	6.87075
7.71553	6.89097
7.70406	6.96881
7.69263	7.1603
7.68123	7.22147
7.66987	7.24829
7.65855	7.26819
7.64725	7.24289
7.63598	7.34337
7.62475	7.46038
7.61356	7.46044
7.60239	7.43283
7.59126	7.50379
7.58017	7.58124
7.5691	7.70221
7.55806	7.74277
7.54707	7.76432
7.5361	7.87365
7.52516	7.9803
7.51425	8.02337
7.50338	7.97946
7.49253	7.981
7.48172	8.1343
7.47094	8.22333
7.46019	8.2185
7.44947	8.26706
7.43879	8.35425
7.42813	8.46329
7.4175	8.51631
7.4069	8.49614
7.39634	8.42954
7.3858	8.48357
7.37529	8.56974
7.36482	8.58698
7.35437	8.67048
7.34396	8.67935
7.33357	8.69357
7.32321	8.76108
7.31288	8.80228
7.30258	8.79098
7.29231	8.83095
7.28207	8.98032
7.27185	9.06843
7.26167	9.08749
7.25152	9.11973
7.24139	9.11597
7.23129	9.15957
7.22122	9.31402
7.21117	9.50014
7.20116	9.55809
7.19117	9.48755
7.18121	9.52633
7.17128	9.67907
7.16137	9.75396
7.1515	9.82049
7.14164	9.87649
7.13182	9.90375
7.12203	9.98129
7.11225	10.078
7.10251	10.0899
7.0928	10.1375
7.08311	10.2163
7.07344	10.1626
7.06381	10.1096
7.0542	10.2874
7.04461	10.3968
7.03506	10.295
7.02552	10.2482
7.01601	10.2033
7.00653	10.2068
6.99708	10.2782
6.98765	10.2814
6.97824	10.2231
6.96886	10.362
6.95951	10.5432
6.95018	10.4311
6.94087	10.425
6.9316	10.5183
6.92234	10.5715
6.91311	10.6745
6.90391	10.7888
6.89473	10.7278
6.88557	10.797
6.87644	10.9718
6.86733	11.2784
6.85824	11.3881
6.84918	11.0862
6.84015	10.9768
6.83114	11.138
6.82215	11.1572
6.81319	11.094
6.80424	11.1777
6.79532	11.4404
6.78643	11.5676
6.77756	11.5584
6.76871	11.5381
6.75989	11.3948
6.75109	11.4268
6.74231	11.4368
6.73355	11.494
6.72482	11.6328
6.71611	11.8256
6.70742	11.8947
6.69875	11.7062
6.69011	11.7678
6.68149	11.9949
6.67289	12.0166
6.66431	12.0119
6.65576	12.1
6.64722	12.5162
6.63871	12.9855
6.63022	12.7686
6.62175	12.4841
6.61331	12.4926
6.60488	12.442
6.59648	12.4978
6.5881	12.5793
6.57974	12.7699
6.5714	12.9441
6.56308	12.7768
6.55478	12.7386
6.54651	12.6813
6.53825	12.6637
6.53001	12.8193
6.5218	13.1576
6.51361	13.191
6.50544	13.2928
6.49729	13.8167
6.48915	13.9551
6.48104	13.6844
6.47295	13.6319
6.46488	13.539
6.45683	13.488
6.4488	13.5239
6.44079	13.5763
6.4328	13.8111
6.42482	14.1054
6.41687	14.5909
6.40894	14.3661
6.40103	13.6359
6.39314	13.393
6.38526	13.4927
6.37741	13.6146
6.36957	13.6197
6.36176	13.3259
6.35396	13.2528
6.34618	13.4909
6.33843	13.2771
6.33069	12.9731
6.32297	12.892
6.31527	12.8226
6.30758	12.7191
6.29992	12.6026
6.29227	12.5577
6.28465	12.506
6.27704	12.3831
6.26945	12.3093
6.26188	12.3135
6.25432	12.2265
6.24679	12.1249
6.23927	12.0715
6.23177	11.928
6.22429	11.8462
6.21683	11.8136
6.20938	11.7185
6.20195	11.6336
6.19454	11.6759
6.18715	11.9058
6.17978	11.8164
6.17242	11.6735
6.16508	11.7008
6.15776	11.6659
6.15045	11.6303
6.14317	11.6521
6.1359	11.5939
6.12864	11.5608
6.12141	11.78
6.11419	11.9478
6.10699	11.6737
6.0998	11.4805
6.09263	11.5744
6.08549	11.6858
6.07835	11.8926
6.07123	12.1056
6.06413	12.007
6.05705	12.2268
6.04998	12.8204
6.04293	12.4742
6.0359	12.0162
6.02888	11.9911
6.02187	12.068
6.01489	12.2428
6.00792	12.2924
6.00096	12.2705
5.99403	12.5058
5.98711	12.6869
5.9802	12.6821
5.97331	12.8428
5.96644	12.9764
5.95958	12.8363
5.95274	12.885
5.94591	13.1676
5.9391	13.59
5.9323	13.4967
5.92552	13.1885
5.91876	13.0875
5.91201	13.1279
5.90528	13.3927
5.89856	13.7914
5.89186	13.7975
5.88517	14.1532
5.8785	14.2705
5.87184	13.7953
5.8652	13.8197
5.85857	13.841
5.85196	13.7877
5.84536	13.7909
5.83878	13.9264
5.83221	14.1542
5.82566	14.3637
5.81912	14.2995
5.81259	13.9963
5.80608	13.8746
5.79959	13.7916
5.79311	13.8172
5.78665	13.8561
5.78019	13.8301
5.77376	13.993
5.76734	14.3418
5.76093	14.0689
5.75453	13.7499
5.74815	13.8807
5.74179	13.8323
5.73543	13.7886
5.7291	13.7407
5.72277	13.7961
5.71646	13.9047
5.71017	13.8829
5.70389	13.633
5.69762	13.5899
5.69136	13.627
5.68513	13.5826
5.6789	13.6835
5.67268	13.6243
5.66648	13.539
5.6603	13.5752
5.65413	13.5919
5.64797	13.6242
5.64182	13.6826
5.63569	13.4652
5.62957	13.3217
5.62347	13.3005
5.61737	13.3179
5.61129	13.2822
5.60522	13.2556
5.59917	13.268
5.59313	13.2113
5.5871	13.2583
5.58109	13.4223
5.57509	13.3797
5.5691	13.2264
5.56312	13.2875
5.55716	13.4101
5.55121	13.4563
5.54528	13.3932
5.53935	13.3404
5.53344	13.4212
5.52754	13.5392
5.52166	13.6285
5.51578	13.7094
5.50992	13.7841
5.50407	13.9007
5.49823	14.0116
5.49241	14.1283
5.4866	14.1882
5.4808	14.3449
5.47501	14.4607
5.46923	14.5257
5.46347	14.5522
5.45772	14.4784
5.45198	14.447
5.44625	14.4652
5.44054	14.5028
5.43484	14.5956
5.42914	14.631
5.42347	14.6821
5.4178	14.5607
5.41214	14.4079
5.4065	14.4042
5.40087	14.3233
5.39525	14.256
5.38964	14.1844
5.38404	14.1315
5.37846	14.0652
5.37288	13.9272
5.36732	13.8301
5.36177	13.7376
5.35623	13.7568
5.35071	13.8606
5.34519	13.8429
5.33968	13.756
5.33419	13.766
5.32871	13.8424
5.32324	13.8365
5.31778	13.8762
5.31233	13.9547
5.30689	14.037
5.30147	14.0645
5.29605	14.1166
5.29065	14.2365
5.28525	14.3351
5.27987	14.3961
5.2745	14.4814
5.26914	14.5769
5.26379	14.6836
5.25845	14.8366
5.25312	14.9597
5.24781	15.0929
5.2425	15.242
5.23721	15.3998
5.23192	15.4852
5.22665	15.5582
5.22138	15.6467
5.21613	15.8498
5.21089	15.9245
5.20566	15.9274
5.20044	15.9989
5.19522	16.0659
5.19002	16.1498
5.18483	16.196
5.17965	16.2511
5.17448	16.3436
5.16933	16.4001
5.16418	16.4296
5.15904	16.446
5.15391	16.5099
5.14879	16.5809
5.14368	16.5762
5.13859	16.5824
5.1335	16.7202
5.12842	16.8488
5.12335	16.8314
5.1183	16.7848
5.11325	16.8379
5.10821	16.858
5.10318	16.8415
5.09817	16.927
5.09316	16.957
5.08816	16.9103
5.08317	16.9432
5.07819	16.9778
5.07322	17.0223
5.06826	16.9929
5.06331	16.972
5.05837	16.9933
5.05344	17.0411
5.04852	17.0217
5.04361	17.0723
5.03871	17.1164
5.03382	17.1288
5.02894	17.1424
5.02406	17.1753
5.0192	17.1917
5.01435	17.1067
5.0095	17.0595
5.00467	17.1019
4.99984	17.075
4.99502	17.073
4.99021	17.1814
4.98542	17.3173
4.98063	17.3822
4.97585	17.4947
4.97108	17.558
4.96632	17.5438
4.96156	17.6674
4.95682	17.7733
4.95209	17.8839
4.94736	17.9296
4.94264	17.9581
4.93794	18.0447
4.93324	18.0765
4.92855	18.0812
4.92387	18.1543
4.9192	18.1837
4.91453	18.2066
4.90988	18.2968
4.90524	18.3789
4.9006	18.5315
4.89597	18.6287
4.89135	18.5971
4.88674	18.6534
4.88214	18.7376
4.87755	18.7696
4.87296	18.8229
4.86839	18.8654
4.86382	18.9263
4.85926	19.0019
4.85471	19.0366
4.85017	19.0766
4.84564	19.0692
4.84111	19.0843
4.8366	19.0695
4.83209	19.0455
4.82759	19.1546
4.8231	19.283
4.81862	19.3221
4.81415	19.3127
4.80968	19.3099
4.80522	19.2706
4.80077	19.2305
4.79633	19.2534
4.7919	19.3639
4.78747	19.4635
4.78306	19.4371
4.77865	19.4265
4.77425	19.5344
4.76986	19.5922
4.76547	19.579
4.7611	19.5377
4.75673	19.4862
4.75237	19.5781
4.74802	19.6689
4.74367	19.7262
4.73934	19.7564
4.73501	19.7231
4.73069	19.7309
4.72638	19.7993
4.72207	19.8572
4.71777	19.8859
4.71348	19.8954
4.7092	19.8988
4.70493	19.8918
4.70066	19.8843
4.69641	19.827
4.69216	19.8412
4.68791	19.8814
4.68368	19.9092
4.67945	19.953
4.67523	19.9117
4.67102	19.9229
4.66682	20.0353
4.66262	20.0782
4.65843	20.146
4.65425	20.1469
4.65007	20.1345
4.64591	20.1521
4.64175	20.1229
4.6376	20.1019
4.63345	20.1197
4.62932	20.2261
4.62519	20.2675
4.62106	20.1884
4.61695	20.2336
4.61284	20.3204
4.60874	20.4008
4.60465	20.368
4.60056	20.298
4.59648	20.3239
4.59241	20.4169
4.58835	20.4286
4.58429	20.3779
4.58024	20.3797
4.5762	20.4082
4.57216	20.4811
4.56814	20.4932
4.56411	20.5252
4.5601	20.5305
4.55609	20.4708
4.55209	20.4314
4.5481	20.42
4.54411	20.4266
4.54013	20.517
4.53616	20.5802
4.5322	20.5867
4.52824	20.6338
4.52429	20.6291
4.52034	20.5765
4.51641	20.5694
4.51247	20.5762
4.50855	20.6003
4.50463	20.6285
4.50072	20.6582
4.49682	20.6506
4.49292	20.6323
4.48903	20.5725
4.48515	20.447
4.48127	20.4722
4.4774	20.5977
4.47354	20.5411
4.46968	20.5943
4.46584	20.7107
4.46199	20.7108
4.45815	20.6044
4.45432	20.6175
4.4505	20.6694
4.44668	20.624
4.44287	20.6267
4.43907	20.6604
4.43527	20.6566
4.43148	20.6549
4.4277	20.6713
4.42392	20.7066
4.42015	20.7419
4.41638	20.7784
4.41262	20.8187
4.40887	20.7719
4.40513	20.7126
4.40139	20.6795
4.39765	20.7212
4.39393	20.7933
4.39021	20.8101
4.38649	20.8471
4.38278	20.8707
4.37908	20.8004
4.37539	20.8413
4.3717	20.9028
4.36801	20.8941
4.36434	20.8724
4.36067	20.905
4.357	20.9828
4.35335	20.9316
4.34969	20.8596
4.34605	20.8276
4.34241	20.8848
4.33877	20.9377
4.33514	20.9793
4.33152	21.0389
4.32791	21.031
4.3243	21.0219
4.32069	20.9904
4.3171	20.977
4.31351	21.0069
4.30992	21.0722
4.30634	21.1482
4.30277	21.1066
4.2992	21.1347
4.29564	21.1463
4.29208	21.1088
4.28853	21.1209
4.28499	21.1971
4.28145	21.2185
4.27792	21.2068
4.27439	21.2002
4.27087	21.1764
4.26735	21.2352
4.26384	21.301
4.26034	21.1323
4.25684	20.9909
4.25335	21.0855
4.24986	21.2952
4.24638	21.4114
4.24291	21.3792
4.23944	21.3253
4.23598	21.347
4.23252	21.392
4.22906	21.4022
4.22562	21.4017
4.22218	21.3411
4.21874	21.268
4.21531	21.2542
4.21189	21.2515
4.20847	21.1667
4.20506	21.1328
4.20165	21.1799
4.19825	21.1296
4.19485	21.0916
4.19146	21.1922
4.18807	21.2068
4.18469	21.1322
4.18132	21.0952
4.17795	21.0996
4.17458	21.1841
4.17123	21.188
4.16787	21.1451
4.16453	21.1904
4.16118	21.1549
4.15785	21.0605
4.15451	21.0549
4.15119	21.1022
4.14787	21.1182
4.14455	21.1266
4.14124	21.1564
4.13794	21.1859
4.13464	21.1414
4.13134	21.1639
4.12805	21.2444
4.12477	21.2593
4.12149	21.2112
4.11822	21.1484
4.11495	21.0801
4.11168	21.0782
4.10843	21.1814
4.10517	21.1956
4.10192	21.1596
4.09868	21.1402
4.09545	21.1601
4.09221	21.1529
4.08899	21.1606
4.08576	21.1586
4.08255	21.2343
4.07933	21.2391
4.07613	21.249
4.07292	21.2207
4.06973	21.2059
4.06654	21.1934
4.06335	21.1508
4.06017	21.1463
4.05699	21.2166
4.05382	21.2775
4.05065	21.2552
4.04749	21.2126
4.04433	21.1841
4.04118	21.1288
4.03803	21.1184
4.03489	21.1278
4.03175	21.1258
4.02862	21.1557
4.02549	21.1921
4.02237	21.1778
4.01925	21.1569
4.01614	21.0383
4.01303	20.9665
4.00993	20.9882
4.00683	21.0364
4.00373	21.0445
4.00064	20.9449
3.99756	20.8845
3.99448	20.9447
3.9914	20.9915
3.98833	20.9627
3.98527	20.9082
3.98221	20.9261
3.97915	20.9244
3.9761	20.9063
3.97305	20.9188
3.97001	20.9452
3.96697	20.985
3.96394	20.9717
3.96091	20.9707
3.95789	21.0319
3.95487	21.028
3.95186	21.0036
3.94885	21.0206
3.94584	21.0503
3.94284	21.0545
3.93984	21.0657
3.93685	21.0247
3.93386	21.0618
3.93088	21.0974
3.9279	21.0665
3.92493	21.1348
3.92196	21.2365
3.919	21.2008
3.91604	21.132
3.91308	21.131
3.91013	21.1925
3.90718	21.2197
3.90424	21.1992
3.9013	21.1642
3.89837	21.1496
3.89544	21.1445
3.89252	21.169
3.8896	21.2337
3.88668	21.2207
3.88377	21.1612
3.88086	21.1319
3.87796	21.1053
3.87506	21.2035
3.87217	21.2615
3.86928	21.2089
3.86639	21.21
3.86351	21.1963
3.86064	21.2015
3.85776	21.2006
3.8549	21.207
3.85203	21.2189
3.84917	21.2607
3.84631	21.2474
3.84346	21.1786
3.84062	21.1691
3.83777	21.2219
3.83494	21.2259
3.8321	21.1355
3.82927	21.0513
3.82644	21.0745
3.82362	21.2062
3.82081	21.2809
3.81799	21.1857
3.81518	21.1055
3.81238	21.201
3.80958	21.2741
3.80678	21.2912
3.80399	21.2073
3.8012	21.1165
3.79841	21.1514
3.79563	21.2789
3.79286	21.3116
3.79008	21.2306
3.78731	21.2413
3.78455	21.2699
3.78179	21.2809
3.77903	21.275
3.77628	21.2262
3.77353	21.2565
3.77079	21.2864
3.76805	21.2285
3.76531	21.3008
3.76258	21.3467
3.75985	21.3077
3.75713	21.2383
3.7544	21.213
3.75169	21.2155
3.74898	21.2446
3.74627	21.2442
3.74356	21.2986
3.74086	21.3861
3.73816	21.3609
3.73547	21.266
3.73278	21.2825
3.7301	21.3583
3.72741	21.2755
3.72474	21.1813
3.72206	21.2259
3.71939	21.2664
3.71673	21.2285
3.71406	21.2482
3.71141	21.2556
3.70875	21.2162
3.7061	21.1928
3.70345	21.2237
3.70081	21.2537
3.69817	21.1441
3.69553	21.1143
3.6929	21.1815
3.69027	21.1693
3.68765	21.1938
3.68503	21.2429
3.68241	21.2046
3.6798	21.2041
3.67719	21.2588
3.67458	21.2708
3.67198	21.2784
3.66938	21.2198
3.66678	21.2021
3.66419	21.1939
3.66161	21.0997
3.65902	21.0941
3.65644	21.1458
3.65387	21.1586
3.65129	21.154
3.64872	21.1109
3.64616	21.1786
3.64359	21.2568
3.64103	21.2421
3.63848	21.1733
3.63593	21.1529
3.63338	21.2076
3.63084	21.1902
3.6283	21.1638
3.62576	21.1533
3.62322	21.1914
3.62069	21.1835
3.61817	21.135
3.61564	21.1738
3.61312	21.2029
3.61061	21.1479
3.6081	21.0764
3.60559	21.0055
3.60308	20.9995
3.60058	21.1
3.59808	21.1292
3.59558	21.0783
3.59309	21.0608
3.59061	21.067
3.58812	21.0525
3.58564	21.0042
3.58316	20.9612
3.58069	21.0079
3.57822	21.053
3.57575	20.9968
3.57328	20.9834
3.57082	21.0113
3.56836	20.9732
3.56591	20.9356
3.56346	20.9084
3.56101	20.9492
3.55857	21.004
3.55613	20.9264
3.55369	20.9034
3.55126	20.8791
3.54883	20.7824
3.5464	20.7711
3.54397	20.8316
3.54155	20.8259
3.53914	20.7707
3.53672	20.707
3.53431	20.7337
3.5319	20.7532
3.5295	20.7501
3.5271	20.7174
3.5247	20.6659
3.52231	20.6213
3.51991	20.6234
3.51753	20.6496
3.51514	20.6722
3.51276	20.6385
3.51038	20.6158
3.50801	20.6183
3.50563	20.6146
3.50327	20.5788
3.5009	20.5763
3.49854	20.5773
3.49618	20.5853
3.49382	20.5821
3.49147	20.4909
3.48912	20.4652
3.48677	20.5205
3.48443	20.5388
3.48209	20.5779
3.47975	20.5508
3.47742	20.4522
3.47509	20.448
3.47276	20.4786
3.47044	20.4391
3.46812	20.4451
3.4658	20.4247
3.46348	20.3924
