Name: Albite (Feldspar) (K,Na)AlSi_3O_8
Type: Mineral
Class: Silicates
Subclass: Tectosilicates
Particle Size: 0-45um
Sample No.: TS-6A
Owner: JPL
Wavelength range: IR
Origin: 
Collected by JPL
Description:   





Measurement: Hemispherical reflectance
First Column: X
Second Column: Y
X Units:  Wavelength (micrometers)
Y Units:  Reflectance (percent)
First X Value: 15.3853
Last X Value: 2.00032
Number of X Values: 2256
Additional information: ts06aa.txt
 
15.3853	3.02191
15.3397	3.17733
15.2945	3.16235
15.2495	3.0325
15.2048	2.94617
15.1603	2.71253
15.1161	2.53377
15.0722	2.38561
15.0285	2.25629
14.9851	2.29775
14.9419	2.4616
14.8989	2.71392
14.8563	2.7685
14.8138	2.66285
14.7716	2.8281
14.7296	2.88196
14.6879	2.91376
14.6464	3.0657
14.6052	2.90457
14.5641	2.93013
14.5233	3.03629
14.4828	3.03953
14.4424	3.1833
14.4023	3.29465
14.3624	3.18078
14.3227	3.0337
14.2833	2.99982
14.244	3.0498
14.205	3.09215
14.1662	3.22247
14.1276	3.22164
14.0892	3.1825
14.051	3.2327
14.0131	3.07133
13.9753	2.96686
13.9377	2.98346
13.9004	2.84846
13.8632	2.74084
13.8262	2.86917
13.7895	3.14072
13.7529	3.18139
13.7165	3.02577
13.6803	3.01022
13.6443	2.98279
13.6085	2.87992
13.5729	2.87116
13.5374	2.82768
13.5022	2.76783
13.4671	2.84752
13.4322	3.07144
13.3975	3.0454
13.363	2.80254
13.3286	2.79956
13.2944	2.90472
13.2604	2.86533
13.2266	2.80627
13.193	2.83892
13.1595	2.80911
13.1262	2.69151
13.093	2.80438
13.06	2.78307
13.0272	2.62522
12.9946	2.62138
12.9621	2.70331
12.9298	2.78235
12.8976	2.89172
12.8656	2.92839
12.8337	2.85847
12.8021	2.81261
12.7705	2.78045
12.7391	2.80142
12.7079	2.85238
12.6769	3.02852
12.6459	3.21226
12.6152	3.25542
12.5845	3.25319
12.5541	3.36926
12.5238	3.67059
12.4936	3.93212
12.4635	3.94137
12.4337	4.31334
12.4039	4.92582
12.3743	5.47222
12.3448	6.15726
12.3155	6.81974
12.2863	7.35566
12.2573	8.0582
12.2284	8.82499
12.1996	9.58011
12.171	10.1817
12.1425	10.7188
12.1141	11.1834
12.0859	11.592
12.0578	11.8527
12.0298	11.8564
12.0019	11.9745
11.9742	12.1836
11.9466	12.2331
11.9192	12.1299
11.8918	12.0409
11.8646	12.0407
11.8375	11.9689
11.8106	11.8451
11.7837	11.5038
11.757	11.2894
11.7304	11.2548
11.7039	11.2438
11.6776	11.1822
11.6513	10.8465
11.6252	10.6565
11.5992	10.6857
11.5733	10.546
11.5475	10.4927
11.5219	10.5191
11.4963	10.3521
11.4709	10.3787
11.4455	10.4804
11.4203	10.4738
11.3952	10.5106
11.3702	10.4963
11.3454	10.2609
11.3206	10.0908
11.2959	9.93192
11.2714	9.59246
11.2469	9.32814
11.2226	9.13924
11.1983	8.97726
11.1742	8.74745
11.1502	8.31194
11.1263	7.99405
11.1024	7.63859
11.0787	7.36482
11.0551	7.16739
11.0316	6.85141
11.0081	6.52739
10.9848	6.45319
10.9616	6.33406
10.9385	6.22836
10.9154	6.17649
10.8925	6.01002
10.8697	5.81797
10.8469	5.65059
10.8243	5.69828
10.8017	5.76934
10.7793	5.59908
10.7569	5.44678
10.7346	5.45167
10.7125	5.37563
10.6904	5.1948
10.6684	5.16059
10.6465	5.2172
10.6247	5.30162
10.6029	5.38686
10.5813	5.35364
10.5597	5.26256
10.5383	5.28137
10.5169	5.35368
10.4956	5.33172
10.4744	5.27428
10.4533	5.24852
10.4323	5.25245
10.4113	5.36129
10.3904	5.51341
10.3697	5.61822
10.349	5.62852
10.3284	5.50125
10.3078	5.54794
10.2874	5.66585
10.267	5.68465
10.2467	5.8082
10.2265	5.93086
10.2064	5.97913
10.1863	5.9971
10.1663	6.1353
10.1464	6.35548
10.1266	6.53601
10.1069	6.65994
10.0872	6.68771
10.0676	6.69502
10.0481	6.78291
10.0287	6.85356
10.0093	6.87443
9.99005	6.95726
9.97084	7.00564
9.95169	7.02875
9.93263	7.11071
9.91364	7.19089
9.89472	7.22438
9.87587	7.33418
9.8571	7.23794
9.83839	7.11816
9.81976	7.10942
9.80119	7.09084
9.78271	7.02635
9.76428	6.91524
9.74592	6.84187
9.72764	6.795
9.70943	6.87948
9.69128	6.93024
9.6732	7.00295
9.65518	7.01814
9.63724	6.95447
9.61935	6.89674
9.60155	6.71935
9.5838	6.46321
9.56611	6.26531
9.5485	6.05304
9.53094	5.83663
9.51345	5.72291
9.49604	5.6955
9.47867	5.68613
9.46137	5.52788
9.44414	5.27368
9.42697	5.08817
9.40986	5.0067
9.39281	4.884
9.37583	4.54882
9.35891	4.49054
9.34204	4.62234
9.32524	4.73302
9.3085	4.73915
9.29182	4.63201
9.27519	4.55411
9.25863	4.52356
9.24213	4.61905
9.22568	4.73756
9.2093	4.73938
9.19297	4.61235
9.17669	4.55119
9.16048	4.65281
9.14433	4.71597
9.12823	4.76432
9.11218	4.87987
9.0962	4.90243
9.08027	4.86118
9.06439	4.8368
9.04858	4.84654
9.03281	4.98831
9.0171	4.96648
9.00145	5.00777
8.98585	5.08115
8.9703	5.18401
8.9548	5.29247
8.93937	5.27819
8.92398	5.21794
8.90865	5.28301
8.89337	5.50389
8.87814	5.58252
8.86296	5.67811
8.84784	5.72934
8.83277	5.75224
8.81774	5.72391
8.80277	5.70498
8.78786	5.77668
8.77298	5.94919
8.75816	5.98208
8.7434	6.02341
8.72868	6.0583
8.714	5.94632
8.69938	5.78742
8.68481	5.88578
8.67029	5.96776
8.65581	5.98565
8.64139	6.0999
8.62701	6.25999
8.61268	6.17769
8.5984	6.11828
8.58416	6.27854
8.56997	6.34034
8.55583	6.19203
8.54174	6.08018
8.52769	6.20111
8.51368	6.3368
8.49973	6.46017
8.48582	6.62299
8.47195	6.65836
8.45813	6.68044
8.44436	6.74804
8.43062	6.74251
8.41693	6.77193
8.4033	6.80575
8.3897	6.75846
8.37614	6.81159
8.36264	6.79139
8.34917	6.76275
8.33574	6.75292
8.32236	6.74045
8.30903	6.67049
8.29573	6.60436
8.28248	6.44665
8.26927	6.21509
8.2561	5.99516
8.24298	5.70032
8.2299	5.32565
8.21685	4.9758
8.20385	4.6238
8.19089	4.25659
8.17797	4.02724
8.16509	3.81136
8.15225	3.35145
8.13946	2.96458
8.1267	2.78015
8.11398	2.62856
8.10131	2.4077
8.08867	2.03102
8.07606	1.75554
8.0635	1.68505
8.05099	1.62226
8.0385	1.52091
8.02606	1.37006
8.01366	1.29127
8.00129	1.29198
7.98896	1.27877
7.97667	1.23038
7.96442	1.08102
7.9522	0.96314
7.94002	0.932655
7.92788	0.966424
7.91578	0.946509
7.90371	0.902985
7.89168	0.82155
7.87969	0.826883
7.86773	0.807825
7.85581	0.724331
7.84392	0.795122
7.83207	0.878817
7.82026	0.902742
7.80849	0.912392
7.79674	0.934447
7.78503	0.974587
7.77337	0.991431
7.76173	1.10978
7.75012	1.09879
7.73856	1.02727
7.72703	1.12957
7.71553	1.21262
7.70406	1.29037
7.69263	1.37302
7.68123	1.40348
7.66987	1.46451
7.65855	1.56803
7.64725	1.68706
7.63598	1.7089
7.62475	1.67473
7.61356	1.80461
7.60239	1.95465
7.59126	1.96689
7.58017	2.05418
7.5691	2.25557
7.55806	2.33285
7.54707	2.33911
7.5361	2.46452
7.52516	2.66351
7.51425	2.88188
7.50338	2.95696
7.49253	3.06431
7.48172	3.20994
7.47094	3.31145
7.46019	3.36224
7.44947	3.44875
7.43879	3.56858
7.42813	3.76222
7.4175	3.97253
7.4069	4.06068
7.39634	4.12282
7.3858	4.18085
7.37529	4.34227
7.36482	4.53153
7.35437	4.61676
7.34396	4.71208
7.33357	4.81355
7.32321	5.0132
7.31288	5.21491
7.30258	5.23756
7.29231	5.2695
7.28207	5.36816
7.27185	5.48955
7.26167	5.62506
7.25152	5.77559
7.24139	6.00692
7.23129	6.17425
7.22122	6.1689
7.21117	6.20266
7.20116	6.39947
7.19117	6.57983
7.18121	6.69526
7.17128	6.80983
7.16137	6.95848
7.1515	7.12465
7.14164	7.23524
7.13182	7.34741
7.12203	7.55757
7.11225	7.74036
7.10251	7.80053
7.0928	7.84088
7.08311	8.02997
7.07344	8.26626
7.06381	8.39153
7.0542	8.51419
7.04461	8.61467
7.03506	8.64774
7.02552	8.68692
7.01601	8.81071
7.00653	8.95473
6.99708	9.05342
6.98765	9.12325
6.97824	9.14391
6.96886	9.25537
6.95951	9.47387
6.95018	9.51321
6.94087	9.5426
6.9316	9.63885
6.92234	9.69167
6.91311	9.77092
6.90391	9.95104
6.89473	10.0743
6.88557	10.1702
6.87644	10.3151
6.86733	10.6475
6.85824	10.8
6.84918	10.7524
6.84015	10.7357
6.83114	10.8601
6.82215	11.0269
6.81319	11.126
6.80424	11.2192
6.79532	11.3499
6.78643	11.4812
6.77756	11.5483
6.76871	11.6074
6.75989	11.7129
6.75109	11.8491
6.74231	11.9474
6.73355	12.0435
6.72482	12.1956
6.71611	12.349
6.70742	12.4264
6.69875	12.4569
6.69011	12.5499
6.68149	12.7712
6.67289	12.8387
6.66431	12.8589
6.65576	12.9089
6.64722	13.1967
6.63871	13.5075
6.63022	13.4636
6.62175	13.4233
6.61331	13.5389
6.60488	13.5917
6.59648	13.7813
6.5881	14.0165
6.57974	14.2455
6.5714	14.3426
6.56308	14.2802
6.55478	14.4001
6.54651	14.4749
6.53825	14.4749
6.53001	14.5553
6.5218	14.8364
6.51361	14.8905
6.50544	14.9643
6.49729	15.2735
6.48915	15.4422
6.48104	15.4129
6.47295	15.3391
6.46488	15.299
6.45683	15.3953
6.4488	15.4354
6.44079	15.4498
6.4328	15.5342
6.42482	15.6199
6.41687	15.8728
6.40894	15.7908
6.40103	15.4565
6.39314	15.3848
6.38526	15.3631
6.37741	15.393
6.36957	15.4121
6.36176	15.2807
6.35396	15.3156
6.34618	15.4714
6.33843	15.2821
6.33069	15.0565
6.32297	15.0372
6.31527	15.0709
6.30758	15.1255
6.29992	15.0777
6.29227	15.084
6.28465	15.0705
6.27704	15.0649
6.26945	15.0609
6.26188	15.0997
6.25432	15.1062
6.24679	15.1594
6.23927	15.1879
6.23177	15.1189
6.22429	15.0912
6.21683	15.2874
6.20938	15.4046
6.20195	15.3364
6.19454	15.4224
6.18715	15.6972
6.17978	15.75
6.17242	15.7655
6.16508	15.8516
6.15776	15.9714
6.15045	16.0842
6.14317	16.1545
6.1359	16.1672
6.12864	16.2702
6.12141	16.4768
6.11419	16.7268
6.10699	16.7243
6.0998	16.6216
6.09263	16.6686
6.08549	16.7159
6.07835	16.8884
6.07123	17.0749
6.06413	17.049
6.05705	17.2752
6.04998	17.7755
6.04293	17.606
6.0359	17.3011
6.02888	17.2774
6.02187	17.3592
6.01489	17.533
6.00792	17.6175
6.00096	17.5889
5.99403	17.7033
5.98711	17.8076
5.9802	17.7449
5.97331	17.8638
5.96644	18.0142
5.95958	17.8557
5.95274	17.8192
5.94591	17.898
5.9391	18.179
5.9323	18.1235
5.92552	17.937
5.91876	18.0208
5.91201	18.0532
5.90528	18.1018
5.89856	18.3338
5.89186	18.2804
5.88517	18.4314
5.8785	18.5623
5.87184	18.2896
5.8652	18.2835
5.85857	18.2732
5.85196	18.2672
5.84536	18.3861
5.83878	18.5904
5.83221	18.7836
5.82566	18.9
5.81912	18.8303
5.81259	18.6858
5.80608	18.7206
5.79959	18.8103
5.79311	18.8773
5.78665	18.899
5.78019	18.8593
5.77376	18.9921
5.76734	19.2475
5.76093	19.1185
5.75453	18.991
5.74815	19.0762
5.74179	19.0335
5.73543	19.012
5.7291	19.0503
5.72277	19.1423
5.71646	19.163
5.71017	19.1905
5.70389	19.1288
5.69762	19.1289
5.69136	19.2148
5.68513	19.2276
5.6789	19.2957
5.67268	19.3254
5.66648	19.378
5.6603	19.5007
5.65413	19.541
5.64797	19.6872
5.64182	19.8284
5.63569	19.7372
5.62957	19.7667
5.62347	19.9064
5.61737	19.9223
5.61129	19.907
5.60522	20.0986
5.59917	20.2207
5.59313	20.1833
5.5871	20.2301
5.58109	20.4177
5.57509	20.5385
5.5691	20.5863
5.56312	20.6856
5.55716	20.9121
5.55121	21.2593
5.54528	21.5297
5.53935	21.7143
5.53344	21.9462
5.52754	22.2395
5.52166	22.5153
5.51578	22.7647
5.50992	22.9826
5.50407	23.249
5.49823	23.4948
5.49241	23.7762
5.4866	23.99
5.4808	24.2016
5.47501	24.427
5.46923	24.7304
5.46347	25.017
5.45772	25.1718
5.45198	25.3809
5.44625	25.6096
5.44054	25.8171
5.43484	26.016
5.42914	26.27
5.42347	26.6597
5.4178	26.8394
5.41214	26.9324
5.4065	27.1505
5.40087	27.4007
5.39525	27.6115
5.38964	27.7912
5.38404	28.0049
5.37846	28.2488
5.37288	28.441
5.36732	28.6004
5.36177	28.7224
5.35623	28.8792
5.35071	29.0934
5.34519	29.2103
5.33968	29.3481
5.33419	29.5281
5.32871	29.6792
5.32324	29.772
5.31778	29.8242
5.31233	29.9968
5.30689	30.1662
5.30147	30.2563
5.29605	30.3922
5.29065	30.5237
5.28525	30.6137
5.27987	30.7354
5.2745	30.8471
5.26914	30.9356
5.26379	31.0112
5.25845	31.1609
5.25312	31.2977
5.24781	31.4668
5.2425	31.6334
5.23721	31.8152
5.23192	31.9673
5.22665	32.157
5.22138	32.4173
5.21613	32.7669
5.21089	32.9159
5.20566	32.9964
5.20044	33.2079
5.19522	33.463
5.19002	33.7182
5.18483	33.9746
5.17965	34.22
5.17448	34.459
5.16933	34.6529
5.16418	34.8507
5.15904	35.1362
5.15391	35.4644
5.14879	35.7657
5.14368	35.9845
5.13859	36.1635
5.1335	36.4675
5.12842	36.7519
5.12335	36.9715
5.1183	37.2622
5.11325	37.5496
5.10821	37.8262
5.10318	38.131
5.09817	38.4131
5.09316	38.6668
5.08816	38.9815
5.08317	39.2995
5.07819	39.5718
5.07322	39.8841
5.06826	40.1896
5.06331	40.5243
5.05837	40.7674
5.05344	40.9728
5.04852	41.2113
5.04361	41.4952
5.03871	41.7279
5.03382	41.9627
5.02894	42.2844
5.02406	42.5408
5.0192	42.7898
5.01435	43.0262
5.0095	43.1973
5.00467	43.3764
4.99984	43.6264
4.99502	43.8408
4.99021	44.0078
4.98542	44.1705
4.98063	44.3888
4.97585	44.6292
4.97108	44.8163
4.96632	44.9631
4.96156	45.1303
4.95682	45.3388
4.95209	45.5185
4.94736	45.6552
4.94264	45.7525
4.93794	45.875
4.93324	46.0127
4.92855	46.0722
4.92387	46.1579
4.9192	46.3149
4.91453	46.4222
4.90988	46.5387
4.90524	46.5979
4.9006	46.6724
4.89597	46.7622
4.89135	46.8974
4.88674	47.0121
4.88214	47.1908
4.87755	47.3354
4.87296	47.3735
4.86839	47.4459
4.86382	47.6111
4.85926	47.7164
4.85471	47.8451
4.85017	47.98
4.84564	48.0486
4.84111	48.1179
4.8366	48.2035
4.83209	48.2846
4.82759	48.415
4.8231	48.527
4.81862	48.5555
4.81415	48.5873
4.80968	48.7228
4.80522	48.7907
4.80077	48.7559
4.79633	48.8049
4.7919	48.9384
4.78747	49.0183
4.78306	49.0652
4.77865	49.0893
4.77425	49.2114
4.76986	49.3294
4.76547	49.4569
4.7611	49.5277
4.75673	49.558
4.75237	49.6462
4.74802	49.7995
4.74367	49.8997
4.73934	49.9914
4.73501	50.2198
4.73069	50.4012
4.72638	50.4511
4.72207	50.4942
4.71777	50.7035
4.71348	50.9008
4.7092	51.0248
4.70493	51.0954
4.70066	51.2486
4.69641	51.4208
4.69216	51.569
4.68791	51.7407
4.68368	51.9341
4.67945	52.0648
4.67523	52.2248
4.67102	52.4124
4.66682	52.5947
4.66262	52.83
4.65843	53.0819
4.65425	53.236
4.65007	53.3809
4.64591	53.6446
4.64175	53.8906
4.6376	54.1606
4.63345	54.4507
4.62932	54.6151
4.62519	54.8388
4.62106	55.1007
4.61695	55.339
4.61284	55.6463
4.60874	55.9527
4.60465	56.195
4.60056	56.407
4.59648	56.6099
4.59241	56.8088
4.58835	56.9986
4.58429	57.2006
4.58024	57.4486
4.5762	57.69
4.57216	57.9557
4.56814	58.1991
4.56411	58.4492
4.5601	58.6748
4.55609	58.8789
4.55209	59.1042
4.5481	59.3728
4.54411	59.6491
4.54013	59.9453
4.53616	60.0964
4.5322	60.1791
4.52824	60.4308
4.52429	60.7101
4.52034	60.9292
4.51641	61.1684
4.51247	61.4143
4.50855	61.6289
4.50463	61.8073
4.50072	62.0051
4.49682	62.1795
4.49292	62.3942
4.48903	62.6265
4.48515	62.8209
4.48127	63.0294
4.4774	63.2737
4.47354	63.547
4.46968	63.7255
4.46584	63.8615
4.46199	64.152
4.45815	64.3973
4.45432	64.5407
4.4505	64.6731
4.44668	64.8378
4.44287	65.009
4.43907	65.1634
4.43527	65.3134
4.43148	65.4585
4.4277	65.6054
4.42392	65.8465
4.42015	66.0167
4.41638	66.2106
4.41262	66.4032
4.40887	66.5663
4.40513	66.7353
4.40139	66.9263
4.39765	67.0467
4.39393	67.2301
4.39021	67.3457
4.38649	67.4978
4.38278	67.7002
4.37908	67.8954
4.37539	68.0686
4.3717	68.2092
4.36801	68.3373
4.36434	68.5474
4.36067	68.737
4.357	68.9006
4.35335	69.0725
4.34969	69.1793
4.34605	69.2884
4.34241	69.4601
4.33877	69.6272
4.33514	69.7409
4.33152	69.8737
4.32791	70.0161
4.3243	70.116
4.32069	70.2467
4.3171	70.3651
4.31351	70.4324
4.30992	70.5292
4.30634	70.6364
4.30277	70.6916
4.2992	70.7604
4.29564	70.8892
4.29208	71.0157
4.28853	71.1283
4.28499	71.191
4.28145	71.2651
4.27792	71.3283
4.27439	71.3994
4.27087	71.5403
4.26735	71.7975
4.26384	72.0923
4.26034	72.3983
4.25684	72.6556
4.25335	72.6766
4.24986	72.508
4.24638	72.3662
4.24291	72.3096
4.23944	72.3398
4.23598	72.4119
4.23252	72.5277
4.22906	72.6704
4.22562	72.7531
4.22218	72.9395
4.21874	73.27
4.21531	73.5252
4.21189	73.729
4.20847	73.9995
4.20506	74.1654
4.20165	74.2653
4.19825	74.3922
4.19485	74.4859
4.19146	74.5369
4.18807	74.6151
4.18469	74.6678
4.18132	74.7482
4.17795	74.8345
4.17458	74.9547
4.17123	74.9904
4.16787	74.9951
4.16453	74.9787
4.16118	75.0403
4.15785	75.0822
4.15451	75.1255
4.15119	75.1774
4.14787	75.1744
4.14455	75.2108
4.14124	75.2879
4.13794	75.338
4.13464	75.4228
4.13134	75.4463
4.12805	75.4337
4.12477	75.486
4.12149	75.5638
4.11822	75.5131
4.11495	75.5001
4.11168	75.5102
4.10843	75.5229
4.10517	75.5702
4.10192	75.6092
4.09868	75.6051
4.09545	75.6415
4.09221	75.6504
4.08899	75.6411
4.08576	75.6105
4.08255	75.657
4.07933	75.7035
4.07613	75.6676
4.07292	75.6246
4.06973	75.6132
4.06654	75.594
4.06335	75.6341
4.06017	75.6896
4.05699	75.6946
4.05382	75.5909
4.05065	75.5439
4.04749	75.4863
4.04433	75.4191
4.04118	75.3675
4.03803	75.2719
4.03489	75.1511
4.03175	75.0897
4.02862	75.0048
4.02549	74.8886
4.02237	74.8385
4.01925	74.7167
4.01614	74.5172
4.01303	74.4043
4.00993	74.2447
4.00683	73.9721
4.00373	73.6604
4.00064	73.2806
3.99756	72.9407
3.99448	72.6922
3.9914	72.4148
3.98833	72.1577
3.98527	71.9999
3.98221	71.9255
3.97915	71.9523
3.9761	71.9771
3.97305	72.0314
3.97001	72.1128
3.96697	72.2401
3.96394	72.4758
3.96091	72.6894
3.95789	72.9812
3.95487	73.2301
3.95186	73.4437
3.94885	73.7105
3.94584	74.0326
3.94284	74.2907
3.93984	74.5869
3.93685	74.801
3.93386	74.8346
3.93088	74.8455
3.9279	74.8989
3.92493	74.9472
3.92196	75.0403
3.919	75.1107
3.91604	75.1456
3.91308	75.1581
3.91013	75.2013
3.90718	75.2407
3.90424	75.2348
3.9013	75.2217
3.89837	75.2228
3.89544	75.2518
3.89252	75.2938
3.8896	75.342
3.88668	75.3942
3.88377	75.417
3.88086	75.3884
3.87796	75.3988
3.87506	75.5218
3.87217	75.5564
3.86928	75.5306
3.86639	75.5039
3.86351	75.5132
3.86064	75.5195
3.85776	75.6142
3.8549	75.7281
3.85203	75.7285
3.84917	75.659
3.84631	75.6637
3.84346	75.6742
3.84062	75.6858
3.83777	75.7951
3.83494	75.9604
3.8321	76.0518
3.82927	76.092
3.82644	76.1531
3.82362	76.2265
3.82081	76.3275
3.81799	76.4255
3.81518	76.4419
3.81238	76.5008
3.80958	76.5371
3.80678	76.6336
3.80399	76.7575
3.8012	76.7748
3.79841	76.8102
3.79563	76.8939
3.79286	76.9418
3.79008	76.8892
3.78731	76.8882
3.78455	76.97
3.78179	76.965
3.77903	76.9688
3.77628	77.0023
3.77353	77.047
3.77079	77.0612
3.76805	77.0292
3.76531	76.9878
3.76258	76.9743
3.75985	76.9563
3.75713	76.92
3.7544	76.963
3.75169	77.0267
3.74898	77.0698
3.74627	77.0222
3.74356	76.8924
3.74086	76.8599
3.73816	76.885
3.73547	76.9139
3.73278	76.8718
3.7301	76.8586
3.72741	76.903
3.72474	76.9694
3.72206	76.9728
3.71939	76.8691
3.71673	76.8031
3.71406	76.8007
3.71141	76.8024
3.70875	76.7881
3.7061	76.7693
3.70345	76.7341
3.70081	76.7013
3.69817	76.6394
3.69553	76.679
3.6929	76.7264
3.69027	76.6831
3.68765	76.6165
3.68503	76.5678
3.68241	76.5743
3.6798	76.579
3.67719	76.5235
3.67458	76.4889
3.67198	76.4629
3.66938	76.4241
3.66678	76.4385
3.66419	76.4511
3.66161	76.4939
3.65902	76.4702
3.65644	76.3764
3.65387	76.2815
3.65129	76.219
3.64872	76.2141
3.64616	76.2612
3.64359	76.2915
3.64103	76.2623
3.63848	76.2124
3.63593	76.2103
3.63338	76.2252
3.63084	76.1512
3.6283	76.0269
3.62576	75.9656
3.62322	75.9164
3.62069	75.8844
3.61817	75.8218
3.61564	75.7073
3.61312	75.7082
3.61061	75.7919
3.6081	75.7585
3.60559	75.6901
3.60308	75.6316
3.60058	75.6366
3.59808	75.6038
3.59558	75.5516
3.59309	75.5861
3.59061	75.5307
3.58812	75.4242
3.58564	75.3467
3.58316	75.238
3.58069	75.2006
3.57822	75.2029
3.57575	75.1471
3.57328	75.0768
3.57082	75.0243
3.56836	74.8964
3.56591	74.8475
3.56346	74.8813
3.56101	74.8715
3.55857	74.7992
3.55613	74.7338
3.55369	74.6226
3.55126	74.5374
3.54883	74.4227
3.5464	74.3068
3.54397	74.2702
3.54155	74.2182
3.53914	74.0747
3.53672	73.9509
3.53431	73.941
3.5319	73.8286
3.5295	73.5773
3.5271	73.4192
3.5247	73.2449
3.52231	73.0918
3.51991	72.9138
3.51753	72.7118
3.51514	72.397
3.51276	72.1712
3.51038	71.9618
3.50801	71.6779
3.50563	71.4805
3.50327	71.3526
3.5009	71.1653
3.49854	71.0283
3.49618	70.9749
3.49382	70.9373
3.49147	70.8114
3.48912	70.7269
3.48677	70.7389
3.48443	70.7538
3.48209	70.6299
3.47975	70.471
3.47742	70.4113
3.47509	70.4164
3.47276	70.4537
3.47044	70.6453
3.46812	70.8115
3.4658	70.9136
3.46348	71.0401
