Name: Hypersthene Gabbro
Type: Rock
Class: Igneous
Subclass:  Mafic 
Particle Size: Solid surface
Sample No.: Ward41.txt
Owner: JPL
Wavelength range:  IR 
Origin: Ward's Collection of American Rocks.  Sample locality - Salem, Essex County, Massachusetts.
Collected by:  Ward's Natural Science
Description: A coarse-textured, dark-colored rock composed of plagioclase,
hornblende and biotite.
Geologic age - Early Paleozoic.



Measurement: Hemispherical reflectance
First Column: X
Second Column: Y
X Units: Wavelength (micrometers)
Y Units: Reflectance (percent)
First X Value: 15.3871
Last X Value: 1.9998
Number of X Values: 2257
Additional information: None

15.3871   5.83932
15.3416   5.83368
15.2964   5.99985
15.2514   5.09558
15.2066   3.72623
15.1622   4.04660
15.1180   4.31966
15.0740   3.29517
15.0303   3.08847
14.9869   3.31077
14.9437   2.82233
14.9008   2.99941
14.8581   3.71029
14.8156   3.98194
14.7734   3.50802
14.7314   3.24740
14.6897   4.12909
14.6482   4.12797
14.6069   3.68776
14.5659   3.50867
14.5251   3.85590
14.4845   4.24639
14.4442   4.56823
14.4041   4.15515
14.3642   4.20758
14.3245   5.04753
14.2850   5.08477
14.2458   5.06911
14.2068   5.09551
14.1679   4.71369
14.1293   4.96044
14.0909   4.92672
14.0528   5.08181
14.0148   5.64921
13.9770   5.67263
13.9394   5.56957
13.9021   5.05488
13.8649   5.24386
13.8279   5.08739
13.7911   4.80670
13.7546   4.90074
13.7182   5.12061
13.6820   5.38276
13.6460   5.29790
13.6101   5.10116
13.5745   5.15602
13.5391   4.83100
13.5038   4.45367
13.4687   4.43209
13.4339   4.88180
13.3991   4.82643
13.3646   4.64539
13.3302   5.09720
13.2961   5.23386
13.2621   5.07216
13.2282   5.24098
13.1946   5.24804
13.1611   5.44740
13.1278   5.30017
13.0946   4.93136
13.0616   4.59327
13.0288   4.44049
12.9962   4.70856
12.9637   5.01172
12.9313   5.01559
12.8992   4.86042
12.8672   4.90128
12.8353   4.97006
12.8036   5.21378
12.7721   5.29739
12.7407   5.14187
12.7095   4.95263
12.6784   4.70292
12.6475   4.80200
12.6167   4.76551
12.5861   4.43186
12.5556   4.40972
12.5253   4.73447
12.4951   4.68211
12.4651   4.52049
12.4352   4.70618
12.4054   4.88111
12.3758   4.54495
12.3463   4.45760
12.3170   4.66413
12.2878   4.74989
12.2588   4.69877
12.2299   4.96996
12.2011   5.34577
12.1725   5.25002
12.1439   5.10713
12.1156   5.25295
12.0873   5.65560
12.0592   5.94700
12.0312   5.90003
12.0034   5.75323
11.9757   5.78142
11.9481   5.74721
11.9206   5.43124
11.8933   5.66866
11.8661   6.13572
11.8390   6.15889
11.8120   6.15116
11.7852   6.39120
11.7584   6.66341
11.7318   6.79570
11.7053   6.79250
11.6790   6.77609
11.6527   6.81101
11.6266   6.73009
11.6006   6.77120
11.5747   7.03115
11.5489   7.11656
11.5233   7.29245
11.4977   7.64929
11.4723   7.46279
11.4469   7.32343
11.4217   7.66874
11.3966   7.92439
11.3716   8.02031
11.3468   8.16011
11.3220   8.23693
11.2973   8.30027
11.2728   8.59753
11.2483   8.69069
11.2240   8.72607
11.1997   8.76668
11.1756   8.66962
11.1515   9.04984
11.1276   9.26141
11.1038   9.35503
11.0801   9.33864
11.0564   9.30440
11.0329   9.46178
11.0095   9.54560
10.9862   9.78265
10.9629   9.79616
10.9398  10.13870
10.9168  10.48990
10.8938  10.44300
10.8710  10.46600
10.8483  10.61630
10.8256  10.52390
10.8031  10.74660
10.7806  10.95420
10.7582  10.77780
10.7360  10.89390
10.7138  11.24710
10.6917  11.69630
10.6697  11.89330
10.6478  11.97080
10.6260  12.02380
10.6042  12.12720
10.5826  12.19850
10.5610  12.59590
10.5396  13.06590
10.5182  13.12610
10.4969  13.18160
10.4757  13.39870
10.4546  13.67920
10.4335  13.89380
10.4126  14.17280
10.3917  14.25340
10.3709  14.39350
10.3502  14.79490
10.3296  15.22120
10.3091  15.55170
10.2886  15.75230
10.2683  16.06250
10.2480  16.33150
10.2277  16.34270
10.2076  16.66120
10.1876  16.67080
10.1676  16.65890
10.1477  17.10430
10.1279  17.80370
10.1081  18.25460
10.0885  18.37520
10.0689  18.43050
10.0494  18.73080
10.0299  19.09950
10.0106  18.94290
 9.9913  18.84710
 9.9720  19.24140
 9.9529  19.53370
 9.9338  19.89730
 9.9148  20.08180
 9.8959  20.46720
 9.8771  20.61490
 9.8583  20.35690
 9.8396  20.01890
 9.8210  20.03010
 9.8024  20.12230
 9.7839  20.18600
 9.7655  20.09580
 9.7471  19.98700
 9.7288  20.15710
 9.7106  20.58890
 9.6925  20.81340
 9.6744  20.88080
 9.6564  21.09430
 9.6384  21.29490
 9.6205  21.04870
 9.6027  20.86610
 9.5850  20.85280
 9.5673  20.61290
 9.5497  20.21180
 9.5321  20.15960
 9.5146  19.78960
 9.4972  18.75680
 9.4798  18.13540
 9.4625  18.09440
 9.4453  17.91080
 9.4281  17.57300
 9.4110  17.35010
 9.3940  17.47350
 9.3770  17.47270
 9.3600  17.31680
 9.3432  17.01560
 9.3264  16.69900
 9.3096  16.60430
 9.2930  16.57630
 9.2763  16.46650
 9.2598  16.23910
 9.2432  16.24800
 9.2268  15.96910
 9.2104  15.76850
 9.1941  15.86740
 9.1778  15.91970
 9.1616  16.14870
 9.1454  15.78340
 9.1293  15.42840
 9.1133  15.49760
 9.0973  15.69240
 9.0814  15.70050
 9.0655  15.58570
 9.0497  15.30380
 9.0339  15.31700
 9.0182  15.28310
 9.0025  15.27890
 8.9870  15.61500
 8.9714  15.82200
 8.9559  15.94800
 8.9405  15.87780
 8.9251  15.37450
 8.9097  15.30590
 8.8945  15.37070
 8.8792  15.58050
 8.8641  16.12230
 8.8489  16.12010
 8.8338  15.91610
 8.8188  16.23960
 8.8039  16.44540
 8.7889  16.56290
 8.7741  16.70380
 8.7592  16.76710
 8.7445  16.50610
 8.7297  16.29370
 8.7151  16.17290
 8.7005  15.96950
 8.6859  15.48760
 8.6714  15.19450
 8.6569  15.54720
 8.6425  15.48580
 8.6281  14.95730
 8.6137  14.86920
 8.5994  15.18670
 8.5852  15.44240
 8.5710  15.48860
 8.5569  15.23870
 8.5428  15.07120
 8.5287  15.21460
 8.5147  15.42700
 8.5008  15.61070
 8.4869  15.44900
 8.4730  15.05540
 8.4592  14.97580
 8.4454  14.66690
 8.4316  14.45230
 8.4180  14.84100
 8.4043  14.84290
 8.3907  14.31950
 8.3772  14.05560
 8.3637  14.19580
 8.3502  13.73160
 8.3368  13.01490
 8.3234  12.53080
 8.3100  12.39360
 8.2967  12.27380
 8.2835  11.75650
 8.2703  10.99810
 8.2571  10.23580
 8.2440   9.54887
 8.2309   9.21942
 8.2179   8.80574
 8.2049   8.25935
 8.1919   7.63190
 8.1790   7.10253
 8.1661   6.67189
 8.1532   6.06104
 8.1404   5.60654
 8.1277   5.10911
 8.1150   4.76139
 8.1023   4.53156
 8.0897   4.35017
 8.0770   4.02357
 8.0645   3.61427
 8.0520   3.55875
 8.0395   3.37449
 8.0270   3.03338
 8.0146   2.73269
 8.0023   2.64970
 7.9899   2.88212
 7.9776   2.88104
 7.9654   2.56016
 7.9532   2.58815
 7.9410   2.39953
 7.9288   2.19233
 7.9167   2.31236
 7.9047   2.18469
 7.8926   1.89928
 7.8807   1.87508
 7.8687   2.11531
 7.8568   2.21494
 7.8449   2.07091
 7.8330   2.04041
 7.8212   2.04927
 7.8094   2.05594
 7.7977   2.02836
 7.7860   2.08082
 7.7743   2.19200
 7.7627   2.13665
 7.7511   1.99017
 7.7395   1.97918
 7.7280   2.07210
 7.7165   1.94919
 7.7050   1.86256
 7.6936   1.74068
 7.6822   1.74313
 7.6708   1.99681
 7.6595   1.99597
 7.6482   1.89382
 7.6369   2.05321
 7.6257   2.31541
 7.6145   2.28322
 7.6033   2.15118
 7.5922   1.99312
 7.5811   1.66263
 7.5700   1.87148
 7.5590   2.18954
 7.5480   2.30506
 7.5370   2.35676
 7.5261   2.34954
 7.5152   2.07455
 7.5043   2.02697
 7.4935   2.12530
 7.4826   2.20649
 7.4718   2.17732
 7.4611   1.93398
 7.4504   1.96986
 7.4397   2.26916
 7.4290   2.28468
 7.4184   2.14999
 7.4078   2.37251
 7.3972   2.61377
 7.3867   2.51096
 7.3762   2.32046
 7.3657   2.32424
 7.3553   2.42910
 7.3449   2.26952
 7.3345   2.21586
 7.3241   2.23900
 7.3138   2.22082
 7.3035   2.34457
 7.2932   2.13941
 7.2830   2.05020
 7.2727   2.24015
 7.2626   2.54854
 7.2524   2.62741
 7.2423   2.48800
 7.2322   2.36740
 7.2221   2.40771
 7.2120   2.44311
 7.2020   2.56308
 7.1921   2.72559
 7.1821   2.70175
 7.1722   2.44512
 7.1623   2.36228
 7.1524   2.55040
 7.1425   2.53197
 7.1327   2.55272
 7.1229   2.31207
 7.1131   2.24063
 7.1034   2.63305
 7.0937   2.98688
 7.0840   2.80727
 7.0743   2.59140
 7.0647   2.65350
 7.0551   2.77985
 7.0455   2.96215
 7.0359   2.90216
 7.0264   2.90929
 7.0169   3.00417
 7.0074   2.94623
 6.9979   2.89658
 6.9885   2.82121
 6.9791   2.75309
 6.9697   2.82483
 6.9604   2.70430
 6.9510   2.73502
 6.9417   2.89221
 6.9324   2.97080
 6.9232   2.82260
 6.9140   2.68426
 6.9047   2.58704
 6.8956   2.49284
 6.8864   2.83945
 6.8773   3.10895
 6.8682   3.20506
 6.8591   2.94057
 6.8500   2.60600
 6.8410   2.66532
 6.8320   2.81039
 6.8230   2.93803
 6.8140   2.92039
 6.8051   2.89112
 6.7962   2.79562
 6.7873   2.85705
 6.7784   2.95300
 6.7695   3.08276
 6.7607   2.90729
 6.7519   2.71088
 6.7431   2.67286
 6.7344   2.69198
 6.7256   2.79952
 6.7169   2.85212
 6.7082   3.02669
 6.6996   3.18708
 6.6909   3.10732
 6.6823   2.83485
 6.6737   2.89827
 6.6651   3.06087
 6.6566   2.96072
 6.6480   2.90743
 6.6395   3.10243
 6.6310   3.11062
 6.6226   3.13797
 6.6141   3.03784
 6.6057   2.85043
 6.5973   2.97499
 6.5889   3.03476
 6.5805   3.05532
 6.5722   3.08592
 6.5639   3.19349
 6.5556   3.17629
 6.5473   3.31121
 6.5390   3.34120
 6.5308   3.14806
 6.5226   3.08147
 6.5144   3.15617
 6.5062   3.08448
 6.4981   2.93618
 6.4900   2.80684
 6.4818   3.07235
 6.4737   3.17623
 6.4657   3.07062
 6.4576   3.11158
 6.4496   3.16569
 6.4416   3.23900
 6.4336   3.21184
 6.4256   3.09097
 6.4177   2.96247
 6.4097   2.97807
 6.4018   3.12340
 6.3939   3.16344
 6.3860   3.18556
 6.3782   3.02147
 6.3704   2.99639
 6.3625   3.16639
 6.3547   3.29661
 6.3470   3.31745
 6.3392   3.17513
 6.3315   2.94997
 6.3237   2.92843
 6.3160   2.97329
 6.3083   3.00475
 6.3007   3.20915
 6.2930   3.31248
 6.2854   3.27968
 6.2778   3.34191
 6.2702   3.21141
 6.2626   3.19760
 6.2551   3.22925
 6.2476   3.13969
 6.2400   2.90197
 6.2325   2.91241
 6.2251   2.94557
 6.2176   2.92409
 6.2101   3.06962
 6.2027   3.03595
 6.1953   3.02474
 6.1879   3.22698
 6.1805   3.40220
 6.1732   3.44357
 6.1658   3.16053
 6.1585   3.00241
 6.1512   3.19822
 6.1439   3.19292
 6.1367   2.97225
 6.1294   3.19535
 6.1222   3.23217
 6.1149   2.86405
 6.1077   2.94545
 6.1006   3.16409
 6.0934   3.08678
 6.0862   3.15411
 6.0791   3.36609
 6.0720   3.21030
 6.0649   3.20362
 6.0578   3.35017
 6.0507   3.38995
 6.0437   3.22060
 6.0366   3.04278
 6.0296   3.19323
 6.0226   3.47257
 6.0156   3.39291
 6.0087   3.16862
 6.0017   3.13456
 5.9948   3.18268
 5.9878   3.07459
 5.9809   2.89008
 5.9740   2.84284
 5.9672   3.07375
 5.9603   3.28176
 5.9535   3.42965
 5.9466   3.44257
 5.9398   3.39344
 5.9330   3.24105
 5.9262   3.19641
 5.9195   3.29906
 5.9127   3.33331
 5.9060   3.36643
 5.8993   3.58092
 5.8926   3.62810
 5.8859   3.43999
 5.8792   3.29705
 5.8726   3.26877
 5.8659   3.25811
 5.8593   3.42578
 5.8527   3.52432
 5.8461   3.39735
 5.8395   3.32524
 5.8329   3.26989
 5.8264   3.40126
 5.8198   3.52987
 5.8133   3.77790
 5.8068   3.76628
 5.8003   3.56138
 5.7938   3.45896
 5.7874   3.53351
 5.7809   3.71984
 5.7745   3.59958
 5.7680   3.37264
 5.7616   3.39947
 5.7552   3.58857
 5.7489   3.80219
 5.7425   3.77972
 5.7361   3.58744
 5.7298   3.52030
 5.7235   3.49289
 5.7172   3.74469
 5.7109   4.03113
 5.7046   3.76522
 5.6983   3.58956
 5.6921   3.76103
 5.6858   3.72358
 5.6796   3.76155
 5.6734   3.83121
 5.6672   3.74065
 5.6610   3.80312
 5.6548   3.91199
 5.6487   3.88959
 5.6425   3.96529
 5.6364   4.16955
 5.6303   4.00798
 5.6242   3.80289
 5.6181   3.78357
 5.6120   3.99776
 5.6059   4.17059
 5.5999   4.05445
 5.5938   3.98214
 5.5878   3.84922
 5.5818   3.79734
 5.5758   3.85916
 5.5698   3.73755
 5.5638   3.78624
 5.5578   4.14318
 5.5519   4.15233
 5.5460   3.75186
 5.5400   3.72568
 5.5341   4.01172
 5.5282   4.23161
 5.5223   4.19142
 5.5164   4.09277
 5.5106   4.01448
 5.5047   4.13292
 5.4989   4.15779
 5.4931   3.99837
 5.4873   4.17706
 5.4815   4.30391
 5.4757   4.37971
 5.4699   4.44409
 5.4641   4.42845
 5.4584   4.33779
 5.4527   4.14182
 5.4469   4.28780
 5.4412   4.36020
 5.4355   4.22724
 5.4298   4.18134
 5.4241   4.29900
 5.4185   4.39180
 5.4128   4.43064
 5.4072   4.46174
 5.4015   4.39467
 5.3959   4.35380
 5.3903   4.31166
 5.3847   4.31442
 5.3791   4.42431
 5.3735   4.44672
 5.3680   4.46959
 5.3624   4.50470
 5.3569   4.57240
 5.3514   4.60233
 5.3458   4.56835
 5.3403   4.58976
 5.3348   4.64830
 5.3294   4.60932
 5.3239   4.67705
 5.3184   4.61461
 5.3130   4.40476
 5.3075   4.33406
 5.3021   4.35625
 5.2967   4.51456
 5.2913   4.68346
 5.2859   4.62060
 5.2805   4.66555
 5.2751   4.77518
 5.2698   4.76644
 5.2644   4.82763
 5.2591   4.77211
 5.2538   4.75019
 5.2485   4.56315
 5.2431   4.56243
 5.2378   4.61424
 5.2326   4.61483
 5.2273   4.98769
 5.2220   5.05208
 5.2168   4.72652
 5.2115   4.71818
 5.2063   4.71619
 5.2011   4.81700
 5.1959   5.16126
 5.1907   5.27243
 5.1855   4.97806
 5.1803   4.82296
 5.1751   4.82915
 5.1700   4.89300
 5.1648   4.92949
 5.1597   4.98930
 5.1545   5.14706
 5.1494   5.22554
 5.1443   5.17367
 5.1392   5.18112
 5.1341   5.22047
 5.1291   5.21091
 5.1240   5.00923
 5.1189   4.98387
 5.1139   4.91450
 5.1088   4.99703
 5.1038   5.09882
 5.0988   5.16789
 5.0938   5.34303
 5.0888   5.45149
 5.0838   5.47959
 5.0788   5.41893
 5.0738   5.25417
 5.0689   5.08568
 5.0639   5.13525
 5.0590   5.31299
 5.0541   5.35057
 5.0491   5.19671
 5.0442   5.11941
 5.0393   5.22866
 5.0344   5.30890
 5.0296   5.39938
 5.0247   5.55399
 5.0198   5.47684
 5.0150   5.33666
 5.0101   5.52446
 5.0053   5.60529
 5.0004   5.49613
 4.9956   5.63776
 4.9908   5.68150
 4.9860   5.60241
 4.9812   5.68965
 4.9765   5.57225
 4.9717   5.61776
 4.9669   5.81301
 4.9622   5.80203
 4.9574   5.46461
 4.9527   5.40501
 4.9480   5.68723
 4.9432   5.69930
 4.9385   5.77003
 4.9338   5.65735
 4.9291   5.39094
 4.9245   5.58677
 4.9198   5.70125
 4.9151   5.65960
 4.9105   5.86529
 4.9058   5.87546
 4.9012   5.68699
 4.8966   5.59168
 4.8919   5.62561
 4.8873   5.59975
 4.8827   5.77387
 4.8781   6.05266
 4.8736   5.88165
 4.8690   5.91062
 4.8644   6.00518
 4.8599   5.96845
 4.8553   6.02863
 4.8508   5.91527
 4.8462   5.80937
 4.8417   5.99049
 4.8372   5.98899
 4.8327   5.99890
 4.8282   5.97103
 4.8237   5.94563
 4.8192   5.98153
 4.8147   5.84244
 4.8103   5.94314
 4.8058   6.17156
 4.8014   6.10188
 4.7969   5.96149
 4.7925   5.96960
 4.7881   6.01579
 4.7836   5.99394
 4.7792   6.19553
 4.7748   6.32703
 4.7704   6.03671
 4.7660   5.85691
 4.7617   5.96279
 4.7573   6.09833
 4.7530   6.33883
 4.7486   6.49912
 4.7443   6.56562
 4.7399   6.38571
 4.7356   6.19338
 4.7313   6.33817
 4.7270   6.22608
 4.7226   6.15132
 4.7184   6.24777
 4.7141   6.34661
 4.7098   6.38981
 4.7055   6.39471
 4.7012   6.56359
 4.6970   6.38384
 4.6927   6.26108
 4.6885   6.34577
 4.6842   6.25534
 4.6800   6.08689
 4.6758   6.35942
 4.6716   6.48253
 4.6674   6.62189
 4.6632   6.79532
 4.6590   6.63042
 4.6548   6.62153
 4.6506   6.72991
 4.6465   6.80149
 4.6423   6.80124
 4.6382   6.80404
 4.6340   6.75750
 4.6299   6.62440
 4.6258   6.54956
 4.6216   6.82739
 4.6175   6.98718
 4.6134   6.78957
 4.6093   6.76173
 4.6052   7.01443
 4.6011   7.06265
 4.5971   7.05924
 4.5930   7.07147
 4.5889   7.11124
 4.5849   7.28377
 4.5808   7.36262
 4.5768   7.23660
 4.5727   7.11800
 4.5687   6.97159
 4.5647   6.94037
 4.5607   7.02234
 4.5567   7.00190
 4.5526   7.11242
 4.5487   7.28048
 4.5447   7.40345
 4.5407   7.48539
 4.5367   7.54954
 4.5328   7.67517
 4.5288   7.58894
 4.5248   7.35377
 4.5209   7.44119
 4.5170   7.53583
 4.5130   7.53165
 4.5091   7.58310
 4.5052   7.57200
 4.5013   7.61603
 4.4974   7.60712
 4.4935   7.73370
 4.4896   7.75079
 4.4857   7.78496
 4.4818   7.76105
 4.4779   7.61992
 4.4741   7.72308
 4.4702   7.93065
 4.4664   7.90721
 4.4625   7.77312
 4.4587   7.79598
 4.4549   7.99624
 4.4510   7.97464
 4.4472   7.96704
 4.4434   8.04352
 4.4396   8.13124
 4.4358   8.07350
 4.4320   8.08010
 4.4282   8.16235
 4.4245   8.18238
 4.4207   8.08830
 4.4169   8.05115
 4.4132   8.24143
 4.4094   8.24460
 4.4057   8.13598
 4.4019   8.29445
 4.3982   8.48941
 4.3945   8.41343
 4.3907   8.28776
 4.3870   8.24834
 4.3833   8.41100
 4.3796   8.45338
 4.3759   8.26819
 4.3722   8.35393
 4.3685   8.74958
 4.3649   8.67240
 4.3612   8.58811
 4.3575   8.71683
 4.3539   8.80425
 4.3502   8.69879
 4.3466   8.61651
 4.3429   8.69314
 4.3393   8.95456
 4.3357   9.01916
 4.3320   9.05206
 4.3284   8.92403
 4.3248   9.04888
 4.3212   9.28245
 4.3176   9.26832
 4.3140   9.12528
 4.3105   8.98607
 4.3069   8.87871
 4.3033   8.81190
 4.2997   8.75974
 4.2962   8.80772
 4.2926   8.82288
 4.2890   8.65215
 4.2855   8.57081
 4.2820   8.70081
 4.2784   9.06577
 4.2749   9.25441
 4.2714   9.23479
 4.2679   9.24276
 4.2644   9.25397
 4.2609   9.35290
 4.2574   9.10299
 4.2539   8.85885
 4.2504   9.19553
 4.2469   9.44268
 4.2434   9.33404
 4.2400   9.55771
 4.2365   9.69903
 4.2330   9.70988
 4.2296   9.64620
 4.2261   9.48108
 4.2227   9.46126
 4.2193   9.53557
 4.2158   9.63349
 4.2124   9.59079
 4.2090   9.42581
 4.2056   9.51515
 4.2022   9.67199
 4.1988   9.72722
 4.1954   9.64908
 4.1920   9.68401
 4.1886   9.88465
 4.1852  10.02960
 4.1818   9.92345
 4.1785   9.56501
 4.1751   9.73012
 4.1717  10.01690
 4.1684   9.88586
 4.1650   9.85127
 4.1617   9.86583
 4.1584  10.04220
 4.1550   9.90775
 4.1517   9.70028
 4.1484   9.85205
 4.1451  10.30280
 4.1418  10.47680
 4.1384  10.25140
 4.1351  10.09440
 4.1319  10.15880
 4.1286  10.09720
 4.1253  10.20660
 4.1220  10.20870
 4.1187  10.12930
 4.1155  10.04760
 4.1122   9.97193
 4.1089   9.91262
 4.1057  10.04510
 4.1024  10.10680
 4.0992  10.07420
 4.0959  10.30730
 4.0927  10.49950
 4.0895  10.22170
 4.0863   9.90940
 4.0830  10.17340
 4.0798  10.29170
 4.0766  10.13070
 4.0734  10.28530
 4.0702  10.36940
 4.0670  10.31920
 4.0639  10.24380
 4.0607  10.13550
 4.0575  10.04980
 4.0543  10.24850
 4.0511  10.53930
 4.0480  10.44040
 4.0448  10.11560
 4.0417  10.02390
 4.0385  10.02270
 4.0354  10.06550
 4.0323   9.91902
 4.0291   9.86690
 4.0260   9.94560
 4.0229  10.07110
 4.0197  10.01700
 4.0166   9.73501
 4.0135   9.55562
 4.0104   9.46793
 4.0073   9.64892
 4.0042   9.74966
 4.0011   9.66174
 3.9981   9.45140
 3.9950   9.24819
 3.9919   9.15021
 3.9888   9.31701
 3.9857   9.20644
 3.9827   9.11726
 3.9796   9.32959
 3.9766   9.41408
 3.9735   9.57388
 3.9705   9.68432
 3.9675   9.76999
 3.9644   9.74239
 3.9614   9.65118
 3.9584   9.57727
 3.9554   9.45256
 3.9523   9.37580
 3.9493   9.49323
 3.9463   9.59064
 3.9433   9.73879
 3.9403   9.99057
 3.9373  10.07770
 3.9343   9.96784
 3.9314   9.98010
 3.9284  10.03750
 3.9254   9.98423
 3.9224   9.98231
 3.9195  10.23340
 3.9165  10.50980
 3.9136  10.26900
 3.9106  10.30080
 3.9077  10.50610
 3.9047  10.43250
 3.9018  10.37130
 3.8988  10.03850
 3.8959  10.25250
 3.8930  10.53070
 3.8901  10.39370
 3.8872  10.19990
 3.8842  10.22730
 3.8813  10.31260
 3.8784  10.29620
 3.8755  10.25330
 3.8726  10.38750
 3.8697  10.48080
 3.8669  10.44670
 3.8640  10.42240
 3.8611  10.55290
 3.8582  10.16520
 3.8554   9.96078
 3.8525  10.17590
 3.8496  10.47660
 3.8468  10.53510
 3.8439  10.58870
 3.8411  10.51050
 3.8382  10.42100
 3.8354  10.15450
