Name: Glauconite (K,Na)(Fe^3+,Al,Mg)_2(Si,Al)_4O_10(OH)_2
Type: Mineral
Class: Silicates
Subclass: Phyllosilicates
Particle Size: 0-45um
Sample No.: PS-19A
Owner: JPL
Wavelength range: VNIR-SWIR
Origin: USA, New Jersey.
Collected by:   Ward's
Description:




 
Measurement: Hemispherical reflectance
First Column: X
Second Column: Y
X Units: Wavelength (micrometers)
Y Units: Reflectance (percent)
First X Value: 2.500
Last X Value: 0.400
Number of X Values: 2101
Additional information: ps19aa.txt

2.500  47.734164
2.499  47.469568
2.498  47.717656
2.497  47.608730
2.496  47.511293
2.495  47.723095
2.494  47.729533
2.493  47.730516
2.492  47.753257
2.491  47.689336
2.490  47.776902
2.489  47.928099
2.488  48.045133
2.487  47.904790
2.486  47.986057
2.485  47.984919
2.484  48.052216
2.483  47.988770
2.482  48.083444
2.481  48.212672
2.480  48.123555
2.479  48.131680
2.478  48.279405
2.477  48.210771
2.476  48.356102
2.475  48.310114
2.474  48.504645
2.473  48.520473
2.472  48.484284
2.471  48.487566
2.470  48.605907
2.469  48.641128
2.468  48.830030
2.467  48.701348
2.466  48.907246
2.465  48.944930
2.464  49.007392
2.463  48.981760
2.462  49.156076
2.461  49.120979
2.460  49.246508
2.459  49.119187
2.458  49.234345
2.457  49.305327
2.456  49.441406
2.455  49.481647
2.454  49.536279
2.453  49.456756
2.452  49.684801
2.451  49.629674
2.450  49.794085
2.449  49.781576
2.448  49.918185
2.447  49.931153
2.446  50.017263
2.445  50.028299
2.444  50.061473
2.443  50.063357
2.442  50.208105
2.441  50.236823
2.440  50.346878
2.439  50.304107
2.438  50.461424
2.437  50.522210
2.436  50.539982
2.435  50.458238
2.434  50.645853
2.433  50.761772
2.432  50.865594
2.431  50.820664
2.430  50.869544
2.429  50.891110
2.428  51.060389
2.427  51.084604
2.426  51.166641
2.425  51.151832
2.424  51.229911
2.423  51.278313
2.422  51.350961
2.421  51.389319
2.420  51.507755
2.419  51.451271
2.418  51.571698
2.417  51.509167
2.416  51.551335
2.415  51.595426
2.414  51.605702
2.413  51.699696
2.412  51.778555
2.411  51.699342
2.410  51.689594
2.409  51.682440
2.408  51.712049
2.407  51.676286
2.406  51.746878
2.405  51.702489
2.404  51.757160
2.403  51.705574
2.402  51.697218
2.401  51.637389
2.400  51.636568
2.399  51.567641
2.398  51.626499
2.397  51.596450
2.396  51.539399
2.395  51.485148
2.394  51.483815
2.393  51.358460
2.392  51.336872
2.391  51.261737
2.390  51.174473
2.389  51.182822
2.388  51.092590
2.387  51.034394
2.386  50.962917
2.385  50.808447
2.384  50.740049
2.383  50.705637
2.382  50.628887
2.381  50.531884
2.380  50.466377
2.379  50.380235
2.378  50.309055
2.377  50.209502
2.376  50.184189
2.375  50.116454
2.374  50.037124
2.373  50.005454
2.372  49.930309
2.371  49.842083
2.370  49.812837
2.369  49.779038
2.368  49.796955
2.367  49.782382
2.366  49.740323
2.365  49.702819
2.364  49.729004
2.363  49.736511
2.362  49.743666
2.361  49.753407
2.360  49.783547
2.359  49.866639
2.358  49.943725
2.357  49.944449
2.356  49.979520
2.355  50.091671
2.354  50.152180
2.353  50.179693
2.352  50.243141
2.351  50.315268
2.350  50.398873
2.349  50.487797
2.348  50.548458
2.347  50.577604
2.346  50.645402
2.345  50.723537
2.344  50.763361
2.343  50.838059
2.342  50.872154
2.341  50.895437
2.340  50.913495
2.339  50.945752
2.338  50.919336
2.337  50.974986
2.336  51.016583
2.335  50.985487
2.334  50.919194
2.333  50.908840
2.332  50.896674
2.331  50.809574
2.330  50.749763
2.329  50.724350
2.328  50.612685
2.327  50.524692
2.326  50.344115
2.325  50.247885
2.324  50.147308
2.323  49.992202
2.322  49.777307
2.321  49.709302
2.320  49.614316
2.319  49.542994
2.318  49.358108
2.317  49.227972
2.316  49.130047
2.315  49.027535
2.314  48.888051
2.313  48.873130
2.312  48.773163
2.311  48.769329
2.310  48.735841
2.309  48.683605
2.308  48.666163
2.307  48.720885
2.306  48.744146
2.305  48.838260
2.304  48.881948
2.303  48.978964
2.302  49.036803
2.301  49.191119
2.300  49.293722
2.299  49.428908
2.298  49.632636
2.297  49.800183
2.296  49.867533
2.295  50.158626
2.294  50.299307
2.293  50.447565
2.292  50.612578
2.291  50.811357
2.290  50.961378
2.289  51.226661
2.288  51.352368
2.287  51.591149
2.286  51.717118
2.285  51.897084
2.284  52.058033
2.283  52.184921
2.282  52.277552
2.281  52.451581
2.280  52.577719
2.279  52.694631
2.278  52.633102
2.277  52.731396
2.276  52.815767
2.275  52.936131
2.274  52.865811
2.273  52.990697
2.272  52.952535
2.271  53.020913
2.270  52.990442
2.269  53.020656
2.268  52.976107
2.267  53.016985
2.266  52.918519
2.265  53.020332
2.264  52.960168
2.263  52.914895
2.262  52.889121
2.261  52.876216
2.260  52.865539
2.259  52.793445
2.258  52.861944
2.257  52.770982
2.256  52.799031
2.255  52.885601
2.254  52.832678
2.253  52.819601
2.252  52.810309
2.251  52.899870
2.250  52.914065
2.249  52.899873
2.248  52.962960
2.247  53.031003
2.246  53.055121
2.245  53.134525
2.244  53.100558
2.243  53.199533
2.242  53.294633
2.241  53.345335
2.240  53.387964
2.239  53.485476
2.238  53.474616
2.237  53.621628
2.236  53.586949
2.235  53.717056
2.234  53.823017
2.233  53.917133
2.232  53.857869
2.231  54.055165
2.230  54.031964
2.229  54.141260
2.228  54.150009
2.227  54.276693
2.226  54.350316
2.225  54.418198
2.224  54.389301
2.223  54.499882
2.222  54.510069
2.221  54.589257
2.220  54.598103
2.219  54.660663
2.218  54.562017
2.217  54.763285
2.216  54.742330
2.215  54.816465
2.214  54.842958
2.213  54.868379
2.212  54.914654
2.211  54.862251
2.210  54.877041
2.209  54.958262
2.208  54.892017
2.207  54.990405
2.206  54.976416
2.205  54.952686
2.204  55.082483
2.203  55.097632
2.202  55.028264
2.201  55.136883
2.200  55.084827
2.199  55.240087
2.198  55.116966
2.197  55.218580
2.196  55.136249
2.195  55.255345
2.194  55.286687
2.193  55.295883
2.192  55.357987
2.191  55.380466
2.190  55.389073
2.189  55.431237
2.188  55.339527
2.187  55.466007
2.186  55.414793
2.185  55.498484
2.184  55.432168
2.183  55.504724
2.182  55.428389
2.181  55.610855
2.180  55.525933
2.179  55.607689
2.178  55.654732
2.177  55.664942
2.176  55.591442
2.175  55.706344
2.174  55.595305
2.173  55.691420
2.172  55.677583
2.171  55.725931
2.170  55.681367
2.169  55.766576
2.168  55.770191
2.167  55.803445
2.166  55.760405
2.165  55.818870
2.164  55.774791
2.163  55.799495
2.162  55.788531
2.161  55.787165
2.160  55.821378
2.159  55.804878
2.158  55.761037
2.157  55.777868
2.156  55.839013
2.155  55.821855
2.154  55.718143
2.153  55.740905
2.152  55.776995
2.151  55.890693
2.150  55.789918
2.149  55.761781
2.148  55.783811
2.147  55.773235
2.146  55.735964
2.145  55.766308
2.144  55.721141
2.143  55.732402
2.142  55.653947
2.141  55.689100
2.140  55.646224
2.139  55.630335
2.138  55.597197
2.137  55.622493
2.136  55.507234
2.135  55.527248
2.134  55.502537
2.133  55.447470
2.132  55.438982
2.131  55.402634
2.130  55.362597
2.129  55.330583
2.128  55.262973
2.127  55.242490
2.126  55.162332
2.125  55.153709
2.124  55.102181
2.123  55.093333
2.122  54.975076
2.121  54.951192
2.120  54.891350
2.119  54.897392
2.118  54.795975
2.117  54.709177
2.116  54.682983
2.115  54.667057
2.114  54.617220
2.113  54.563978
2.112  54.436415
2.111  54.426040
2.110  54.347619
2.109  54.296167
2.108  54.253886
2.107  54.198634
2.106  54.097361
2.105  54.072491
2.104  54.005269
2.103  53.965457
2.102  53.898192
2.101  53.879238
2.100  53.856420
2.099  53.813028
2.098  53.725258
2.097  53.757103
2.096  53.665343
2.095  53.640657
2.094  53.651143
2.093  53.614937
2.092  53.593379
2.091  53.553725
2.090  53.528582
2.089  53.538809
2.088  53.535183
2.087  53.535624
2.086  53.457960
2.085  53.422144
2.084  53.408699
2.083  53.375977
2.082  53.343292
2.081  53.309800
2.080  53.267666
2.079  53.255578
2.078  53.274866
2.077  53.261436
2.076  53.227586
2.075  53.219372
2.074  53.163585
2.073  53.087384
2.072  53.057853
2.071  53.063145
2.070  53.030212
2.069  52.977160
2.068  52.920742
2.067  52.884389
2.066  52.869503
2.065  52.833506
2.064  52.805648
2.063  52.747449
2.062  52.737403
2.061  52.725291
2.060  52.674058
2.059  52.649874
2.058  52.670714
2.057  52.596120
2.056  52.539260
2.055  52.514277
2.054  52.514702
2.053  52.499322
2.052  52.443442
2.051  52.379356
2.050  52.394817
2.049  52.332943
2.048  52.292868
2.047  52.227184
2.046  52.175477
2.045  52.152357
2.044  52.165720
2.043  52.155438
2.042  52.082810
2.041  51.984044
2.040  52.003636
2.039  51.958942
2.038  51.979333
2.037  51.928782
2.036  51.876355
2.035  51.792051
2.034  51.722412
2.033  51.666857
2.032  51.695137
2.031  51.639547
2.030  51.564888
2.029  51.511122
2.028  51.501277
2.027  51.463174
2.026  51.414388
2.025  51.347327
2.024  51.322260
2.023  51.221016
2.022  51.202767
2.021  51.186238
2.020  51.120525
2.019  51.027579
2.018  50.981826
2.017  50.872989
2.016  50.905221
2.015  50.766700
2.014  50.749462
2.013  50.702836
2.012  50.655902
2.011  50.538246
2.010  50.562548
2.009  50.522753
2.008  50.492677
2.007  50.399250
2.006  50.336669
2.005  50.203058
2.004  50.241553
2.003  50.136646
2.002  50.134771
2.001  50.021515
2.000  49.983085
1.999  49.915326
1.998  49.856552
1.997  49.833953
1.996  49.753631
1.995  49.697458
1.994  49.611118
1.993  49.528939
1.992  49.498576
1.991  49.338427
1.990  49.300363
1.989  49.268025
1.988  49.213285
1.987  49.176503
1.986  49.125398
1.985  49.051196
1.984  48.958062
1.983  48.924564
1.982  48.857294
1.981  48.742287
1.980  48.729984
1.979  48.629322
1.978  48.597106
1.977  48.539937
1.976  48.466793
1.975  48.412484
1.974  48.327326
1.973  48.235651
1.972  48.274239
1.971  48.120362
1.970  48.119253
1.969  47.996037
1.968  48.047208
1.967  47.873024
1.966  47.910759
1.965  47.790389
1.964  47.772889
1.963  47.681694
1.962  47.683933
1.961  47.579573
1.960  47.595723
1.959  47.390608
1.958  47.393933
1.957  47.368406
1.956  47.256449
1.955  47.163028
1.954  47.202120
1.953  47.104045
1.952  47.109117
1.951  46.965223
1.950  47.029957
1.949  46.889743
1.948  46.865652
1.947  46.815141
1.946  46.690904
1.945  46.632709
1.944  46.643900
1.943  46.550498
1.942  46.538717
1.941  46.372590
1.940  46.406757
1.939  46.396761
1.938  46.312355
1.937  46.198703
1.936  46.223288
1.935  46.083020
1.934  46.041821
1.933  45.990107
1.932  45.913079
1.931  45.721270
1.930  45.725104
1.929  45.536656
1.928  45.606636
1.927  45.475628
1.926  45.320956
1.925  45.338016
1.924  45.241691
1.923  45.086638
1.922  45.108261
1.921  44.844487
1.920  44.870419
1.919  44.675154
1.918  44.676906
1.917  44.536794
1.916  44.472933
1.915  44.419767
1.914  44.323283
1.913  44.128694
1.912  44.234821
1.911  44.087142
1.910  44.079238
1.909  43.956675
1.908  44.043461
1.907  43.985129
1.906  44.150469
1.905  44.142330
1.904  44.199969
1.903  44.281461
1.902  44.435630
1.901  44.540168
1.900  44.674118
1.899  44.797270
1.898  44.989746
1.897  45.207182
1.896  45.370201
1.895  45.383746
1.894  45.589329
1.893  45.647379
1.892  45.837806
1.891  45.870345
1.890  45.983020
1.889  46.073392
1.888  46.199109
1.887  46.266572
1.886  46.353995
1.885  46.300288
1.884  46.415035
1.883  46.388144
1.882  46.481425
1.881  46.487033
1.880  46.576242
1.879  46.559814
1.878  46.625333
1.877  46.624053
1.876  46.644199
1.875  46.638131
1.874  46.644092
1.873  46.614538
1.872  46.631492
1.871  46.586739
1.870  46.554562
1.869  46.506826
1.868  46.520308
1.867  46.470019
1.866  46.557162
1.865  46.512636
1.864  46.542890
1.863  46.489899
1.862  46.499043
1.861  46.390409
1.860  46.422050
1.859  46.350406
1.858  46.302490
1.857  46.184187
1.856  46.236153
1.855  46.198389
1.854  46.164911
1.853  46.114831
1.852  46.094614
1.851  45.987836
1.850  45.982658
1.849  45.921305
1.848  45.908911
1.847  45.800816
1.846  45.752683
1.845  45.735127
1.844  45.773154
1.843  45.695079
1.842  45.681234
1.841  45.593283
1.840  45.564697
1.839  45.498267
1.838  45.456956
1.837  45.362841
1.836  45.358580
1.835  45.317144
1.834  45.316115
1.833  45.244925
1.832  45.254885
1.831  45.144634
1.830  45.060267
1.829  44.981979
1.828  44.960772
1.827  44.961228
1.826  44.886778
1.825  44.807737
1.824  44.839763
1.823  44.816219
1.822  44.761681
1.821  44.643607
1.820  44.536018
1.819  44.498679
1.818  44.497081
1.817  44.453550
1.816  44.447954
1.815  44.363644
1.814  44.327834
1.813  44.223561
1.812  44.240440
1.811  44.222465
1.810  44.139318
1.809  44.091117
1.808  44.044685
1.807  43.979088
1.806  43.968996
1.805  43.913644
1.804  43.898270
1.803  43.844734
1.802  43.801741
1.801  43.727801
1.800  43.647130
1.799  43.614327
1.798  43.570679
1.797  43.487042
1.796  43.492089
1.795  43.451171
1.794  43.355782
1.793  43.330125
1.792  43.266347
1.791  43.166590
1.790  43.164853
1.789  43.094007
1.788  43.000588
1.787  42.980641
1.786  42.936356
1.785  42.881218
1.784  42.827257
1.783  42.761414
1.782  42.712836
1.781  42.674898
1.780  42.647185
1.779  42.599847
1.778  42.548070
1.777  42.458845
1.776  42.391917
1.775  42.368733
1.774  42.303053
1.773  42.297105
1.772  42.234448
1.771  42.176020
1.770  42.147739
1.769  42.104535
1.768  42.061433
1.767  42.030335
1.766  41.946354
1.765  41.894418
1.764  41.838414
1.763  41.817991
1.762  41.742863
1.761  41.702773
1.760  41.642970
1.759  41.608452
1.758  41.496064
1.757  41.493136
1.756  41.454486
1.755  41.403996
1.754  41.368653
1.753  41.345248
1.752  41.249083
1.751  41.199724
1.750  41.148899
1.749  41.116115
1.748  41.043738
1.747  41.018507
1.746  40.956720
1.745  40.935655
1.744  40.872723
1.743  40.817617
1.742  40.767890
1.741  40.733147
1.740  40.632462
1.739  40.638303
1.738  40.585752
1.737  40.567920
1.736  40.509934
1.735  40.435688
1.734  40.344180
1.733  40.296586
1.732  40.203632
1.731  40.203049
1.730  40.190425
1.729  40.137898
1.728  39.983259
1.727  39.964354
1.726  39.910659
1.725  39.892891
1.724  39.870707
1.723  39.797602
1.722  39.729358
1.721  39.700328
1.720  39.614520
1.719  39.584135
1.718  39.511212
1.717  39.499392
1.716  39.455947
1.715  39.376314
1.714  39.338046
1.713  39.366461
1.712  39.221498
1.711  39.169338
1.710  39.100481
1.709  38.984276
1.708  38.926101
1.707  38.958057
1.706  38.845565
1.705  38.821512
1.704  38.763689
1.703  38.791309
1.702  38.689203
1.701  38.650352
1.700  38.488774
1.699  38.518594
1.698  38.485355
1.697  38.422932
1.696  38.369807
1.695  38.363750
1.694  38.212886
1.693  38.196339
1.692  38.120136
1.691  38.095203
1.690  37.993584
1.689  37.978127
1.688  37.858194
1.687  37.876560
1.686  37.787412
1.685  37.809117
1.684  37.666973
1.683  37.742632
1.682  37.564404
1.681  37.562815
1.680  37.458972
1.679  37.468062
1.678  37.387155
1.677  37.352858
1.676  37.227948
1.675  37.246361
1.674  37.104804
1.673  37.170391
1.672  36.981213
1.671  37.053457
1.670  36.926722
1.669  36.962637
1.668  36.703386
1.667  36.825848
1.666  36.733266
1.665  36.703764
1.664  36.579463
1.663  36.629096
1.662  36.488139
1.661  36.434419
1.660  36.325181
1.659  36.383885
1.658  36.278832
1.657  36.227762
1.656  36.205948
1.655  36.167922
1.654  36.108448
1.653  36.100666
1.652  35.948489
1.651  36.000499
1.650  35.772430
1.649  35.861393
1.648  35.757465
1.647  35.730007
1.646  35.613258
1.645  35.643834
1.644  35.462627
1.643  35.527815
1.642  35.489047
1.641  35.318340
1.640  35.335716
1.639  35.326545
1.638  35.209545
1.637  35.248431
1.636  35.114298
1.635  35.097778
1.634  35.042279
1.633  35.075167
1.632  34.868252
1.631  34.953530
1.630  34.762266
1.629  34.854034
1.628  34.686411
1.627  34.705241
1.626  34.587723
1.625  34.590421
1.624  34.389422
1.623  34.478542
1.622  34.382986
1.621  34.424486
1.620  34.245699
1.619  34.226804
1.618  34.075551
1.617  34.136925
1.616  34.035943
1.615  33.995342
1.614  33.948185
1.613  33.871317
1.612  33.821786
1.611  33.881072
1.610  33.759377
1.609  33.618615
1.608  33.588947
1.607  33.591437
1.606  33.553849
1.605  33.421683
1.604  33.336136
1.603  33.349743
1.602  33.230233
1.601  33.252166
1.600  33.212927
1.599  33.189107
1.598  33.083855
1.597  33.079490
1.596  32.917023
1.595  33.010038
1.594  32.849057
1.593  32.828596
1.592  32.776435
1.591  32.746020
1.590  32.653052
1.589  32.601286
1.588  32.525025
1.587  32.450634
1.586  32.381306
1.585  32.446040
1.584  32.318983
1.583  32.306812
1.582  32.175724
1.581  32.224011
1.580  32.099779
1.579  32.086165
1.578  31.924879
1.577  32.019235
1.576  31.917422
1.575  31.843842
1.574  31.790191
1.573  31.768955
1.572  31.644885
1.571  31.678343
1.570  31.575887
1.569  31.535211
1.568  31.475436
1.567  31.510007
1.566  31.388729
1.565  31.306808
1.564  31.228875
1.563  31.234105
1.562  31.105780
1.561  31.086712
1.560  30.993949
1.559  30.998502
1.558  30.911793
1.557  30.945561
1.556  30.810855
1.555  30.778424
1.554  30.695714
1.553  30.699268
1.552  30.610408
1.551  30.603033
1.550  30.478716
1.549  30.469555
1.548  30.374705
1.547  30.358424
1.546  30.233716
1.545  30.160645
1.544  30.121011
1.543  30.114995
1.542  30.076096
1.541  30.019557
1.540  29.969485
1.539  29.924213
1.538  29.820061
1.537  29.816691
1.536  29.741742
1.535  29.699473
1.534  29.570775
1.533  29.582728
1.532  29.483132
1.531  29.471854
1.530  29.435729
1.529  29.447035
1.528  29.385887
1.527  29.288692
1.526  29.220054
1.525  29.187972
1.524  29.111985
1.523  29.064496
1.522  29.004050
1.521  28.967670
1.520  28.899353
1.519  28.884057
1.518  28.824302
1.517  28.725594
1.516  28.670522
1.515  28.664282
1.514  28.608588
1.513  28.537270
1.512  28.454639
1.511  28.419731
1.510  28.391674
1.509  28.346789
1.508  28.230809
1.507  28.200986
1.506  28.097842
1.505  28.029890
1.504  28.025965
1.503  27.991871
1.502  27.977717
1.501  27.895410
1.500  27.834106
1.499  27.784856
1.498  27.721683
1.497  27.664548
1.496  27.634014
1.495  27.585234
1.494  27.515625
1.493  27.460441
1.492  27.410388
1.491  27.312676
1.490  27.306821
1.489  27.286042
1.488  27.252013
1.487  27.163073
1.486  27.088320
1.485  27.041282
1.484  27.018547
1.483  26.941700
1.482  26.926221
1.481  26.846674
1.480  26.768997
1.479  26.747322
1.478  26.788397
1.477  26.674175
1.476  26.579921
1.475  26.555690
1.474  26.549303
1.473  26.451541
1.472  26.411623
1.471  26.371309
1.470  26.311049
1.469  26.203361
1.468  26.154563
1.467  26.089761
1.466  26.063437
1.465  26.012038
1.464  25.974933
1.463  25.911201
1.462  25.878522
1.461  25.746898
1.460  25.743781
1.459  25.681876
1.458  25.651406
1.457  25.569909
1.456  25.528224
1.455  25.448738
1.454  25.430031
1.453  25.310274
1.452  25.294311
1.451  25.218172
1.450  25.209454
1.449  25.061019
1.448  25.036127
1.447  25.001204
1.446  25.006572
1.445  24.875363
1.444  24.861492
1.443  24.798519
1.442  24.744101
1.441  24.654461
1.440  24.626384
1.439  24.559105
1.438  24.576801
1.437  24.487317
1.436  24.425833
1.435  24.382982
1.434  24.319568
1.433  24.222393
1.432  24.277358
1.431  24.229585
1.430  24.177016
1.429  24.087673
1.428  24.139116
1.427  24.020632
1.426  24.015246
1.425  23.941324
1.424  23.909798
1.423  23.874122
1.422  23.883080
1.421  23.777048
1.420  23.732349
