Name: Trona Na_3(CO_3)(HCO_3).2H_2O
Type: Mineral
Class: Carbonates
Subclass: 
Particle Size: 0-45um
Sample No.: C-4A
Owner: JPL
Wavelength range: IR
Origin: USA, Wyoming, Sweetwater County
Collected by Ward's
Description: 





Measurement: Hemispherical reflectance
First Column: X
Second Column: Y
X Units:  Wavelength (micrometers)
Y Units:  Reflectance (percent)
First X Value: 15.3853
Last X Value: 2.00032
Number of X Values: 2256
Additional information: c04aa.txt
 
15.3853	3.95286
15.3397	4.20474
15.2945	4.11626
15.2495	3.98366
15.2048	3.66087
15.1603	3.52768
15.1161	3.50428
15.0722	3.33715
15.0285	2.8848
14.9851	2.64727
14.9419	2.65922
14.8989	2.74944
14.8563	2.90456
14.8138	2.66656
14.7716	2.54684
14.7296	2.6746
14.6879	2.58634
14.6464	2.67325
14.6052	2.58955
14.5641	2.19533
14.5233	1.96982
14.4828	1.90568
14.4424	1.76725
14.4023	1.53947
14.3624	1.21112
14.3227	1.17938
14.2833	1.37707
14.244	1.55366
14.205	1.72268
14.1662	1.68198
14.1276	1.77808
14.0892	1.78083
14.051	1.7827
14.0131	1.65133
13.9753	1.64593
13.9377	1.82671
13.9004	1.73965
13.8632	1.86215
13.8262	1.95967
13.7895	1.93345
13.7529	1.91498
13.7165	1.96665
13.6803	1.93184
13.6443	2.06176
13.6085	2.20102
13.5729	2.12647
13.5374	2.20535
13.5022	2.29056
13.4671	2.27702
13.4322	2.30822
13.3975	2.33474
13.363	2.33395
13.3286	2.33768
13.2944	2.39709
13.2604	2.46381
13.2266	2.54427
13.193	2.59442
13.1595	2.64647
13.1262	2.54927
13.093	2.46503
13.06	2.59459
13.0272	2.71099
12.9946	2.68012
12.9621	2.42887
12.9298	2.48885
12.8976	2.77561
12.8656	2.79219
12.8337	2.82795
12.8021	2.9738
12.7705	3.05687
12.7391	3.03409
12.7079	2.83037
12.6769	2.74122
12.6459	2.87689
12.6152	2.91052
12.5845	2.82628
12.5541	2.77018
12.5238	2.7311
12.4936	2.8318
12.4635	2.9603
12.4337	3.00091
12.4039	3.04353
12.3743	3.01111
12.3448	2.96991
12.3155	2.94307
12.2863	2.87083
12.2573	2.82188
12.2284	2.87307
12.1996	2.89423
12.171	2.85083
12.1425	2.84783
12.1141	3.01767
12.0859	3.24396
12.0578	3.37358
12.0298	3.38113
12.0019	3.3766
11.9742	3.35914
11.9466	3.37471
11.9192	3.57977
11.8918	3.85574
11.8646	4.22647
11.8375	4.8973
11.8106	5.87045
11.7837	7.35855
11.757	8.66127
11.7304	9.2218
11.7039	8.93589
11.6776	7.95265
11.6513	6.70444
11.6252	5.5454
11.5992	4.72786
11.5733	4.30264
11.5475	3.87127
11.5219	3.40767
11.4963	3.13614
11.4709	2.96341
11.4455	2.92746
11.4203	2.94043
11.3952	2.89178
11.3702	2.83173
11.3454	2.73338
11.3206	2.62775
11.2959	2.70797
11.2714	2.8418
11.2469	2.73153
11.2226	2.55656
11.1983	2.48178
11.1742	2.58234
11.1502	2.80375
11.1263	2.77265
11.1024	2.60385
11.0787	2.53471
11.0551	2.51211
11.0316	2.56119
11.0081	2.58087
10.9848	2.62601
10.9616	2.65614
10.9385	2.63206
10.9154	2.56929
10.8925	2.53072
10.8697	2.64413
10.8469	2.60191
10.8243	2.61088
10.8017	2.56895
10.7793	2.46802
10.7569	2.60433
10.7346	2.69052
10.7125	2.6387
10.6904	2.59418
10.6684	2.62253
10.6465	2.65584
10.6247	2.70162
10.6029	2.77985
10.5813	2.70083
10.5597	2.58325
10.5383	2.53558
10.5169	2.65288
10.4956	2.78393
10.4744	2.77623
10.4533	2.70028
10.4323	2.70981
10.4113	2.71295
10.3904	2.68554
10.3697	2.70416
10.349	2.66299
10.3284	2.64539
10.3078	2.71681
10.2874	2.71852
10.267	2.74131
10.2467	2.63941
10.2265	2.63455
10.2064	2.76921
10.1863	2.80306
10.1663	2.79328
10.1464	2.75283
10.1266	2.77315
10.1069	2.81703
10.0872	2.81128
10.0676	2.77423
10.0481	2.81746
10.0287	2.87242
10.0093	2.86241
9.99005	2.86239
9.97084	2.84161
9.95169	2.78728
9.93263	2.82273
9.91364	2.83023
9.89472	2.84308
9.87587	2.8531
9.8571	2.83706
9.83839	2.71543
9.81976	2.67819
9.80119	2.61152
9.78271	2.73792
9.76428	2.8599
9.74592	2.75927
9.72764	2.77942
9.70943	2.82141
9.69128	2.81686
9.6732	2.75258
9.65518	2.60036
9.63724	2.63869
9.61935	2.80187
9.60155	2.77465
9.5838	2.46662
9.56611	2.22343
9.5485	2.18468
9.53094	2.24847
9.51345	2.36119
9.49604	2.63312
9.47867	2.81202
9.46137	2.78437
9.44414	2.80341
9.42697	2.92656
9.40986	3.02431
9.39281	3.00628
9.37583	2.94279
9.35891	3.02111
9.34204	3.05633
9.32524	3.05848
9.3085	2.8941
9.29182	2.82911
9.27519	2.78035
9.25863	2.77878
9.24213	2.87305
9.22568	2.94227
9.2093	2.87006
9.19297	2.81451
9.17669	2.85711
9.16048	2.83495
9.14433	2.84931
9.12823	3.02883
9.11218	3.12678
9.0962	3.09637
9.08027	2.87322
9.06439	2.70782
9.04858	2.72579
9.03281	2.71879
9.0171	2.74195
9.00145	2.86343
8.98585	2.90868
8.9703	2.94931
8.9548	2.95215
8.93937	2.79872
8.92398	2.58317
8.90865	2.6162
8.89337	2.77965
8.87814	2.84319
8.86296	2.81475
8.84784	2.77359
8.83277	2.75129
8.81774	2.78179
8.80277	2.79876
8.78786	2.81687
8.77298	2.82615
8.75816	2.83371
8.7434	2.88141
8.72868	2.69869
8.714	2.69676
8.69938	2.73505
8.68481	2.75059
8.67029	2.77266
8.65581	2.67056
8.64139	2.66505
8.62701	2.75893
8.61268	2.89178
8.5984	2.85918
8.58416	2.81429
8.56997	2.79568
8.55583	2.79951
8.54174	2.9795
8.52769	3.02247
8.51368	2.97992
8.49973	2.96595
8.48582	3.0258
8.47195	2.94592
8.45813	2.80291
8.44436	2.92972
8.43062	3.0902
8.41693	3.10178
8.4033	3.12647
8.3897	3.11283
8.37614	3.04071
8.36264	2.95866
8.34917	2.97166
8.33574	2.98193
8.32236	2.9753
8.30903	2.87557
8.29573	2.85148
8.28248	2.9485
8.26927	3.06997
8.2561	3.11058
8.24298	2.97069
8.2299	2.90588
8.21685	2.84415
8.20385	2.77307
8.19089	2.91047
8.17797	2.9171
8.16509	2.84008
8.15225	2.93073
8.13946	2.90487
8.1267	2.8971
8.11398	2.93198
8.10131	2.92212
8.08867	2.77247
8.07606	2.71249
8.0635	2.76339
8.05099	2.77075
8.0385	2.74697
8.02606	2.72945
8.01366	2.77911
8.00129	2.79801
7.98896	2.67024
7.97667	2.63952
7.96442	2.68734
7.9522	2.6657
7.94002	2.62737
7.92788	2.54229
7.91578	2.50401
7.90371	2.53519
7.89168	2.5478
7.87969	2.56178
7.86773	2.52102
7.85581	2.5239
7.84392	2.49083
7.83207	2.45513
7.82026	2.41186
7.80849	2.31532
7.79674	2.35036
7.78503	2.43656
7.77337	2.42948
7.76173	2.39174
7.75012	2.3979
7.73856	2.35384
7.72703	2.3134
7.71553	2.29815
7.70406	2.30005
7.69263	2.31739
7.68123	2.3442
7.66987	2.35291
7.65855	2.25171
7.64725	2.20244
7.63598	2.208
7.62475	2.24008
7.61356	2.22841
7.60239	2.22031
7.59126	2.29159
7.58017	2.31851
7.5691	2.22521
7.55806	2.12176
7.54707	2.12337
7.5361	2.15709
7.52516	2.16099
7.51425	2.22129
7.50338	2.19651
7.49253	2.20207
7.48172	2.28283
7.47094	2.35176
7.46019	2.30999
7.44947	2.23985
7.43879	2.21223
7.42813	2.15927
7.4175	2.11355
7.4069	2.10948
7.39634	2.05603
7.3858	2.09276
7.37529	2.07396
7.36482	2.10279
7.35437	2.1733
7.34396	2.15054
7.33357	2.09594
7.32321	2.09619
7.31288	2.07527
7.30258	2.08391
7.29231	2.13781
7.28207	2.092
7.27185	1.98943
7.26167	2.01655
7.25152	2.05773
7.24139	2.0898
7.23129	2.06885
7.22122	1.94727
7.21117	1.89736
7.20116	1.90678
7.19117	1.99259
7.18121	1.9659
7.17128	1.92161
7.16137	1.97392
7.1515	2.07142
7.14164	2.02728
7.13182	1.97767
7.12203	1.96688
7.11225	1.96582
7.10251	1.89932
7.0928	1.89377
7.08311	1.95085
7.07344	1.94993
7.06381	1.91487
7.0542	1.98166
7.04461	2.08289
7.03506	1.92768
7.02552	1.86279
7.01601	1.88706
7.00653	1.92183
6.99708	1.9913
6.98765	2.03722
6.97824	2.10872
6.96886	2.18946
6.95951	2.21767
6.95018	2.17294
6.94087	2.10081
6.9316	2.11319
6.92234	2.21292
6.91311	2.3158
6.90391	2.41149
6.89473	2.39462
6.88557	2.48299
6.87644	2.60666
6.86733	2.70827
6.85824	2.78977
6.84918	2.75652
6.84015	2.71284
6.83114	2.82225
6.82215	2.96667
6.81319	2.97267
6.80424	3.02537
6.79532	3.22808
6.78643	3.22663
6.77756	3.14526
6.76871	3.15165
6.75989	3.11263
6.75109	3.17102
6.74231	3.1205
6.73355	3.07198
6.72482	3.10257
6.71611	3.02895
6.70742	2.87527
6.69875	2.70407
6.69011	2.59225
6.68149	2.50209
6.67289	2.30862
6.66431	2.15871
6.65576	2.08358
6.64722	2.05595
6.63871	2.08298
6.63022	1.91255
6.62175	1.72465
6.61331	1.65993
6.60488	1.59585
6.59648	1.64637
6.5881	1.62584
6.57974	1.51597
6.5714	1.44923
6.56308	1.43804
6.55478	1.38877
6.54651	1.31415
6.53825	1.34797
6.53001	1.33317
6.5218	1.33518
6.51361	1.34423
6.50544	1.29277
6.49729	1.30528
6.48915	1.2809
6.48104	1.28611
6.47295	1.23396
6.46488	1.13964
6.45683	1.13548
6.4488	1.19524
6.44079	1.22747
6.4328	1.16428
6.42482	1.19016
6.41687	1.2655
6.40894	1.29137
6.40103	1.24899
6.39314	1.16782
6.38526	1.16757
6.37741	1.18824
6.36957	1.22843
6.36176	1.27382
6.35396	1.25203
6.34618	1.34036
6.33843	1.4303
6.33069	1.32217
6.32297	1.3082
6.31527	1.36117
6.30758	1.36409
6.29992	1.30778
6.29227	1.21227
6.28465	1.26632
6.27704	1.37713
6.26945	1.40484
6.26188	1.33338
6.25432	1.3452
6.24679	1.34273
6.23927	1.35037
6.23177	1.40921
6.22429	1.48219
6.21683	1.56752
6.20938	1.61318
6.20195	1.55323
6.19454	1.53472
6.18715	1.52855
6.17978	1.53005
6.17242	1.56219
6.16508	1.61455
6.15776	1.6314
6.15045	1.55204
6.14317	1.48535
6.1359	1.4993
6.12864	1.59518
6.12141	1.67162
6.11419	1.68958
6.10699	1.69581
6.0998	1.65331
6.09263	1.59969
6.08549	1.65695
6.07835	1.75056
6.07123	1.76142
6.06413	1.74104
6.05705	1.74429
6.04998	1.79553
6.04293	1.80662
6.0359	1.76955
6.02888	1.72715
6.02187	1.77064
6.01489	1.80888
6.00792	1.79891
6.00096	1.74439
5.99403	1.80469
5.98711	1.96586
5.9802	2.01733
5.97331	1.98584
5.96644	1.9524
5.95958	1.99413
5.95274	2.01778
5.94591	2.00762
5.9391	2.14818
5.9323	2.19184
5.92552	2.10434
5.91876	2.1446
5.91201	2.15566
5.90528	2.08298
5.89856	2.05969
5.89186	2.1098
5.88517	2.14443
5.8785	2.1317
5.87184	2.0784
5.8652	2.02066
5.85857	1.91819
5.85196	1.90796
5.84536	1.98977
5.83878	1.99213
5.83221	1.94959
5.82566	1.98141
5.81912	1.94316
5.81259	1.83537
5.80608	1.81507
5.79959	1.80313
5.79311	1.70874
5.78665	1.64077
5.78019	1.64037
5.77376	1.6302
5.76734	1.66154
5.76093	1.61839
5.75453	1.46007
5.74815	1.43009
5.74179	1.46373
5.73543	1.43705
5.7291	1.37748
5.72277	1.32117
5.71646	1.24528
5.71017	1.27124
5.70389	1.2598
5.69762	1.22955
5.69136	1.31266
5.68513	1.33612
5.6789	1.31434
5.67268	1.32322
5.66648	1.27558
5.6603	1.16468
5.65413	1.14826
5.64797	1.27109
5.64182	1.29498
5.63569	1.22207
5.62957	1.15992
5.62347	1.05091
5.61737	0.990119
5.61129	1.05358
5.60522	1.13907
5.59917	1.14046
5.59313	1.13336
5.5871	1.13279
5.58109	1.1288
5.57509	1.07995
5.5691	0.997605
5.56312	1.09523
5.55716	1.16187
5.55121	1.17726
5.54528	1.21478
5.53935	1.19357
5.53344	1.13403
5.52754	1.1335
5.52166	1.15725
5.51578	1.17353
5.50992	1.12384
5.50407	1.10524
5.49823	1.0666
5.49241	1.10609
5.4866	1.16443
5.4808	1.20889
5.47501	1.2052
5.46923	1.18614
5.46347	1.26052
5.45772	1.30778
5.45198	1.23526
5.44625	1.10828
5.44054	1.13039
5.43484	1.22395
5.42914	1.21346
5.42347	1.19844
5.4178	1.23216
5.41214	1.21183
5.4065	1.18402
5.40087	1.14699
5.39525	1.21757
5.38964	1.32929
5.38404	1.36599
5.37846	1.3455
5.37288	1.33529
5.36732	1.31201
5.36177	1.30874
5.35623	1.36992
5.35071	1.36466
5.34519	1.36662
5.33968	1.37288
5.33419	1.40714
5.32871	1.45076
5.32324	1.43225
5.31778	1.44057
5.31233	1.4164
5.30689	1.4057
5.30147	1.4059
5.29605	1.34381
5.29065	1.36923
5.28525	1.50663
5.27987	1.48467
5.2745	1.47626
5.26914	1.5133
5.26379	1.49414
5.25845	1.46765
5.25312	1.50791
5.24781	1.51215
5.2425	1.59531
5.23721	1.65007
5.23192	1.6354
5.22665	1.58015
5.22138	1.606
5.21613	1.62231
5.21089	1.6087
5.20566	1.64552
5.20044	1.66651
5.19522	1.71355
5.19002	1.72602
5.18483	1.73252
5.17965	1.68054
5.17448	1.61817
5.16933	1.70163
5.16418	1.80833
5.15904	1.82428
5.15391	1.79986
5.14879	1.80322
5.14368	1.82562
5.13859	1.89164
5.1335	1.96822
5.12842	1.99625
5.12335	1.99541
5.1183	1.97933
5.11325	1.94771
5.10821	1.91655
5.10318	1.88783
5.09817	1.88578
5.09316	1.89064
5.08816	1.96048
5.08317	1.98231
5.07819	1.99482
5.07322	1.95996
5.06826	1.94854
5.06331	2.03303
5.05837	2.01752
5.05344	1.96538
5.04852	1.97992
5.04361	2.04372
5.03871	2.01867
5.03382	2.03876
5.02894	2.09239
5.02406	2.15071
5.0192	2.15482
5.01435	2.12747
5.0095	2.16698
5.00467	2.22031
4.99984	2.14094
4.99502	2.12371
4.99021	2.19998
4.98542	2.1983
4.98063	2.22967
4.97585	2.24374
4.97108	2.21063
4.96632	2.23794
4.96156	2.29208
4.95682	2.23884
4.95209	2.15394
4.94736	2.18945
4.94264	2.28471
4.93794	2.31234
4.93324	2.35835
4.92855	2.38385
4.92387	2.36459
4.9192	2.41285
4.91453	2.37624
4.90988	2.40938
4.90524	2.52256
4.9006	2.51347
4.89597	2.41288
4.89135	2.39166
4.88674	2.45893
4.88214	2.48197
4.87755	2.46687
4.87296	2.47871
4.86839	2.47781
4.86382	2.44441
4.85926	2.45494
4.85471	2.4881
4.85017	2.60671
4.84564	2.70013
4.84111	2.69266
4.8366	2.69802
4.83209	2.70221
4.82759	2.69181
4.8231	2.7208
4.81862	2.72878
4.81415	2.69568
4.80968	2.69791
4.80522	2.81137
4.80077	2.83796
4.79633	2.73593
4.7919	2.70435
4.78747	2.78993
4.78306	2.87345
4.77865	2.83513
4.77425	2.7897
4.76986	2.85306
4.76547	2.89305
4.7611	2.88396
4.75673	2.85653
4.75237	2.82722
4.74802	2.81124
4.74367	2.83104
4.73934	2.77535
4.73501	2.79486
4.73069	2.87387
4.72638	2.94142
4.72207	2.98501
4.71777	3.02567
4.71348	3.03071
4.7092	3.06125
4.70493	3.20043
4.70066	3.27029
4.69641	3.21291
4.69216	3.16784
4.68791	3.20816
4.68368	3.27918
4.67945	3.30418
4.67523	3.34211
4.67102	3.29768
4.66682	3.19631
4.66262	3.24072
4.65843	3.31672
4.65425	3.35616
4.65007	3.37723
4.64591	3.39724
4.64175	3.36396
4.6376	3.38357
4.63345	3.39055
4.62932	3.4519
4.62519	3.46225
4.62106	3.39058
4.61695	3.25895
4.61284	3.33081
4.60874	3.51713
4.60465	3.51756
4.60056	3.401
4.59648	3.37496
4.59241	3.38905
4.58835	3.37458
4.58429	3.42765
4.58024	3.43352
4.5762	3.42309
4.57216	3.43529
4.56814	3.4333
4.56411	3.44712
4.5601	3.50473
4.55609	3.43858
4.55209	3.37469
4.5481	3.48775
4.54411	3.54279
4.54013	3.43665
4.53616	3.39803
4.5322	3.45637
4.52824	3.41187
4.52429	3.32201
4.52034	3.30869
4.51641	3.28464
4.51247	3.24328
4.50855	3.26905
4.50463	3.29283
4.50072	3.24267
4.49682	3.27724
4.49292	3.28375
4.48903	3.23519
4.48515	3.16474
4.48127	3.2289
4.4774	3.30909
4.47354	3.3356
4.46968	3.2985
4.46584	3.18222
4.46199	3.18017
4.45815	3.20093
4.45432	3.15434
4.4505	3.04038
4.44668	3.01581
4.44287	3.08218
4.43907	3.13264
4.43527	3.11555
4.43148	3.01483
4.4277	3.03308
4.42392	3.05568
4.42015	3.01015
4.41638	2.96914
4.41262	2.93188
4.40887	2.95366
4.40513	2.97313
4.40139	2.99187
4.39765	3.0348
4.39393	3.09796
4.39021	3.07109
4.38649	3.07797
4.38278	3.09806
4.37908	3.09901
4.37539	3.10967
4.3717	3.11153
4.36801	3.11229
4.36434	3.09673
4.36067	3.09388
4.357	3.16846
4.35335	3.2584
4.34969	3.24627
4.34605	3.18248
4.34241	3.23846
4.33877	3.32905
4.33514	3.26266
4.33152	3.22038
4.32791	3.25625
4.3243	3.2831
4.32069	3.22591
4.3171	3.21864
4.31351	3.2486
4.30992	3.27613
4.30634	3.28787
4.30277	3.32635
4.2992	3.41238
4.29564	3.46902
4.29208	3.42014
4.28853	3.40837
4.28499	3.47225
4.28145	3.48966
4.27792	3.53263
4.27439	3.55945
4.27087	3.55107
4.26735	3.53974
4.26384	3.52938
4.26034	3.55575
4.25684	3.52825
4.25335	3.50055
4.24986	3.54538
4.24638	3.60172
4.24291	3.59873
4.23944	3.54974
4.23598	3.52311
4.23252	3.5906
4.22906	3.68675
4.22562	3.74071
4.22218	3.77397
4.21874	3.71771
4.21531	3.65586
4.21189	3.66273
4.20847	3.71767
4.20506	3.80312
4.20165	3.78095
4.19825	3.65228
4.19485	3.67113
4.19146	3.72491
4.18807	3.78253
4.18469	3.86822
4.18132	3.9345
4.17795	3.82074
4.17458	3.77091
4.17123	3.85343
4.16787	3.8315
4.16453	3.74598
4.16118	3.82881
4.15785	3.90522
4.15451	3.96026
4.15119	3.91654
4.14787	3.83431
4.14455	3.94457
4.14124	3.99001
4.13794	3.83162
4.13464	3.77283
4.13134	3.76302
4.12805	3.7366
4.12477	3.75479
4.12149	3.81905
4.11822	3.77402
4.11495	3.75504
4.11168	3.74381
4.10843	3.71019
4.10517	3.69696
4.10192	3.68418
4.09868	3.63765
4.09545	3.59908
4.09221	3.59007
4.08899	3.61312
4.08576	3.6348
4.08255	3.62059
4.07933	3.60555
4.07613	3.69759
4.07292	3.75799
4.06973	3.82015
4.06654	3.92626
4.06335	3.90656
4.06017	3.91898
4.05699	3.86249
4.05382	3.79762
4.05065	3.75826
4.04749	3.77615
4.04433	3.85357
4.04118	3.88398
4.03803	3.92108
4.03489	3.9819
4.03175	4.04441
4.02862	4.07335
4.02549	4.00041
4.02237	3.94524
4.01925	3.94748
4.01614	3.98216
4.01303	4.05085
4.00993	4.0287
4.00683	3.91255
4.00373	3.87689
4.00064	3.95331
3.99756	4.01244
3.99448	4.02006
3.9914	4.00309
3.98833	4.02332
3.98527	4.06724
3.98221	4.03616
3.97915	3.95196
3.9761	3.92841
3.97305	3.93504
3.97001	3.96144
3.96697	4.03695
3.96394	4.07344
3.96091	4.02583
3.95789	3.9276
3.95487	3.91799
3.95186	3.92768
3.94885	3.94515
3.94584	4.02277
3.94284	3.98015
3.93984	3.91057
3.93685	3.94062
3.93386	4.0433
3.93088	4.09145
3.9279	4.0718
3.92493	4.02199
3.92196	4.04739
3.919	4.08041
3.91604	4.04865
3.91308	4.09833
3.91013	4.13723
3.90718	4.11347
3.90424	4.11269
3.9013	4.22515
3.89837	4.2826
3.89544	4.28538
3.89252	4.27322
3.8896	4.24116
3.88668	4.19579
3.88377	4.23589
3.88086	4.27914
3.87796	4.32131
3.87506	4.3369
3.87217	4.32011
3.86928	4.22061
3.86639	4.25173
3.86351	4.34988
3.86064	4.38652
3.85776	4.46346
3.8549	4.40897
3.85203	4.2708
3.84917	4.35741
3.84631	4.50022
3.84346	4.44866
3.84062	4.40693
3.83777	4.49685
3.83494	4.59567
3.8321	4.5605
3.82927	4.511
3.82644	4.47982
3.82362	4.3868
3.82081	4.37906
3.81799	4.45313
3.81518	4.59691
3.81238	4.64126
3.80958	4.61898
3.80678	4.57285
3.80399	4.46198
3.8012	4.47291
3.79841	4.54013
3.79563	4.53668
3.79286	4.56204
3.79008	4.587
3.78731	4.62064
3.78455	4.6122
3.78179	4.58219
3.77903	4.62409
3.77628	4.60099
3.77353	4.52676
3.77079	4.57057
3.76805	4.52323
3.76531	4.50031
3.76258	4.50936
3.75985	4.4417
3.75713	4.4868
3.7544	4.61215
3.75169	4.62783
3.74898	4.54827
3.74627	4.54256
3.74356	4.58549
3.74086	4.5068
3.73816	4.45066
3.73547	4.4318
3.73278	4.44209
3.7301	4.5132
3.72741	4.53672
3.72474	4.52382
3.72206	4.45812
3.71939	4.34229
3.71673	4.36162
3.71406	4.386
3.71141	4.37734
3.70875	4.38191
3.7061	4.39696
3.70345	4.392
3.70081	4.36669
3.69817	4.33477
3.69553	4.25312
3.6929	4.18758
3.69027	4.22876
3.68765	4.23894
3.68503	4.21758
3.68241	4.25494
3.6798	4.28533
3.67719	4.22099
3.67458	4.17043
3.67198	4.16942
3.66938	4.12641
3.66678	4.15702
3.66419	4.13557
3.66161	4.03873
3.65902	4.01616
3.65644	4.00168
3.65387	3.94806
3.65129	3.99959
3.64872	3.97546
3.64616	3.92631
3.64359	3.86579
3.64103	3.8869
3.63848	3.93946
3.63593	3.90436
3.63338	3.87903
3.63084	3.90124
3.6283	3.88668
3.62576	3.74709
3.62322	3.70379
3.62069	3.85734
3.61817	3.81975
3.61564	3.67343
3.61312	3.67502
3.61061	3.70132
3.6081	3.66435
3.60559	3.68278
3.60308	3.59901
3.60058	3.56582
3.59808	3.66005
3.59558	3.6601
3.59309	3.51734
3.59061	3.41028
3.58812	3.47654
3.58564	3.49733
3.58316	3.46013
3.58069	3.4714
3.57822	3.4719
3.57575	3.44267
3.57328	3.33796
3.57082	3.30467
3.56836	3.32451
3.56591	3.35163
3.56346	3.35308
3.56101	3.33821
3.55857	3.25652
3.55613	3.20193
3.55369	3.20933
3.55126	3.26049
3.54883	3.2827
3.5464	3.15044
3.54397	3.12301
3.54155	3.16341
3.53914	3.15007
3.53672	3.16514
3.53431	3.16866
3.5319	3.10996
3.5295	3.03171
3.5271	2.96152
3.5247	2.91685
3.52231	2.9497
3.51991	2.99736
3.51753	3.03089
3.51514	2.98084
3.51276	2.8573
3.51038	2.81486
3.50801	2.83475
3.50563	2.82816
3.50327	2.8094
3.5009	2.78969
3.49854	2.8527
3.49618	2.82641
3.49382	2.76486
3.49147	2.79168
3.48912	2.85128
3.48677	2.81351
3.48443	2.63892
3.48209	2.55558
3.47975	2.61767
3.47742	2.73171
3.47509	2.73072
3.47276	2.70045
3.47044	2.67064
3.46812	2.61564
3.4658	2.50742
