Name: Andesite Porphyry
Type: Rock
Class: Igneous
Subclass:  Intermediate 
Particle Size: Solid surface
Sample No.: Ward30.txt
Owner: JPL
Wavelength range:  IR 
Origin: Ward's Collection of American Rocks.  Sample locality - Near Ward, Boulder county, Colorado.
Collected by:  Ward's Natural Science
Description: A light gray, porphyritic rock with phenocrysts of plagioclase
and hornblende in a fine crystalline groundmass.
Geologic age - Tertiary (Eocene).



Measurement: Hemispherical reflectance
First Column: X
Second Column: Y
X Units: Wavelength (micrometers)
Y Units: Reflectance (percent)
First X Value: 15.3871
Last X Value: 1.9998
Number of X Values: 2257
Additional information: None

15.3871   4.50500
15.3416   4.80423
15.2964   4.23997
15.2514   3.94490
15.2066   4.05134
15.1622   3.92030
15.1180   3.47934
15.0740   3.53517
15.0303   3.56263
14.9869   3.04655
14.9437   2.78246
14.9008   3.38471
14.8581   4.36341
14.8156   4.35755
14.7734   3.77267
14.7314   3.63475
14.6897   3.55979
14.6482   3.40927
14.6069   3.55529
14.5659   3.75589
14.5251   3.94507
14.4845   3.87633
14.4442   3.85449
14.4041   3.65968
14.3642   3.50829
14.3245   3.70735
14.2850   3.66030
14.2458   3.22564
14.2068   3.15678
14.1679   3.57647
14.1293   4.08107
14.0909   4.32628
14.0528   3.95468
14.0148   3.74484
13.9770   3.94113
13.9394   4.09395
13.9021   4.31430
13.8649   4.39187
13.8279   4.37227
13.7911   4.18302
13.7546   4.16449
13.7182   4.34882
13.6820   4.12597
13.6460   3.79142
13.6101   3.92773
13.5745   4.42806
13.5391   4.54299
13.5038   4.53511
13.4687   4.55741
13.4339   4.15669
13.3991   4.52151
13.3646   4.97401
13.3302   5.24093
13.2961   5.21700
13.2621   5.19796
13.2282   5.06423
13.1946   4.58597
13.1611   4.82070
13.1278   5.09610
13.0946   4.99583
13.0616   5.10164
13.0288   5.03641
12.9962   4.87760
12.9637   4.93313
12.9313   5.21229
12.8992   5.58578
12.8672   6.12400
12.8353   6.42318
12.8036   6.36190
12.7721   5.94216
12.7407   5.56850
12.7095   5.39600
12.6784   5.16614
12.6475   4.98315
12.6167   4.75841
12.5861   4.96525
12.5556   4.98950
12.5253   4.79238
12.4951   4.92871
12.4651   5.18706
12.4352   5.08767
12.4054   4.87324
12.3758   4.29671
12.3463   3.64155
12.3170   3.38382
12.2878   3.39454
12.2588   3.26575
12.2299   3.07934
12.2011   3.16127
12.1725   3.68504
12.1439   3.72891
12.1156   3.68234
12.0873   4.14186
12.0592   4.35682
12.0312   4.28235
12.0034   4.35249
11.9757   4.68100
11.9481   4.68863
11.9206   4.30692
11.8933   4.42852
11.8661   4.67598
11.8390   4.77895
11.8120   4.94212
11.7852   4.98802
11.7584   4.76799
11.7318   4.60671
11.7053   4.80667
11.6790   5.11269
11.6527   5.37597
11.6266   5.54606
11.6006   5.72426
11.5747   5.62669
11.5489   5.64139
11.5233   5.74923
11.4977   5.85131
11.4723   5.92288
11.4469   6.06172
11.4217   6.10815
11.3966   6.30045
11.3716   6.52920
11.3468   6.57620
11.3220   6.53074
11.2973   6.18157
11.2728   6.36587
11.2483   6.50224
11.2240   6.71968
11.1997   7.01682
11.1756   6.97931
11.1515   6.87657
11.1276   7.09285
11.1038   7.37477
11.0801   7.01502
11.0564   6.93147
11.0329   7.17851
11.0095   7.33575
10.9862   7.55005
10.9629   7.55011
10.9398   7.59356
10.9168   7.67839
10.8938   8.05536
10.8710   8.33791
10.8483   8.32666
10.8256   8.30710
10.8031   8.34852
10.7806   8.57987
10.7582   8.64043
10.7360   8.74988
10.7138   8.87050
10.6917   8.86081
10.6697   9.09223
10.6478   9.38133
10.6260   9.72173
10.6042   9.79184
10.5826   9.86673
10.5610   9.87361
10.5396   9.98554
10.5182  10.16550
10.4969  10.27310
10.4757  10.59910
10.4546  11.04720
10.4335  11.27800
10.4126  11.31580
10.3917  11.62690
10.3709  11.87640
10.3502  11.68040
10.3296  11.73300
10.3091  12.15320
10.2886  12.29860
10.2683  12.46140
10.2480  12.52930
10.2277  12.95000
10.2076  13.58930
10.1876  14.05340
10.1676  14.28970
10.1477  14.54780
10.1279  14.84650
10.1081  15.05490
10.0885  15.45030
10.0689  15.54220
10.0494  15.57420
10.0299  15.98980
10.0106  16.19810
 9.9913  16.30260
 9.9720  16.59930
 9.9529  16.77690
 9.9338  17.16990
 9.9148  17.38690
 9.8959  17.38700
 9.8771  17.46010
 9.8583  17.55620
 9.8396  17.55640
 9.8210  17.44670
 9.8024  17.25000
 9.7839  17.12260
 9.7655  17.34140
 9.7471  17.49200
 9.7288  17.73370
 9.7106  18.19950
 9.6925  18.66550
 9.6744  18.87890
 9.6564  18.99560
 9.6384  18.98810
 9.6205  18.83090
 9.6027  18.96320
 9.5850  19.32230
 9.5673  19.16040
 9.5497  18.85630
 9.5321  18.67800
 9.5146  18.65330
 9.4972  18.80270
 9.4798  18.87810
 9.4625  19.02450
 9.4453  18.85150
 9.4281  18.57700
 9.4110  18.95910
 9.3940  19.49820
 9.3770  19.58640
 9.3600  19.81880
 9.3432  19.99150
 9.3264  20.13180
 9.3096  20.46220
 9.2930  20.75850
 9.2763  20.62580
 9.2598  20.42200
 9.2432  20.25220
 9.2268  20.39240
 9.2104  20.16360
 9.1941  19.87420
 9.1778  19.95240
 9.1616  20.09960
 9.1454  20.23650
 9.1293  20.02090
 9.1133  19.78950
 9.0973  19.63470
 9.0814  19.61440
 9.0655  19.61750
 9.0497  19.25070
 9.0339  19.06670
 9.0182  19.10880
 9.0025  19.27930
 8.9870  19.16220
 8.9714  18.83640
 8.9559  18.84500
 8.9405  18.98170
 8.9251  19.07590
 8.9097  19.14880
 8.8945  18.79130
 8.8792  18.66290
 8.8641  19.15840
 8.8489  19.58730
 8.8338  19.35660
 8.8188  19.29140
 8.8039  19.56570
 8.7889  19.38370
 8.7741  19.18240
 8.7592  19.24510
 8.7445  19.42620
 8.7297  19.41420
 8.7151  19.18120
 8.7005  19.07800
 8.6859  18.76350
 8.6714  18.31560
 8.6569  17.68850
 8.6425  16.52010
 8.6281  16.38110
 8.6137  17.03370
 8.5994  17.74310
 8.5852  18.53700
 8.5710  19.10840
 8.5569  19.38510
 8.5428  19.38910
 8.5287  19.62490
 8.5147  19.95340
 8.5008  19.91750
 8.4869  19.69330
 8.4730  19.60580
 8.4592  19.80680
 8.4454  19.79570
 8.4316  19.52710
 8.4180  19.35870
 8.4043  19.34280
 8.3907  19.45160
 8.3772  19.48720
 8.3637  19.28350
 8.3502  19.00960
 8.3368  18.55990
 8.3234  18.39110
 8.3100  18.24280
 8.2967  17.92810
 8.2835  17.81760
 8.2703  17.44040
 8.2571  17.11940
 8.2440  16.27360
 8.2309  15.38530
 8.2179  15.33460
 8.2049  15.23570
 8.1919  14.57480
 8.1790  13.80550
 8.1661  13.17840
 8.1532  12.45040
 8.1404  11.67170
 8.1277  11.07100
 8.1150  10.00850
 8.1023   9.04705
 8.0897   8.65518
 8.0770   8.30354
 8.0645   7.49061
 8.0520   6.72052
 8.0395   6.23314
 8.0270   5.97040
 8.0146   5.62043
 8.0023   5.20648
 7.9899   4.87258
 7.9776   4.47570
 7.9654   3.88287
 7.9532   3.69965
 7.9410   3.71525
 7.9288   3.50829
 7.9167   2.98971
 7.9047   2.74231
 7.8926   2.91541
 7.8807   2.86452
 7.8687   2.68884
 7.8568   2.46876
 7.8449   1.98577
 7.8330   1.94310
 7.8212   2.17763
 7.8094   1.97095
 7.7977   1.85392
 7.7860   1.98757
 7.7743   1.85259
 7.7627   1.76465
 7.7511   1.91276
 7.7395   1.98131
 7.7280   1.80404
 7.7165   1.77796
 7.7050   1.63714
 7.6936   1.51664
 7.6822   1.63256
 7.6708   1.56354
 7.6595   1.47202
 7.6482   1.36312
 7.6369   1.54955
 7.6257   1.80676
 7.6145   1.83549
 7.6033   1.66995
 7.5922   1.58651
 7.5811   1.63380
 7.5700   1.44005
 7.5590   1.21395
 7.5480   1.16925
 7.5370   1.31656
 7.5261   1.49034
 7.5152   1.62201
 7.5043   1.62556
 7.4935   1.53279
 7.4826   1.54716
 7.4718   1.69835
 7.4611   1.54537
 7.4504   1.41524
 7.4397   1.24128
 7.4290   1.21180
 7.4184   1.47711
 7.4078   1.51351
 7.3972   1.54461
 7.3867   1.66455
 7.3762   1.55672
 7.3657   1.19010
 7.3553   1.46877
 7.3449   1.64810
 7.3345   1.46409
 7.3241   1.50919
 7.3138   1.67321
 7.3035   1.80459
 7.2932   1.60213
 7.2830   1.39332
 7.2727   1.34509
 7.2626   1.54410
 7.2524   1.78697
 7.2423   1.88685
 7.2322   1.78989
 7.2221   1.65446
 7.2120   1.61102
 7.2020   1.59264
 7.1921   1.81618
 7.1821   1.78472
 7.1722   1.65316
 7.1623   1.79886
 7.1524   1.75560
 7.1425   1.66922
 7.1327   1.73437
 7.1229   1.56209
 7.1131   1.49376
 7.1034   1.69503
 7.0937   1.86619
 7.0840   1.67172
 7.0743   1.66739
 7.0647   2.03330
 7.0551   2.22524
 7.0455   2.15708
 7.0359   2.15083
 7.0264   2.08848
 7.0169   2.01064
 7.0074   1.96452
 6.9979   1.86367
 6.9885   1.82566
 6.9791   2.02691
 6.9697   2.28326
 6.9604   2.26965
 6.9510   2.05457
 6.9417   1.80600
 6.9324   1.75172
 6.9232   2.00013
 6.9140   2.10981
 6.9047   2.13341
 6.8956   1.93639
 6.8864   1.68984
 6.8773   1.82083
 6.8682   2.06041
 6.8591   1.99156
 6.8500   1.88191
 6.8410   1.91911
 6.8320   1.79707
 6.8230   1.77236
 6.8140   1.87967
 6.8051   1.96854
 6.7962   2.08529
 6.7873   2.12730
 6.7784   2.09684
 6.7695   1.90876
 6.7607   1.99399
 6.7519   2.03336
 6.7431   1.99426
 6.7344   2.13139
 6.7256   2.10711
 6.7169   2.07650
 6.7082   2.13177
 6.6996   1.93062
 6.6909   1.97727
 6.6823   2.17399
 6.6737   2.02261
 6.6651   1.96565
 6.6566   1.99826
 6.6480   1.99013
 6.6395   1.82078
 6.6310   1.70298
 6.6226   1.80312
 6.6141   1.98569
 6.6057   1.95945
 6.5973   1.94327
 6.5889   2.13740
 6.5805   2.18241
 6.5722   2.16699
 6.5639   2.07463
 6.5556   2.11445
 6.5473   2.10704
 6.5390   2.07885
 6.5308   1.91831
 6.5226   1.91516
 6.5144   2.08951
 6.5062   2.23314
 6.4981   2.19864
 6.4900   2.01638
 6.4818   2.02309
 6.4737   2.13482
 6.4657   2.19582
 6.4576   2.35042
 6.4496   2.18223
 6.4416   2.13123
 6.4336   2.29360
 6.4256   2.23365
 6.4177   2.26067
 6.4097   2.31182
 6.4018   2.26491
 6.3939   2.30956
 6.3860   2.21318
 6.3782   1.96711
 6.3704   1.90469
 6.3625   2.20312
 6.3547   2.37868
 6.3470   2.34883
 6.3392   2.42666
 6.3315   2.52218
 6.3237   2.31442
 6.3160   2.04079
 6.3083   1.97863
 6.3007   2.36621
 6.2930   2.48934
 6.2854   2.38549
 6.2778   2.42812
 6.2702   2.46175
 6.2626   2.29974
 6.2551   2.12198
 6.2476   2.23405
 6.2400   2.40536
 6.2325   2.31659
 6.2251   2.15179
 6.2176   2.27239
 6.2101   2.14004
 6.2027   1.97660
 6.1953   1.94875
 6.1879   2.26652
 6.1805   2.60025
 6.1732   2.50750
 6.1658   2.23590
 6.1585   2.10728
 6.1512   2.33606
 6.1439   2.46194
 6.1367   2.29226
 6.1294   2.17252
 6.1222   2.05223
 6.1149   2.20202
 6.1077   2.33415
 6.1006   2.36645
 6.0934   2.52497
 6.0862   2.45251
 6.0791   2.39754
 6.0720   2.25788
 6.0649   2.10970
 6.0578   2.16713
 6.0507   2.17288
 6.0437   2.19707
 6.0366   2.26319
 6.0296   2.28237
 6.0226   2.21210
 6.0156   2.18194
 6.0087   2.24027
 6.0017   2.45022
 5.9948   2.44642
 5.9878   2.27182
 5.9809   2.18782
 5.9740   2.23420
 5.9672   2.26345
 5.9603   2.16586
 5.9535   2.17118
 5.9466   2.22557
 5.9398   2.35678
 5.9330   2.32720
 5.9262   2.26305
 5.9195   2.23841
 5.9127   2.32788
 5.9060   2.37697
 5.8993   2.61052
 5.8926   2.59298
 5.8859   2.48965
 5.8792   2.40646
 5.8726   2.17371
 5.8659   2.22695
 5.8593   2.45243
 5.8527   2.35471
 5.8461   2.34424
 5.8395   2.40624
 5.8329   2.35810
 5.8264   2.33459
 5.8198   2.29663
 5.8133   2.34553
 5.8068   2.58788
 5.8003   2.67538
 5.7938   2.43973
 5.7874   2.50364
 5.7809   2.60098
 5.7745   2.63684
 5.7680   2.73876
 5.7616   2.65163
 5.7552   2.58183
 5.7489   2.58638
 5.7425   2.61118
 5.7361   2.64458
 5.7298   2.63172
 5.7235   2.62455
 5.7172   2.62752
 5.7109   2.62209
 5.7046   2.71236
 5.6983   2.71374
 5.6921   2.80514
 5.6858   2.73958
 5.6796   2.55612
 5.6734   2.70581
 5.6672   2.77405
 5.6610   2.64323
 5.6548   2.68278
 5.6487   2.77634
 5.6425   2.83547
 5.6364   2.71461
 5.6303   2.55399
 5.6242   2.51090
 5.6181   2.73950
 5.6120   2.90337
 5.6059   2.78449
 5.5999   2.81734
 5.5938   2.80468
 5.5878   2.62647
 5.5818   2.62133
 5.5758   2.72135
 5.5698   2.88113
 5.5638   3.03300
 5.5578   3.09654
 5.5519   2.92336
 5.5460   2.77411
 5.5400   2.87603
 5.5341   2.86439
 5.5282   2.92510
 5.5223   2.75420
 5.5164   2.72226
 5.5106   2.87511
 5.5047   2.84326
 5.4989   2.73942
 5.4931   2.82313
 5.4873   3.00825
 5.4815   3.11456
 5.4757   3.28394
 5.4699   3.25723
 5.4641   3.15994
 5.4584   3.08416
 5.4527   3.21848
 5.4469   3.17612
 5.4412   3.06782
 5.4355   3.15394
 5.4298   3.15025
 5.4241   2.98265
 5.4185   2.83594
 5.4128   2.85240
 5.4072   3.07943
 5.4015   3.28275
 5.3959   3.34086
 5.3903   3.36528
 5.3847   3.36164
 5.3791   3.22205
 5.3735   3.06466
 5.3680   2.99634
 5.3624   2.98965
 5.3569   3.02249
 5.3514   2.92722
 5.3458   2.91776
 5.3403   3.02700
 5.3348   3.03782
 5.3294   3.03900
 5.3239   3.13182
 5.3184   3.19322
 5.3130   3.27201
 5.3075   3.35933
 5.3021   3.36529
 5.2967   3.28037
 5.2913   3.12772
 5.2859   3.21040
 5.2805   3.25764
 5.2751   3.27025
 5.2698   3.27125
 5.2644   3.21415
 5.2591   3.33088
 5.2538   3.47185
 5.2485   3.46367
 5.2431   3.48876
 5.2378   3.39618
 5.2326   3.31328
 5.2273   3.42386
 5.2220   3.51472
 5.2168   3.63588
 5.2115   3.45020
 5.2063   3.23934
 5.2011   3.40956
 5.1959   3.61559
 5.1907   3.75722
 5.1855   3.62803
 5.1803   3.40192
 5.1751   3.45796
 5.1700   3.60482
 5.1648   3.69307
 5.1597   3.65173
 5.1545   3.69706
 5.1494   3.81106
 5.1443   3.95902
 5.1392   3.81598
 5.1341   3.61404
 5.1291   3.80852
 5.1240   3.91763
 5.1189   3.79978
 5.1139   3.64586
 5.1088   3.61234
 5.1038   3.82836
 5.0988   4.05086
 5.0938   4.12810
 5.0888   4.01697
 5.0838   3.87445
 5.0788   3.76648
 5.0738   3.61888
 5.0689   3.70159
 5.0639   3.99400
 5.0590   4.04814
 5.0541   3.93605
 5.0491   3.94383
 5.0442   3.94977
 5.0393   3.84311
 5.0344   3.79462
 5.0296   3.87330
 5.0247   4.13745
 5.0198   4.09266
 5.0150   3.91184
 5.0101   3.97370
 5.0053   3.99629
 5.0004   3.81102
 4.9956   3.69058
 4.9908   3.79591
 4.9860   4.07037
 4.9812   4.04264
 4.9765   3.94575
 4.9717   4.06022
 4.9669   4.25294
 4.9622   4.20151
 4.9574   4.17792
 4.9527   4.21484
 4.9480   4.39893
 4.9432   4.55033
 4.9385   4.53784
 4.9338   4.55150
 4.9291   4.52331
 4.9245   4.41409
 4.9198   4.29523
 4.9151   4.24136
 4.9105   4.29058
 4.9058   4.50887
 4.9012   4.56828
 4.8966   4.79294
 4.8919   4.81193
 4.8873   4.55395
 4.8827   4.71495
 4.8781   5.08301
 4.8736   5.04792
 4.8690   4.79367
 4.8644   4.80196
 4.8599   4.97642
 4.8553   5.00515
 4.8508   5.20008
 4.8462   5.37315
 4.8417   4.99100
 4.8372   4.87168
 4.8327   4.95701
 4.8282   5.03731
 4.8237   5.20265
 4.8192   5.41694
 4.8147   5.49805
 4.8103   5.55738
 4.8058   5.56436
 4.8014   5.35334
 4.7969   5.29269
 4.7925   5.38535
 4.7881   5.22181
 4.7836   5.22727
 4.7792   5.37868
 4.7748   5.60343
 4.7704   5.65205
 4.7660   5.44716
 4.7617   5.45218
 4.7573   5.36621
 4.7530   5.27940
 4.7486   5.44067
 4.7443   5.71514
 4.7399   5.75909
 4.7356   5.63568
 4.7313   5.58832
 4.7270   5.56485
 4.7226   5.45713
 4.7184   5.69568
 4.7141   5.90687
 4.7098   5.81664
 4.7055   5.78853
 4.7012   5.82125
 4.6970   5.77110
 4.6927   5.79090
 4.6885   5.78164
 4.6842   5.89836
 4.6800   5.84839
 4.6758   5.80635
 4.6716   5.85311
 4.6674   5.92303
 4.6632   5.94701
 4.6590   5.92736
 4.6548   6.07613
 4.6506   6.16323
 4.6465   6.27654
 4.6423   6.45020
 4.6382   6.56778
 4.6340   6.57005
 4.6299   6.29680
 4.6258   6.16724
 4.6216   6.26343
 4.6175   6.33046
 4.6134   6.35007
 4.6093   6.47097
 4.6052   6.43753
 4.6011   6.40161
 4.5971   6.69699
 4.5930   6.81352
 4.5889   6.75792
 4.5849   6.78578
 4.5808   6.91375
 4.5768   6.90006
 4.5727   6.81668
 4.5687   6.81314
 4.5647   6.97786
 4.5607   6.95273
 4.5567   7.06228
 4.5526   7.12686
 4.5487   7.12824
 4.5447   7.08083
 4.5407   7.06268
 4.5367   7.10869
 4.5328   7.14903
 4.5288   7.28463
 4.5248   7.47655
 4.5209   7.44487
 4.5170   7.42717
 4.5130   7.37604
 4.5091   7.25449
 4.5052   7.41481
 4.5013   7.57009
 4.4974   7.39577
 4.4935   7.25371
 4.4896   7.22798
 4.4857   7.27219
 4.4818   7.39368
 4.4779   7.30094
 4.4741   7.44374
 4.4702   7.68900
 4.4664   7.75011
 4.4625   7.77199
 4.4587   7.47243
 4.4549   7.40627
 4.4510   7.73254
 4.4472   7.93394
 4.4434   8.02688
 4.4396   7.85328
 4.4358   7.83948
 4.4320   7.95583
 4.4282   8.11541
 4.4245   8.25096
 4.4207   8.01934
 4.4169   8.01330
 4.4132   8.35181
 4.4094   8.35387
 4.4057   8.33178
 4.4019   8.55824
 4.3982   8.66940
 4.3945   8.54907
 4.3907   8.38481
 4.3870   8.75127
 4.3833   8.90106
 4.3796   8.66261
 4.3759   8.85900
 4.3722   8.97271
 4.3685   8.96291
 4.3649   9.10763
 4.3612   9.16725
 4.3575   9.10206
 4.3539   8.99470
 4.3502   9.04887
 4.3466   9.26379
 4.3429   9.42223
 4.3393   9.31447
 4.3357   9.27856
 4.3320   9.35528
 4.3284   9.52960
 4.3248   9.65063
 4.3212   9.43080
 4.3176   9.29582
 4.3140   9.14023
 4.3105   9.07352
 4.3069   9.38873
 4.3033   9.47314
 4.2997   9.44555
 4.2962   9.48272
 4.2926   9.32178
 4.2890   9.26667
 4.2855   9.48585
 4.2820   9.61979
 4.2784   9.54695
 4.2749   9.16384
 4.2714   9.05099
 4.2679   9.37903
 4.2644   9.53528
 4.2609   9.69395
 4.2574   9.94128
 4.2539   9.78544
 4.2504   9.48405
 4.2469   9.57919
 4.2434   9.88365
 4.2400   9.69380
 4.2365   9.53633
 4.2330   9.77619
 4.2296   9.84428
 4.2261   9.83477
 4.2227   9.94313
 4.2193  10.25940
 4.2158  10.46390
 4.2124  10.60080
 4.2090  10.62530
 4.2056  10.50620
 4.2022  10.77520
 4.1988  11.11910
 4.1954  11.26440
 4.1920  11.18130
 4.1886  11.10500
 4.1852  11.15800
 4.1818  11.18060
 4.1785  11.15160
 4.1751  11.11720
 4.1717  11.21380
 4.1684  11.35110
 4.1650  11.60780
 4.1617  11.52050
 4.1584  11.21990
 4.1550  11.12230
 4.1517  11.36320
 4.1484  11.40640
 4.1451  11.40160
 4.1418  11.37630
 4.1384  11.44090
 4.1351  11.57300
 4.1319  11.69880
 4.1286  11.85100
 4.1253  11.79700
 4.1220  11.81610
 4.1187  11.72450
 4.1155  11.78470
 4.1122  11.89200
 4.1089  11.89610
 4.1057  12.01890
 4.1024  12.04400
 4.0992  12.34410
 4.0959  12.25260
 4.0927  12.07820
 4.0895  12.02920
 4.0863  11.90120
 4.0830  11.98120
 4.0798  12.20360
 4.0766  12.16080
 4.0734  12.00880
 4.0702  12.03000
 4.0670  12.22430
 4.0639  12.30200
 4.0607  12.14850
 4.0575  12.20840
 4.0543  12.35240
 4.0511  12.24730
 4.0480  12.09780
 4.0448  12.33820
 4.0417  12.52400
 4.0385  12.63380
 4.0354  12.43840
 4.0323  12.11360
 4.0291  12.21250
 4.0260  12.10660
 4.0229  12.10360
 4.0197  12.36960
 4.0166  12.34930
 4.0135  12.01930
 4.0104  12.18320
 4.0073  12.51590
 4.0042  12.58480
 4.0011  12.42700
 3.9981  12.25450
 3.9950  12.35460
 3.9919  12.29630
 3.9888  12.37030
 3.9857  12.24140
 3.9827  12.15430
 3.9796  12.20150
 3.9766  12.33100
 3.9735  12.62110
 3.9705  12.49130
 3.9675  12.40920
 3.9644  12.55740
 3.9614  12.47930
 3.9584  12.48840
 3.9554  12.62640
 3.9523  12.50290
 3.9493  12.44710
 3.9463  12.56520
 3.9433  12.48430
 3.9403  12.53120
 3.9373  12.68720
 3.9343  12.95900
 3.9314  12.93880
 3.9284  12.91160
 3.9254  13.02160
 3.9224  12.95290
 3.9195  12.83060
 3.9165  12.84390
 3.9136  12.63810
 3.9106  12.50220
 3.9077  12.71210
 3.9047  12.78190
 3.9018  13.11280
 3.8988  13.07330
 3.8959  12.73780
 3.8930  12.62480
 3.8901  12.63330
 3.8872  12.60870
 3.8842  12.72420
 3.8813  12.50380
 3.8784  12.48580
 3.8755  12.57090
 3.8726  12.53530
 3.8697  12.79840
 3.8669  12.99880
 3.8640  13.07140
 3.8611  12.81800
 3.8582  12.41510
 3.8554  12.60360
 3.8525  12.97610
 3.8496  12.97250
 3.8468  12.73350
 3.8439  12.80360
 3.8411  13.01660
