Name: Tincalconite Na_2B_4O_5(OH)_4.3H_2O
Type: Mineral
Class: Borates
Subclass: 
Particle Size: 0-45um
Sample No.: B-4A
Owner: JPL
Wavelength range: IR
Origin: USA, California, Kern County, Boron
Collected by Burminco
Description: 





Measurement: Hemispherical reflectance
First Column: X
Second Column: Y
X Units:  Wavelength (micrometers)
Y Units:  Reflectance (percent)
First X Value: 15.3853
Last X Value: 2.00032
Number of X Values: 2256
Additional information: b04aa.txt
 
15.3853	3.55948
15.3397	3.35527
15.2945	2.88086
15.2495	2.93988
15.2048	3.00173
15.1603	2.82556
15.1161	2.68641
15.0722	2.422
15.0285	2.58612
14.9851	2.78161
14.9419	2.75565
14.8989	2.76938
14.8563	2.69567
14.8138	2.49494
14.7716	2.34818
14.7296	2.43608
14.6879	2.52092
14.6464	2.8618
14.6052	2.90302
14.5641	2.71466
14.5233	2.59449
14.4828	2.37579
14.4424	2.28034
14.4023	2.32192
14.3624	2.31963
14.3227	2.29294
14.2833	2.06242
14.244	1.88281
14.205	1.85075
14.1662	1.91772
14.1276	1.72577
14.0892	1.668
14.051	1.79406
14.0131	1.7954
13.9753	1.49665
13.9377	1.4015
13.9004	1.41515
13.8632	1.39572
13.8262	1.63063
13.7895	1.62871
13.7529	1.54313
13.7165	1.49223
13.6803	1.68101
13.6443	1.75169
13.6085	1.57468
13.5729	1.62157
13.5374	1.74335
13.5022	1.89581
13.4671	1.87374
13.4322	1.73013
13.3975	1.96637
13.363	1.99333
13.3286	1.88206
13.2944	1.89953
13.2604	1.7571
13.2266	1.76685
13.193	1.89185
13.1595	1.84627
13.1262	1.76076
13.093	1.7839
13.06	2.04708
13.0272	2.00865
12.9946	1.95506
12.9621	1.96385
12.9298	1.77495
12.8976	1.62693
12.8656	1.6241
12.8337	1.80127
12.8021	1.95777
12.7705	1.89148
12.7391	1.83405
12.7079	1.71229
12.6769	1.74132
12.6459	1.9763
12.6152	2.04058
12.5845	1.90507
12.5541	1.86516
12.5238	1.9632
12.4936	2.20877
12.4635	2.40754
12.4337	2.29146
12.4039	2.27012
12.3743	2.36549
12.3448	2.42267
12.3155	2.53368
12.2863	2.7126
12.2573	2.77761
12.2284	2.93784
12.1996	3.19571
12.171	3.46788
12.1425	3.62328
12.1141	3.53553
12.0859	3.44774
12.0578	3.21045
12.0298	2.93702
12.0019	2.68386
11.9742	2.24173
11.9466	1.75567
11.9192	1.52975
11.8918	1.29363
11.8646	1.1598
11.8375	0.949793
11.8106	0.669019
11.7837	0.674279
11.757	0.721393
11.7304	0.724865
11.7039	0.774927
11.6776	0.844374
11.6513	0.888453
11.6252	0.854346
11.5992	0.867237
11.5733	0.947735
11.5475	0.969075
11.5219	0.980821
11.4963	1.06688
11.4709	1.17811
11.4455	1.29503
11.4203	1.275
11.3952	1.20199
11.3702	1.1903
11.3454	1.33289
11.3206	1.32692
11.2959	1.20505
11.2714	1.28234
11.2469	1.3819
11.2226	1.48152
11.1983	1.50853
11.1742	1.49778
11.1502	1.56856
11.1263	1.62027
11.1024	1.65573
11.0787	1.58989
11.0551	1.62634
11.0316	1.7152
11.0081	1.6719
10.9848	1.66904
10.9616	1.74032
10.9385	1.76064
10.9154	1.75162
10.8925	1.87287
10.8697	2.04463
10.8469	2.12568
10.8243	2.22875
10.8017	2.30947
10.7793	2.34801
10.7569	2.38393
10.7346	2.34203
10.7125	2.34886
10.6904	2.55179
10.6684	2.7274
10.6465	2.87118
10.6247	3.08394
10.6029	3.17407
10.5813	3.20041
10.5597	3.22502
10.5383	3.12013
10.5169	2.70722
10.4956	2.17085
10.4744	1.67156
10.4533	1.26039
10.4323	1.21099
10.4113	1.25269
10.3904	1.37152
10.3697	1.60709
10.349	1.75651
10.3284	1.82451
10.3078	1.9615
10.2874	2.11251
10.267	2.15931
10.2467	2.22812
10.2265	2.33508
10.2064	2.4632
10.1863	2.62531
10.1663	2.78577
10.1464	3.00383
10.1266	3.35775
10.1069	3.6076
10.0872	3.68791
10.0676	3.88947
10.0481	4.13005
10.0287	4.48693
10.0093	4.8635
9.99005	5.01724
9.97084	5.14961
9.95169	5.22003
9.93263	4.99428
9.91364	4.73362
9.89472	4.60643
9.87587	4.3318
9.8571	3.90326
9.83839	3.53799
9.81976	3.23013
9.80119	3.14759
9.78271	3.14102
9.76428	3.08484
9.74592	3.03037
9.72764	3.05136
9.70943	3.20539
9.69128	3.34518
9.6732	3.30615
9.65518	3.28603
9.63724	3.25623
9.61935	3.22068
9.60155	3.08925
9.5838	2.9105
9.56611	2.73722
9.5485	2.49895
9.53094	2.15286
9.51345	1.77647
9.49604	1.51699
9.47867	1.45489
9.46137	1.2524
9.44414	0.95326
9.42697	0.883723
9.40986	0.802082
9.39281	0.78733
9.37583	0.790527
9.35891	0.760348
9.34204	0.731548
9.32524	0.762398
9.3085	0.802455
9.29182	0.872694
9.27519	0.973166
9.25863	0.945768
9.24213	0.777513
9.22568	0.589041
9.2093	0.529604
9.19297	0.611249
9.17669	0.745313
9.16048	0.62186
9.14433	0.536582
9.12823	0.565919
9.11218	0.48554
9.0962	0.490316
9.08027	0.552166
9.06439	0.565122
9.04858	0.698364
9.03281	0.69601
9.0171	0.682511
9.00145	0.717311
8.98585	0.758142
8.9703	0.77842
8.9548	0.847403
8.93937	1.03307
8.92398	1.24595
8.90865	1.31155
8.89337	1.46619
8.87814	1.77468
8.86296	2.07625
8.84784	2.30127
8.83277	2.47347
8.81774	2.50106
8.80277	2.45501
8.78786	2.33449
8.77298	1.91164
8.75816	1.55935
8.7434	1.48041
8.72868	1.24791
8.714	1.11564
8.69938	1.01961
8.68481	0.954692
8.67029	0.851855
8.65581	0.786415
8.64139	0.733105
8.62701	0.782963
8.61268	0.808613
8.5984	0.838588
8.58416	0.776273
8.56997	0.601022
8.55583	0.59253
8.54174	0.739815
8.52769	0.704989
8.51368	0.615266
8.49973	0.653045
8.48582	0.8875
8.47195	0.952369
8.45813	0.817663
8.44436	0.861504
8.43062	0.788828
8.41693	0.76313
8.4033	0.926811
8.3897	1.05905
8.37614	1.01805
8.36264	0.945294
8.34917	0.985199
8.33574	1.1383
8.32236	1.28824
8.30903	1.19954
8.29573	1.07395
8.28248	1.11714
8.26927	1.14381
8.2561	1.06093
8.24298	0.980634
8.2299	0.993174
8.21685	0.992353
8.20385	0.931683
8.19089	0.885756
8.17797	0.873234
8.16509	0.851286
8.15225	0.893508
8.13946	1.08333
8.1267	1.18444
8.11398	1.12278
8.10131	1.11977
8.08867	1.27011
8.07606	1.25922
8.0635	1.06339
8.05099	1.03526
8.0385	1.1064
8.02606	1.1488
8.01366	1.26619
8.00129	1.30679
7.98896	1.33921
7.97667	1.34892
7.96442	1.28526
7.9522	1.21659
7.94002	1.24418
7.92788	1.25939
7.91578	1.24151
7.90371	1.19858
7.89168	1.15663
7.87969	1.08036
7.86773	1.13148
7.85581	1.25933
7.84392	1.3002
7.83207	1.27754
7.82026	1.21007
7.80849	1.19749
7.79674	1.14837
7.78503	1.06691
7.77337	1.05591
7.76173	1.02642
7.75012	1.00873
7.73856	1.08497
7.72703	1.01003
7.71553	0.863047
7.70406	0.888699
7.69263	0.90238
7.68123	0.863099
7.66987	0.853667
7.65855	0.847251
7.64725	0.832296
7.63598	0.963837
7.62475	1.09134
7.61356	1.0287
7.60239	1.05748
7.59126	1.19906
7.58017	1.23893
7.5691	1.2647
7.55806	1.31982
7.54707	1.45432
7.5361	1.52818
7.52516	1.63814
7.51425	1.72504
7.50338	1.69028
7.49253	1.74894
7.48172	1.83189
7.47094	1.84911
7.46019	1.9207
7.44947	1.95689
7.43879	1.86334
7.42813	1.93692
7.4175	1.97955
7.4069	1.81577
7.39634	1.73395
7.3858	1.74181
7.37529	1.61837
7.36482	1.541
7.35437	1.45852
7.34396	1.27881
7.33357	1.20715
7.32321	1.17857
7.31288	1.18252
7.30258	1.23247
7.29231	1.25311
7.28207	1.26961
7.27185	1.30096
7.26167	1.33102
7.25152	1.30781
7.24139	1.28391
7.23129	1.27356
7.22122	1.26798
7.21117	1.29457
7.20116	1.28481
7.19117	1.33112
7.18121	1.37675
7.17128	1.20716
7.16137	1.08059
7.1515	1.2273
7.14164	1.2184
7.13182	1.18957
7.12203	1.26289
7.11225	1.25408
7.10251	1.17045
7.0928	1.24376
7.08311	1.32263
7.07344	1.29399
7.06381	1.32394
7.0542	1.42193
7.04461	1.56502
7.03506	1.59941
7.02552	1.5313
7.01601	1.56181
7.00653	1.67012
6.99708	1.63194
6.98765	1.64579
6.97824	1.69539
6.96886	1.6875
6.95951	1.67733
6.95018	1.6706
6.94087	1.61963
6.9316	1.54554
6.92234	1.45949
6.91311	1.39873
6.90391	1.33985
6.89473	1.3612
6.88557	1.36515
6.87644	1.30463
6.86733	1.31973
6.85824	1.37431
6.84918	1.40697
6.84015	1.48601
6.83114	1.62102
6.82215	1.76441
6.81319	1.84381
6.80424	1.89657
6.79532	2.09707
6.78643	2.28428
6.77756	2.32127
6.76871	2.36057
6.75989	2.43549
6.75109	2.52927
6.74231	2.71354
6.73355	2.88209
6.72482	3.00463
6.71611	3.12897
6.70742	3.19366
6.69875	3.13589
6.69011	3.07978
6.68149	3.03254
6.67289	2.96646
6.66431	2.94457
6.65576	2.88241
6.64722	2.72147
6.63871	2.51076
6.63022	2.31581
6.62175	2.04241
6.61331	1.67708
6.60488	1.47057
6.59648	1.35686
6.5881	1.15902
6.57974	0.98457
6.5714	0.818789
6.56308	0.608852
6.55478	0.546718
6.54651	0.48308
6.53825	0.414721
6.53001	0.461265
6.5218	0.479695
6.51361	0.494821
6.50544	0.501412
6.49729	0.499497
6.48915	0.410237
6.48104	0.368613
6.47295	0.432354
6.46488	0.467019
6.45683	0.446958
6.4488	0.453973
6.44079	0.419167
6.4328	0.407498
6.42482	0.49262
6.41687	0.545104
6.40894	0.631578
6.40103	0.606971
6.39314	0.548263
6.38526	0.594753
6.37741	0.589308
6.36957	0.600471
6.36176	0.65186
6.35396	0.720764
6.34618	0.814327
6.33843	0.761774
6.33069	0.682114
6.32297	0.737002
6.31527	0.833227
6.30758	0.820755
6.29992	0.801788
6.29227	0.790209
6.28465	0.83461
6.27704	0.874026
6.26945	0.825831
6.26188	0.883794
6.25432	1.03361
6.24679	0.938566
6.23927	0.842563
6.23177	0.89124
6.22429	0.953733
6.21683	0.995256
6.20938	0.9044
6.20195	0.91012
6.19454	0.968796
6.18715	0.935877
6.17978	0.951385
6.17242	1.00614
6.16508	0.923364
6.15776	0.864185
6.15045	0.927774
6.14317	0.943585
6.1359	0.868275
6.12864	0.842844
6.12141	0.809893
6.11419	0.764815
6.10699	0.782452
6.0998	0.749808
6.09263	0.719946
6.08549	0.687346
6.07835	0.639195
6.07123	0.575171
6.06413	0.585707
6.05705	0.613327
6.04998	0.613525
6.04293	0.619965
6.0359	0.543129
6.02888	0.473309
6.02187	0.433513
6.01489	0.397412
6.00792	0.464337
6.00096	0.514758
5.99403	0.51651
5.98711	0.505346
5.9802	0.587539
5.97331	0.639236
5.96644	0.580746
5.95958	0.542453
5.95274	0.537557
5.94591	0.507762
5.9391	0.493357
5.9323	0.456688
5.92552	0.515167
5.91876	0.547964
5.91201	0.463797
5.90528	0.499566
5.89856	0.705494
5.89186	0.725186
5.88517	0.68429
5.8785	0.700977
5.87184	0.74099
5.8652	0.781626
5.85857	0.843381
5.85196	0.862043
5.84536	0.945458
5.83878	1.05451
5.83221	1.13053
5.82566	1.1859
5.81912	1.21813
5.81259	1.28198
5.80608	1.35036
5.79959	1.40612
5.79311	1.43252
5.78665	1.50918
5.78019	1.66133
5.77376	1.77138
5.76734	1.84387
5.76093	1.82897
5.75453	1.9059
5.74815	2.04591
5.74179	2.06123
5.73543	2.03803
5.7291	2.06028
5.72277	2.15809
5.71646	2.18702
5.71017	2.18913
5.70389	2.2036
5.69762	2.29285
5.69136	2.33427
5.68513	2.35465
5.6789	2.42496
5.67268	2.43454
5.66648	2.42537
5.6603	2.45452
5.65413	2.48644
5.64797	2.56683
5.64182	2.72775
5.63569	2.74153
5.62957	2.7216
5.62347	2.71886
5.61737	2.71067
5.61129	2.76273
5.60522	2.75157
5.59917	2.71558
5.59313	2.76717
5.5871	2.81979
5.58109	2.89303
5.57509	2.97413
5.5691	2.9665
5.56312	2.92725
5.55716	3.02066
5.55121	3.05329
5.54528	3.02155
5.53935	3.04534
5.53344	3.11714
5.52754	3.25021
5.52166	3.25902
5.51578	3.17998
5.50992	3.185
5.50407	3.25121
5.49823	3.31272
5.49241	3.26937
5.4866	3.34302
5.4808	3.54991
5.47501	3.61965
5.46923	3.68004
5.46347	3.70233
5.45772	3.65981
5.45198	3.64152
5.44625	3.67189
5.44054	3.70292
5.43484	3.74621
5.42914	3.84084
5.42347	3.89648
5.4178	3.88202
5.41214	3.9278
5.4065	4.07171
5.40087	4.15393
5.39525	4.1371
5.38964	4.2845
5.38404	4.45423
5.37846	4.47747
5.37288	4.57766
5.36732	4.63174
5.36177	4.66326
5.35623	4.70188
5.35071	4.76328
5.34519	4.82454
5.33968	4.95424
5.33419	5.02711
5.32871	5.08698
5.32324	5.10602
5.31778	5.14611
5.31233	5.1904
5.30689	5.22965
5.30147	5.23084
5.29605	5.24262
5.29065	5.30739
5.28525	5.30003
5.27987	5.18485
5.2745	5.12071
5.26914	5.16108
5.26379	5.2119
5.25845	5.28305
5.25312	5.28084
5.24781	5.24334
5.2425	5.25113
5.23721	5.24237
5.23192	5.24905
5.22665	5.24853
5.22138	5.22688
5.21613	5.21091
5.21089	5.19926
5.20566	5.1716
5.20044	5.18044
5.19522	5.26807
5.19002	5.23582
5.18483	5.181
5.17965	5.2222
5.17448	5.2519
5.16933	5.27416
5.16418	5.28995
5.15904	5.29132
5.15391	5.29161
5.14879	5.37984
5.14368	5.45964
5.13859	5.34732
5.1335	5.31902
5.12842	5.42856
5.12335	5.55121
5.1183	5.6159
5.11325	5.67396
5.10821	5.7071
5.10318	5.70514
5.09817	5.69484
5.09316	5.75607
5.08816	5.8378
5.08317	5.84979
5.07819	5.87291
5.07322	5.90981
5.06826	5.97457
5.06331	6.09539
5.05837	6.13672
5.05344	6.09062
5.04852	6.02075
5.04361	6.0283
5.03871	6.09254
5.03382	6.05784
5.02894	6.10787
5.02406	6.198
5.0192	6.21774
5.01435	6.22253
5.0095	6.13962
5.00467	6.15029
4.99984	6.22375
4.99502	6.21942
4.99021	6.21955
4.98542	6.18578
4.98063	6.17022
4.97585	6.23661
4.97108	6.23581
4.96632	6.14582
4.96156	6.04378
4.95682	6.09042
4.95209	6.18135
4.94736	6.19472
4.94264	6.2726
4.93794	6.24043
4.93324	6.10942
4.92855	6.18535
4.92387	6.25555
4.9192	6.14863
4.91453	6.15614
4.90988	6.2502
4.90524	6.27491
4.9006	6.33002
4.89597	6.3536
4.89135	6.31664
4.88674	6.33193
4.88214	6.34832
4.87755	6.34685
4.87296	6.40045
4.86839	6.48386
4.86382	6.5602
4.85926	6.56283
4.85471	6.51909
4.85017	6.55362
4.84564	6.69888
4.84111	6.75298
4.8366	6.8042
4.83209	6.8717
4.82759	6.8377
4.8231	6.88863
4.81862	6.87755
4.81415	6.83838
4.80968	6.90289
4.80522	6.85304
4.80077	6.80266
4.79633	6.81952
4.7919	6.81255
4.78747	6.7873
4.78306	6.81877
4.77865	6.8906
4.77425	6.87896
4.76986	6.84838
4.76547	6.87393
4.7611	6.84103
4.75673	6.72493
4.75237	6.68866
4.74802	6.6551
4.74367	6.65821
4.73934	6.67353
4.73501	6.6301
4.73069	6.70066
4.72638	6.72468
4.72207	6.69512
4.71777	6.77955
4.71348	6.75768
4.7092	6.67742
4.70493	6.67032
4.70066	6.66523
4.69641	6.69357
4.69216	6.69697
4.68791	6.60149
4.68368	6.56516
4.67945	6.56443
4.67523	6.593
4.67102	6.48259
4.66682	6.38458
4.66262	6.45246
4.65843	6.50143
4.65425	6.44798
4.65007	6.3455
4.64591	6.26767
4.64175	6.2653
4.6376	6.34047
4.63345	6.35327
4.62932	6.25999
4.62519	6.2355
4.62106	6.25953
4.61695	6.18534
4.61284	6.15063
4.60874	6.15962
4.60465	6.15247
4.60056	6.10509
4.59648	6.08598
4.59241	6.08807
4.58835	6.05987
4.58429	6.10618
4.58024	6.12913
4.5762	5.99705
4.57216	5.9559
4.56814	5.96809
4.56411	5.91353
4.5601	5.93511
4.55609	5.95217
4.55209	5.87916
4.5481	5.78868
4.54411	5.78698
4.54013	5.73018
4.53616	5.67287
4.5322	5.6343
4.52824	5.62632
4.52429	5.6807
4.52034	5.67737
4.51641	5.68098
4.51247	5.73281
4.50855	5.7444
4.50463	5.82318
4.50072	5.88742
4.49682	5.89411
4.49292	5.88611
4.48903	5.80716
4.48515	5.82784
4.48127	5.89826
4.4774	5.96505
4.47354	5.97902
4.46968	6.01988
4.46584	6.07408
4.46199	6.0736
4.45815	6.14331
4.45432	6.25644
4.4505	6.32809
4.44668	6.26586
4.44287	6.32575
4.43907	6.43676
4.43527	6.42573
4.43148	6.39513
4.4277	6.32923
4.42392	6.34926
4.42015	6.39027
4.41638	6.36162
4.41262	6.30752
4.40887	6.33533
4.40513	6.32356
4.40139	6.26097
4.39765	6.24437
4.39393	6.23462
4.39021	6.15966
4.38649	6.13023
4.38278	6.14443
4.37908	6.12062
4.37539	6.10704
4.3717	6.13402
4.36801	6.15157
4.36434	6.09275
4.36067	6.06733
4.357	6.02367
4.35335	5.97476
4.34969	6.02892
4.34605	6.08197
4.34241	6.10795
4.33877	6.15907
4.33514	6.13909
4.33152	6.09822
4.32791	6.13086
4.3243	6.1558
4.32069	6.14031
4.3171	6.14591
4.31351	6.17497
4.30992	6.14536
4.30634	6.08086
4.30277	6.01965
4.2992	5.97026
4.29564	5.99272
4.29208	6.07374
4.28853	6.03474
4.28499	5.95487
4.28145	5.92328
4.27792	5.92618
4.27439	5.90374
4.27087	5.91555
4.26735	6.01386
4.26384	5.98763
4.26034	5.89375
4.25684	5.80151
4.25335	5.73454
4.24986	5.73462
4.24638	5.67642
4.24291	5.51974
4.23944	5.37863
4.23598	5.41747
4.23252	5.41528
4.22906	5.13753
4.22562	4.981
4.22218	5.01654
4.21874	5.02196
4.21531	4.81385
4.21189	4.65888
4.20847	4.63813
4.20506	4.57563
4.20165	4.48235
4.19825	4.33101
4.19485	4.18689
4.19146	4.03836
4.18807	3.94553
4.18469	3.83611
4.18132	3.70831
4.17795	3.61141
4.17458	3.41655
4.17123	3.2287
4.16787	3.22596
4.16453	3.16577
4.16118	2.96915
4.15785	2.77443
4.15451	2.63119
4.15119	2.55633
4.14787	2.49007
4.14455	2.4067
4.14124	2.25088
4.13794	2.1383
4.13464	2.0766
4.13134	2.04712
4.12805	2.02051
4.12477	2.01082
4.12149	1.93177
4.11822	1.83339
4.11495	1.77437
4.11168	1.70412
4.10843	1.69563
4.10517	1.74822
4.10192	1.87186
4.09868	1.89194
4.09545	1.82557
4.09221	1.77882
4.08899	1.79253
4.08576	1.84856
4.08255	1.88483
4.07933	1.92934
4.07613	1.89442
4.07292	1.89991
4.06973	1.91343
4.06654	1.929
4.06335	1.92547
4.06017	1.89922
4.05699	1.94121
4.05382	1.98441
4.05065	1.97121
4.04749	1.91742
4.04433	1.90284
4.04118	1.97515
4.03803	2.06099
4.03489	2.08003
4.03175	2.00805
4.02862	1.94744
4.02549	1.9418
4.02237	1.97637
4.01925	2.06822
4.01614	2.10736
4.01303	2.06548
4.00993	2.04638
4.00683	1.99017
4.00373	2.01862
4.00064	2.09745
3.99756	2.10562
3.99448	2.05483
3.9914	1.9984
3.98833	2.06023
3.98527	2.26839
3.98221	2.44024
3.97915	2.29758
3.9761	2.10819
3.97305	2.12822
3.97001	2.23411
3.96697	2.34984
3.96394	2.39244
3.96091	2.33222
3.95789	2.36475
3.95487	2.43807
3.95186	2.40463
3.94885	2.37033
3.94584	2.29692
3.94284	2.26715
3.93984	2.36324
3.93685	2.3283
3.93386	2.2321
3.93088	2.29071
3.9279	2.3322
3.92493	2.33194
3.92196	2.3525
3.919	2.28991
3.91604	2.20148
3.91308	2.18647
3.91013	2.13874
3.90718	2.09115
3.90424	2.06792
3.9013	2.02768
3.89837	1.92978
3.89544	1.91289
3.89252	1.89294
3.8896	1.90879
3.88668	1.87363
3.88377	1.81161
3.88086	1.75549
3.87796	1.743
3.87506	1.75213
3.87217	1.65803
3.86928	1.6055
3.86639	1.6803
3.86351	1.59253
3.86064	1.5928
3.85776	1.58288
3.8549	1.59497
3.85203	1.65949
3.84917	1.62767
3.84631	1.54104
3.84346	1.49315
3.84062	1.46816
3.83777	1.45788
3.83494	1.45223
3.8321	1.41277
3.82927	1.48489
3.82644	1.53105
3.82362	1.53378
3.82081	1.55258
3.81799	1.55478
3.81518	1.53076
3.81238	1.48646
3.80958	1.55135
3.80678	1.59507
3.80399	1.62311
3.8012	1.58287
3.79841	1.53614
3.79563	1.57513
3.79286	1.67729
3.79008	1.68687
3.78731	1.68139
3.78455	1.67565
3.78179	1.64221
3.77903	1.58466
3.77628	1.62755
3.77353	1.68186
3.77079	1.70559
3.76805	1.68924
3.76531	1.68344
3.76258	1.73884
3.75985	1.81804
3.75713	1.82864
3.7544	1.78209
3.75169	1.78484
3.74898	1.76249
3.74627	1.77413
3.74356	1.79908
3.74086	1.80303
3.73816	1.87443
3.73547	1.89247
3.73278	1.83399
3.7301	1.84685
3.72741	1.80427
3.72474	1.81994
3.72206	1.83534
3.71939	1.79288
3.71673	1.83972
3.71406	1.83826
3.71141	1.87291
3.70875	1.90903
3.7061	1.83776
3.70345	1.86605
3.70081	1.75508
3.69817	1.66617
3.69553	1.75114
3.6929	1.83476
3.69027	1.85895
3.68765	1.82584
3.68503	1.75208
3.68241	1.78253
3.6798	1.8271
3.67719	1.758
3.67458	1.71292
3.67198	1.71979
3.66938	1.65393
3.66678	1.69972
3.66419	1.73958
3.66161	1.67308
3.65902	1.6084
3.65644	1.67559
3.65387	1.66994
3.65129	1.74408
3.64872	1.75726
3.64616	1.65073
3.64359	1.50354
3.64103	1.42872
3.63848	1.46572
3.63593	1.46476
3.63338	1.48067
3.63084	1.60424
3.6283	1.60833
3.62576	1.47074
3.62322	1.38308
3.62069	1.39418
3.61817	1.37992
3.61564	1.35573
3.61312	1.36293
3.61061	1.43187
3.6081	1.36268
3.60559	1.26661
3.60308	1.2677
3.60058	1.28932
3.59808	1.28691
3.59558	1.22018
3.59309	1.14351
3.59061	1.20852
3.58812	1.30347
3.58564	1.28409
3.58316	1.27481
3.58069	1.28067
3.57822	1.23247
3.57575	1.23815
3.57328	1.22042
3.57082	1.22981
3.56836	1.29652
3.56591	1.3679
3.56346	1.34762
3.56101	1.25499
3.55857	1.20499
3.55613	1.18303
3.55369	1.16994
3.55126	1.17782
3.54883	1.15631
3.5464	1.18572
3.54397	1.25134
3.54155	1.19766
3.53914	1.09328
3.53672	1.08024
3.53431	1.18075
3.5319	1.13579
3.5295	1.11405
3.5271	1.16215
3.5247	1.16098
3.52231	1.19686
3.51991	1.22639
3.51753	1.15157
3.51514	1.11357
3.51276	1.13258
3.51038	1.10281
3.50801	1.10898
3.50563	1.10051
3.50327	1.02177
3.5009	1.03164
3.49854	1.18027
3.49618	1.18969
3.49382	1.20761
3.49147	1.21816
3.48912	1.14394
