Name: Microcline (Feldspar) (K,Na)AlSi_3O_8
Type: Mineral
Class: Silicates
Subclass: Tectosilicates
Particle Size: 125-500um
Sample No.: TS-17A
Owner: JPL
Wavelength range: IR
Origin: 
Collected by JPL
Description: 





Measurement: Hemispherical reflectance
First Column: X
Second Column: Y
X Units:  Wavelength (micrometers)
Y Units:  Reflectance (percent)
First X Value: 15.3853
Last X Value: 2.00032
Number of X Values: 2256
Additional information: ts17aa.txt
 
15.3853	4.42523
15.3397	4.1652
15.2945	3.61742
15.2495	3.1336
15.2048	2.6382
15.1603	2.40758
15.1161	2.10121
15.0722	1.78742
15.0285	1.91672
14.9851	2.08653
14.9419	2.13142
14.8989	2.20457
14.8563	2.09575
14.8138	1.89901
14.7716	2.00755
14.7296	2.09454
14.6879	2.07772
14.6464	2.29565
14.6052	2.46752
14.5641	2.56172
14.5233	2.77814
14.4828	2.9319
14.4424	2.93174
14.4023	2.90281
14.3624	2.82982
14.3227	2.76758
14.2833	2.80287
14.244	3.06127
14.205	3.158
14.1662	3.15909
14.1276	3.30752
14.0892	3.3885
14.051	3.54385
14.0131	3.54248
13.9753	3.55011
13.9377	3.92526
13.9004	3.99441
13.8632	3.93878
13.8262	4.24491
13.7895	4.42215
13.7529	4.1289
13.7165	3.89279
13.6803	3.67887
13.6443	3.47158
13.6085	3.25287
13.5729	2.95967
13.5374	2.65254
13.5022	2.59746
13.4671	2.83509
13.4322	3.029
13.3975	3.03117
13.363	2.94523
13.3286	2.82414
13.2944	3.03586
13.2604	3.21973
13.2266	3.27048
13.193	3.45491
13.1595	3.78493
13.1262	4.01946
13.093	4.15631
13.06	4.37818
13.0272	4.50697
12.9946	4.46186
12.9621	4.33151
12.9298	4.09983
12.8976	3.76901
12.8656	3.36846
12.8337	2.91958
12.8021	2.54076
12.7705	2.3736
12.7391	2.32754
12.7079	2.31039
12.6769	2.37866
12.6459	2.3539
12.6152	2.23693
12.5845	2.27111
12.5541	2.38617
12.5238	2.53847
12.4936	2.69636
12.4635	2.70484
12.4337	2.77843
12.4039	2.72986
12.3743	2.68104
12.3448	2.61397
12.3155	2.52101
12.2863	2.70227
12.2573	2.9167
12.2284	2.95866
12.1996	3.00346
12.171	3.14875
12.1425	3.2927
12.1141	3.4102
12.0859	3.48199
12.0578	3.41471
12.0298	3.48338
12.0019	3.65467
11.9742	3.60281
11.9466	3.47637
11.9192	3.67679
11.8918	3.85158
11.8646	3.89688
11.8375	3.98605
11.8106	3.96861
11.7837	3.93598
11.757	3.90651
11.7304	3.87169
11.7039	3.95987
11.6776	4.06542
11.6513	4.07769
11.6252	4.14667
11.5992	4.2165
11.5733	4.39942
11.5475	4.46478
11.5219	4.39372
11.4963	4.53359
11.4709	4.61154
11.4455	4.56367
11.4203	4.67009
11.3952	4.71065
11.3702	4.57659
11.3454	4.62253
11.3206	4.80918
11.2959	4.90439
11.2714	5.0193
11.2469	5.0745
11.2226	5.08404
11.1983	5.05867
11.1742	4.90039
11.1502	4.96402
11.1263	5.21289
11.1024	5.3651
11.0787	5.37291
11.0551	5.35505
11.0316	5.40063
11.0081	5.44939
10.9848	5.54183
10.9616	5.60907
10.9385	5.65833
10.9154	5.77196
10.8925	5.8441
10.8697	5.95452
10.8469	6.02434
10.8243	6.02766
10.8017	5.93179
10.7793	6.08583
10.7569	6.31581
10.7346	6.39833
10.7125	6.41919
10.6904	6.43281
10.6684	6.65995
10.6465	6.88787
10.6247	7.03892
10.6029	7.10436
10.5813	7.30796
10.5597	7.47608
10.5383	7.48171
10.5169	7.67848
10.4956	8.058
10.4744	8.19735
10.4533	8.26498
10.4323	8.44974
10.4113	8.70774
10.3904	8.90657
10.3697	9.21612
10.349	9.54442
10.3284	9.80117
10.3078	10.2503
10.2874	10.6886
10.267	11.0701
10.2467	11.5163
10.2265	11.8961
10.2064	12.4035
10.1863	13.0848
10.1663	13.7652
10.1464	14.3022
10.1266	14.8195
10.1069	15.5703
10.0872	16.4193
10.0676	17.2152
10.0481	17.8839
10.0287	18.6217
10.0093	19.256
9.99005	19.7581
9.97084	20.3374
9.95169	21.0696
9.93263	21.6888
9.91364	22.0982
9.89472	22.5946
9.87587	23.1791
9.8571	23.4796
9.83839	23.6487
9.81976	23.541
9.80119	23.1819
9.78271	22.9235
9.76428	22.7377
9.74592	22.4795
9.72764	22.1803
9.70943	21.8504
9.69128	21.5619
9.6732	21.2814
9.65518	20.979
9.63724	20.8794
9.61935	21.0209
9.60155	21.3598
9.5838	21.8194
9.56611	22.071
9.5485	22.3615
9.53094	22.7594
9.51345	23.0311
9.49604	23.2158
9.47867	23.321
9.46137	23.0711
9.44414	22.3416
9.42697	21.3031
9.40986	20.2981
9.39281	19.5685
9.37583	19.3649
9.35891	19.607
9.34204	19.9146
9.32524	20.1098
9.3085	20.1818
9.29182	20.4075
9.27519	20.7308
9.25863	20.8924
9.24213	21.0043
9.22568	21.2465
9.2093	21.355
9.19297	21.1986
9.17669	21.0346
9.16048	20.7948
9.14433	20.327
9.12823	19.6825
9.11218	19.0168
9.0962	18.0834
9.08027	16.9941
9.06439	16.066
9.04858	15.3432
9.03281	14.7524
9.0171	14.4214
9.00145	14.4108
8.98585	14.573
8.9703	14.8236
8.9548	15.2555
8.93937	15.7488
8.92398	16.1047
8.90865	16.2931
8.89337	16.505
8.87814	16.6836
8.86296	16.8794
8.84784	17.1753
8.83277	17.5947
8.81774	18.0602
8.80277	18.4653
8.78786	18.8594
8.77298	19.1596
8.75816	19.3426
8.7434	19.485
8.72868	19.4785
8.714	19.6179
8.69938	19.7871
8.68481	19.7252
8.67029	19.5576
8.65581	19.4116
8.64139	19.2566
8.62701	19.1336
8.61268	19.0661
8.5984	19.0508
8.58416	19.0037
8.56997	18.8979
8.55583	18.6582
8.54174	18.5035
8.52769	18.269
8.51368	17.8689
8.49973	17.4193
8.48582	16.9275
8.47195	16.5851
8.45813	16.3546
8.44436	16.0707
8.43062	15.7567
8.41693	15.382
8.4033	14.9398
8.3897	14.3506
8.37614	13.7742
8.36264	13.1391
8.34917	12.4982
8.33574	11.7561
8.32236	10.9551
8.30903	10.1748
8.29573	9.40946
8.28248	8.60899
8.26927	8.03213
8.2561	7.43482
8.24298	6.84354
8.2299	6.35732
8.21685	5.82028
8.20385	5.2051
8.19089	4.73712
8.17797	4.33641
8.16509	4.06572
8.15225	3.68479
8.13946	3.39945
8.1267	3.05808
8.11398	2.66258
8.10131	2.48072
8.08867	2.28023
8.07606	1.94475
8.0635	1.71914
8.05099	1.47925
8.0385	1.28568
8.02606	1.20618
8.01366	1.16019
8.00129	1.11784
7.98896	1.07371
7.97667	0.999644
7.96442	0.855508
7.9522	0.812645
7.94002	0.746084
7.92788	0.623438
7.91578	0.552002
7.90371	0.513535
7.89168	0.527387
7.87969	0.577274
7.86773	0.564053
7.85581	0.469842
7.84392	0.46487
7.83207	0.456248
7.82026	0.436537
7.80849	0.421173
7.79674	0.398745
7.78503	0.453375
7.77337	0.466883
7.76173	0.482111
7.75012	0.503831
7.73856	0.432949
7.72703	0.38095
7.71553	0.403212
7.70406	0.335462
7.69263	0.335751
7.68123	0.353092
7.66987	0.402689
7.65855	0.454248
7.64725	0.495634
7.63598	0.53103
7.62475	0.437844
7.61356	0.361698
7.60239	0.359416
7.59126	0.391672
7.58017	0.467963
7.5691	0.490512
7.55806	0.472567
7.54707	0.454829
7.5361	0.529352
7.52516	0.569107
7.51425	0.560895
7.50338	0.598636
7.49253	0.582414
7.48172	0.630822
7.47094	0.610399
7.46019	0.55713
7.44947	0.610043
7.43879	0.630921
7.42813	0.640999
7.4175	0.601063
7.4069	0.672813
7.39634	0.755324
7.3858	0.759647
7.37529	0.670545
7.36482	0.656102
7.35437	0.746483
7.34396	0.830747
7.33357	0.857347
7.32321	0.795881
7.31288	0.747597
7.30258	0.85046
7.29231	0.929329
7.28207	0.840948
7.27185	0.801819
7.26167	0.852126
7.25152	0.904474
7.24139	0.983787
7.23129	1.00358
7.22122	0.937871
7.21117	0.971894
7.20116	1.06086
7.19117	1.0158
7.18121	0.964433
7.17128	1.05939
7.16137	1.12101
7.1515	1.15094
7.14164	1.22756
7.13182	1.21998
7.12203	1.22129
7.11225	1.34135
7.10251	1.43188
7.0928	1.4785
7.08311	1.45722
7.07344	1.40745
7.06381	1.43249
7.0542	1.46445
7.04461	1.5563
7.03506	1.54936
7.02552	1.53738
7.01601	1.58931
7.00653	1.60932
6.99708	1.62289
6.98765	1.58957
6.97824	1.63734
6.96886	1.73133
6.95951	1.71225
6.95018	1.65328
6.94087	1.5783
6.9316	1.63862
6.92234	1.743
6.91311	1.74509
6.90391	1.72034
6.89473	1.73337
6.88557	1.76734
6.87644	1.86838
6.86733	1.97051
6.85824	1.92526
6.84918	1.88362
6.84015	1.87903
6.83114	1.86806
6.82215	1.8649
6.81319	1.84724
6.80424	1.93438
6.79532	1.92656
6.78643	1.81393
6.77756	1.93517
6.76871	1.98407
6.75989	1.92088
6.75109	1.94815
6.74231	2.0301
6.73355	2.11903
6.72482	2.11768
6.71611	2.13035
6.70742	2.14594
6.69875	2.11267
6.69011	2.14682
6.68149	2.20803
6.67289	2.17982
6.66431	2.19682
6.65576	2.23088
6.64722	2.29845
6.63871	2.34677
6.63022	2.33075
6.62175	2.34064
6.61331	2.32901
6.60488	2.3529
6.59648	2.43611
6.5881	2.4785
6.57974	2.55864
6.5714	2.56224
6.56308	2.35659
6.55478	2.32482
6.54651	2.47872
6.53825	2.51088
6.53001	2.51806
6.5218	2.49339
6.51361	2.43146
6.50544	2.52012
6.49729	2.63769
6.48915	2.60145
6.48104	2.51251
6.47295	2.48778
6.46488	2.48974
6.45683	2.45303
6.4488	2.41283
6.44079	2.36148
6.4328	2.39205
6.42482	2.42592
6.41687	2.39899
6.40894	2.31884
6.40103	2.23185
6.39314	2.16088
6.38526	2.13323
6.37741	2.09839
6.36957	2.00999
6.36176	1.97748
6.35396	2.14306
6.34618	2.0823
6.33843	1.87991
6.33069	1.87865
6.32297	1.93634
6.31527	1.90961
6.30758	1.93832
6.29992	2.00213
6.29227	1.9551
6.28465	1.85559
6.27704	1.85614
6.26945	1.87441
6.26188	1.87805
6.25432	1.8539
6.24679	1.84973
6.23927	1.85382
6.23177	1.83917
6.22429	1.77137
6.21683	1.7999
6.20938	1.89258
6.20195	1.86362
6.19454	1.88234
6.18715	1.93256
6.17978	1.91679
6.17242	1.97138
6.16508	2.01763
6.15776	1.9714
6.15045	1.91757
6.14317	1.90733
6.1359	1.96813
6.12864	2.05221
6.12141	2.03816
6.11419	2.00488
6.10699	1.99579
6.0998	2.0575
6.09263	2.10882
6.08549	2.1748
6.07835	2.27392
6.07123	2.30321
6.06413	2.3284
6.05705	2.33899
6.04998	2.2601
6.04293	2.15585
6.0359	2.15965
6.02888	2.19173
6.02187	2.2567
6.01489	2.29942
6.00792	2.27405
6.00096	2.25721
5.99403	2.35088
5.98711	2.45838
5.9802	2.45122
5.97331	2.39454
5.96644	2.35458
5.95958	2.29663
5.95274	2.33661
5.94591	2.37089
5.9391	2.35757
5.9323	2.28085
5.92552	2.2682
5.91876	2.26699
5.91201	2.32888
5.90528	2.38098
5.89856	2.43569
5.89186	2.49651
5.88517	2.48576
5.8785	2.41509
5.87184	2.29582
5.8652	2.29941
5.85857	2.27232
5.85196	2.236
5.84536	2.25437
5.83878	2.31067
5.83221	2.33377
5.82566	2.39038
5.81912	2.39017
5.81259	2.26974
5.80608	2.21233
5.79959	2.21133
5.79311	2.26557
5.78665	2.32542
5.78019	2.30104
5.77376	2.25301
5.76734	2.27941
5.76093	2.23827
5.75453	2.22434
5.74815	2.25443
5.74179	2.24135
5.73543	2.18062
5.7291	2.20789
5.72277	2.25906
5.71646	2.26804
5.71017	2.33955
5.70389	2.34069
5.69762	2.20596
5.69136	2.09958
5.68513	2.10147
5.6789	2.17181
5.67268	2.14446
5.66648	2.08034
5.6603	2.08057
5.65413	2.12235
5.64797	2.12266
5.64182	2.15862
5.63569	2.1911
5.62957	2.22905
5.62347	2.15768
5.61737	2.10358
5.61129	2.15006
5.60522	2.21242
5.59917	2.25752
5.59313	2.29441
5.5871	2.30423
5.58109	2.3909
5.57509	2.40053
5.5691	2.30817
5.56312	2.25484
5.55716	2.19148
5.55121	2.22032
5.54528	2.34978
5.53935	2.42963
5.53344	2.49951
5.52754	2.61698
5.52166	2.70778
5.51578	2.76351
5.50992	2.81458
5.50407	2.84047
5.49823	2.8761
5.49241	2.94598
5.4866	3.02014
5.4808	3.11
5.47501	3.15436
5.46923	3.18536
5.46347	3.22658
5.45772	3.24943
5.45198	3.31331
5.44625	3.36443
5.44054	3.31177
5.43484	3.31189
5.42914	3.32459
5.42347	3.42242
5.4178	3.49755
5.41214	3.52096
5.4065	3.52909
5.40087	3.5142
5.39525	3.57881
5.38964	3.63135
5.38404	3.65931
5.37846	3.67706
5.37288	3.69637
5.36732	3.7321
5.36177	3.82021
5.35623	3.87925
5.35071	3.85108
5.34519	3.87026
5.33968	3.9384
5.33419	3.99947
5.32871	4.08221
5.32324	4.12446
5.31778	4.18253
5.31233	4.21127
5.30689	4.21864
5.30147	4.34524
5.29605	4.47762
5.29065	4.45724
5.28525	4.44257
5.27987	4.52735
5.2745	4.6348
5.26914	4.65915
5.26379	4.63064
5.25845	4.72319
5.25312	4.82363
5.24781	4.9243
5.2425	4.95982
5.23721	4.92207
5.23192	4.96409
5.22665	5.10529
5.22138	5.23712
5.21613	5.37077
5.21089	5.48208
5.20566	5.72352
5.20044	5.96865
5.19522	6.09625
5.19002	6.22961
5.18483	6.42051
5.17965	6.70262
5.17448	6.93763
5.16933	7.13698
5.16418	7.26687
5.15904	7.40318
5.15391	7.64267
5.14879	7.7769
5.14368	7.95199
5.13859	8.23534
5.1335	8.49995
5.12842	8.76371
5.12335	9.01304
5.1183	9.27939
5.11325	9.50671
5.10821	9.74398
5.10318	10.0693
5.09817	10.4026
5.09316	10.7223
5.08816	10.9776
5.08317	11.1878
5.07819	11.404
5.07322	11.6186
5.06826	11.6966
5.06331	11.675
5.05837	11.6704
5.05344	11.7261
5.04852	11.7591
5.04361	11.7883
5.03871	11.9502
5.03382	12.1138
5.02894	12.2932
5.02406	12.5559
5.0192	12.8052
5.01435	13.0048
5.0095	13.1035
5.00467	13.2704
4.99984	13.4819
4.99502	13.5729
4.99021	13.6018
4.98542	13.7374
4.98063	13.8098
4.97585	13.7867
4.97108	13.7853
4.96632	13.7886
4.96156	13.6973
4.95682	13.5916
4.95209	13.5037
4.94736	13.3121
4.94264	13.152
4.93794	13.1193
4.93324	13.0722
4.92855	13.0158
4.92387	12.9781
4.9192	12.9548
4.91453	12.9911
4.90988	13.0852
4.90524	13.2765
4.9006	13.4959
4.89597	13.6218
4.89135	13.7629
4.88674	13.9807
4.88214	14.2058
4.87755	14.4055
4.87296	14.6153
4.86839	14.7603
4.86382	14.8472
4.85926	14.8982
4.85471	14.9954
4.85017	15.1014
4.84564	15.1378
4.84111	15.0648
4.8366	15.0146
4.83209	15.0188
4.82759	15.0186
4.8231	14.9667
4.81862	14.9568
4.81415	14.9
4.80968	14.7563
4.80522	14.635
4.80077	14.5597
4.79633	14.5072
4.7919	14.4773
4.78747	14.5121
4.78306	14.5356
4.77865	14.4143
4.77425	14.3424
4.76986	14.3689
4.76547	14.4052
4.7611	14.4708
4.75673	14.6369
4.75237	14.7724
4.74802	14.9256
4.74367	15.0953
4.73934	15.2006
4.73501	15.2081
4.73069	15.2038
4.72638	15.1532
4.72207	15.027
4.71777	14.8402
4.71348	14.7207
4.7092	14.6269
4.70493	14.5228
4.70066	14.4171
4.69641	14.3415
4.69216	14.3715
4.68791	14.3588
4.68368	14.3704
4.67945	14.4271
4.67523	14.436
4.67102	14.4017
4.66682	14.4435
4.66262	14.5747
4.65843	14.7571
4.65425	14.9604
4.65007	15.1204
4.64591	15.2273
4.64175	15.4288
4.6376	15.6768
4.63345	15.8782
4.62932	16.0999
4.62519	16.2824
4.62106	16.4158
4.61695	16.5658
4.61284	16.8781
4.60874	17.1706
4.60465	17.3939
4.60056	17.6066
4.59648	17.7622
4.59241	17.8817
4.58835	17.9999
4.58429	18.1704
4.58024	18.4067
4.5762	18.7153
4.57216	19.0049
4.56814	19.2682
4.56411	19.5726
4.5601	19.9433
4.55609	20.3622
4.55209	20.6881
4.5481	20.98
4.54411	21.3503
4.54013	21.6975
4.53616	21.9142
4.5322	22.2379
4.52824	22.6083
4.52429	22.8972
4.52034	23.0944
4.51641	23.3113
4.51247	23.6286
4.50855	24.0111
4.50463	24.3056
4.50072	24.5336
4.49682	24.8091
4.49292	25.0795
4.48903	25.3783
4.48515	25.6964
4.48127	26.0671
4.4774	26.4585
4.47354	26.7169
4.46968	27.0535
4.46584	27.4873
4.46199	27.8672
4.45815	28.2031
4.45432	28.5423
4.4505	28.891
4.44668	29.2495
4.44287	29.6472
4.43907	29.9301
4.43527	30.139
4.43148	30.3579
4.4277	30.6277
4.42392	31.0309
4.42015	31.3155
4.41638	31.5239
4.41262	31.7705
4.40887	32.0417
4.40513	32.3746
4.40139	32.7467
4.39765	33.0576
4.39393	33.3623
4.39021	33.7618
4.38649	34.1399
4.38278	34.4215
4.37908	34.7658
4.37539	35.1361
4.3717	35.4559
4.36801	35.8298
4.36434	36.2527
4.36067	36.5714
4.357	36.8178
4.35335	37.1073
4.34969	37.4134
4.34605	37.6973
4.34241	37.932
4.33877	38.21
4.33514	38.5838
4.33152	38.856
4.32791	39.1411
4.3243	39.3594
4.32069	39.4848
4.3171	39.6579
4.31351	39.8209
4.30992	39.8396
4.30634	39.8553
4.30277	39.9891
4.2992	40.0659
4.29564	40.0439
4.29208	40.06
4.28853	39.9926
4.28499	39.975
4.28145	40.059
4.27792	40.0253
4.27439	39.8374
4.27087	39.6738
4.26735	39.6527
4.26384	40.0336
4.26034	40.7017
4.25684	41.4176
4.25335	42.07
4.24986	42.6422
4.24638	43.1546
4.24291	43.6828
4.23944	44.233
4.23598	44.7568
4.23252	45.3044
4.22906	45.8708
4.22562	46.4619
4.22218	47.076
4.21874	47.5652
4.21531	48.0849
4.21189	48.5736
4.20847	48.9707
4.20506	49.3071
4.20165	49.623
4.19825	49.9478
4.19485	50.2728
4.19146	50.5634
4.18807	50.8083
4.18469	50.9297
4.18132	51.0771
4.17795	51.2562
4.17458	51.4472
4.17123	51.5922
4.16787	51.5911
4.16453	51.6234
4.16118	51.7522
4.15785	51.9526
4.15451	52.1202
4.15119	52.2003
4.14787	52.2903
4.14455	52.4073
4.14124	52.5412
4.13794	52.6843
4.13464	52.7332
4.13134	52.7147
4.12805	52.7714
4.12477	52.8764
4.12149	52.9514
4.11822	53.0313
4.11495	53.0477
4.11168	53.0233
4.10843	53.0949
4.10517	53.1316
4.10192	53.1162
4.09868	53.0684
4.09545	53.0716
4.09221	53.1815
4.08899	53.2384
4.08576	53.1622
4.08255	53.1148
4.07933	53.0611
4.07613	52.937
4.07292	52.8878
4.06973	52.8961
4.06654	52.8314
4.06335	52.7201
4.06017	52.6236
4.05699	52.5605
4.05382	52.3883
4.05065	52.2283
4.04749	52.0337
4.04433	51.7121
4.04118	51.3641
4.03803	51.0232
4.03489	50.7253
4.03175	50.4886
4.02862	50.2048
4.02549	49.9024
4.02237	49.7269
4.01925	49.6295
4.01614	49.4506
4.01303	49.2569
4.00993	48.9452
4.00683	48.5793
4.00373	48.3088
4.00064	48.0649
3.99756	47.8675
3.99448	47.6838
3.9914	47.4973
3.98833	47.3128
3.98527	47.2114
3.98221	47.1341
3.97915	47.1535
3.9761	47.2343
3.97305	47.3216
3.97001	47.3736
3.96697	47.436
3.96394	47.6269
3.96091	47.8607
3.95789	47.9867
3.95487	48.1359
3.95186	48.4021
3.94885	48.7004
3.94584	49.0007
3.94284	49.2938
3.93984	49.5603
3.93685	49.8042
3.93386	49.9099
3.93088	49.9727
3.9279	50.0987
3.92493	50.2388
3.92196	50.372
3.919	50.4831
3.91604	50.5635
3.91308	50.686
3.91013	50.8093
3.90718	50.8974
3.90424	50.9638
3.9013	50.9726
3.89837	50.9715
3.89544	50.9961
3.89252	51.0658
3.8896	51.1331
3.88668	51.1591
3.88377	51.1821
3.88086	51.2632
3.87796	51.308
3.87506	51.2879
3.87217	51.3131
3.86928	51.4731
3.86639	51.6129
3.86351	51.6153
3.86064	51.6569
3.85776	51.7656
3.8549	51.9282
3.85203	52.1259
3.84917	52.3027
3.84631	52.4945
3.84346	52.6443
3.84062	52.7533
3.83777	52.9406
3.83494	53.1226
3.8321	53.3719
3.82927	53.654
3.82644	53.8489
3.82362	54.0778
3.82081	54.4248
3.81799	54.7067
3.81518	54.9509
3.81238	55.1746
3.80958	55.3596
3.80678	55.6193
3.80399	55.9466
3.8012	56.2161
3.79841	56.4876
3.79563	56.8646
3.79286	57.2579
3.79008	57.5365
3.78731	57.8199
3.78455	58.0505
3.78179	58.2091
3.77903	58.3732
3.77628	58.4437
3.77353	58.5371
3.77079	58.7084
3.76805	58.9046
3.76531	58.98
3.76258	58.9904
3.75985	59.0502
3.75713	59.1203
3.7544	59.1673
3.75169	59.2537
3.74898	59.3646
3.74627	59.4049
3.74356	59.4175
3.74086	59.4485
3.73816	59.4921
3.73547	59.5061
3.73278	59.5209
3.7301	59.5784
3.72741	59.6508
3.72474	59.6771
3.72206	59.6232
3.71939	59.6327
3.71673	59.7337
3.71406	59.7935
3.71141	59.8244
3.70875	59.7787
3.7061	59.8277
3.70345	59.9283
3.70081	59.9684
3.69817	59.9665
3.69553	59.9503
3.6929	59.8839
3.69027	59.943
3.68765	60.0263
3.68503	59.993
3.68241	60.0015
3.6798	60.0198
3.67719	60.0527
3.67458	60.058
3.67198	60.0107
3.66938	60.0184
3.66678	59.9913
3.66419	60.0061
3.66161	60.045
3.65902	60.0378
3.65644	60.0014
3.65387	59.9524
3.65129	59.9339
3.64872	59.9006
3.64616	59.8809
3.64359	59.9242
3.64103	59.8908
3.63848	59.7888
3.63593	59.7723
3.63338	59.7668
3.63084	59.6874
3.6283	59.587
3.62576	59.5932
3.62322	59.5545
3.62069	59.5222
3.61817	59.4694
3.61564	59.3567
3.61312	59.2624
3.61061	59.2211
3.6081	59.1344
3.60559	58.9594
3.60308	58.8191
3.60058	58.7104
3.59808	58.5706
3.59558	58.4511
3.59309	58.3449
3.59061	58.252
3.58812	58.0838
3.58564	57.8763
3.58316	57.6921
3.58069	57.4933
3.57822	57.2491
3.57575	57.0222
3.57328	56.8352
3.57082	56.6644
3.56836	56.5241
3.56591	56.4614
3.56346	56.395
3.56101	56.2572
3.55857	56.056
3.55613	55.796
3.55369	55.5007
3.55126	55.2806
3.54883	55.1214
3.5464	54.9419
3.54397	54.7107
3.54155	54.4418
3.53914	54.1421
3.53672	53.8238
3.53431	53.3946
3.5319	52.8755
3.5295	52.3635
3.5271	52.0001
3.5247	51.5387
3.52231	50.8238
3.51991	50.1998
3.51753	49.6976
3.51514	49.1703
3.51276	48.6363
3.51038	48.2077
3.50801	47.7749
3.50563	47.4146
3.50327	47.2022
3.5009	47.0312
3.49854	46.926
3.49618	46.8335
3.49382	46.823
3.49147	46.7503
3.48912	46.6622
3.48677	46.5793
3.48443	46.5048
3.48209	46.4087
3.47975	46.2699
3.47742	46.1515
3.47509	46.1217
3.47276	46.1314
