Name: Fayalite Fe_2SiO_4
Type: Mineral
Class: Silicates
Subclass: Nesosilicates
Particle Size: 0-45um
Sample No.: NS-1A
Owner: JPL
Wavelength range: IR
Origin: 
Collected by JPL
Description: 





Measurement: Hemispherical reflectance
First Column: X
Second Column: Y
X Units:  Wavelength (micrometers)
Y Units:  Reflectance (percent)
First X Value: 15.3853
Last X Value: 2.00032
Number of X Values: 2256
Additional information: ns01aa.txt
 
15.3853	4.17349
15.3397	4.14178
15.2945	4.15461
15.2495	4.32343
15.2048	4.24653
15.1603	4.49801
15.1161	4.47652
15.0722	4.49021
15.0285	4.63217
14.9851	4.57396
14.9419	4.46669
14.8989	4.777
14.8563	4.99497
14.8138	5.16245
14.7716	5.31411
14.7296	5.15551
14.6879	5.00813
14.6464	5.01404
14.6052	5.02644
14.5641	5.28204
14.5233	5.39023
14.4828	5.46006
14.4424	5.49345
14.4023	5.57664
14.3624	5.54114
14.3227	5.47676
14.2833	5.51275
14.244	5.31878
14.205	5.18817
14.1662	5.41667
14.1276	5.55203
14.0892	5.44231
14.051	5.37698
14.0131	5.44045
13.9753	5.57223
13.9377	5.69067
13.9004	5.65123
13.8632	5.6266
13.8262	5.68532
13.7895	5.56388
13.7529	5.49659
13.7165	5.54775
13.6803	5.73376
13.6443	6.03759
13.6085	6.32098
13.5729	6.38959
13.5374	6.31846
13.5022	6.20357
13.4671	6.33139
13.4322	6.53383
13.3975	6.41325
13.363	6.27227
13.3286	6.43313
13.2944	6.57377
13.2604	6.3923
13.2266	6.32108
13.193	6.30088
13.1595	6.12032
13.1262	5.97869
13.093	5.89324
13.06	5.70255
13.0272	5.6286
12.9946	5.653
12.9621	5.62962
12.9298	5.59199
12.8976	5.60855
12.8656	5.68207
12.8337	5.67109
12.8021	5.74468
12.7705	5.87887
12.7391	5.9508
12.7079	6.09963
12.6769	6.26605
12.6459	6.46488
12.6152	6.636
12.5845	6.66078
12.5541	6.70284
12.5238	6.696
12.4936	6.72956
12.4635	6.88739
12.4337	6.9752
12.4039	6.97832
12.3743	6.86178
12.3448	6.93761
12.3155	7.20458
12.2863	7.21816
12.2573	7.13889
12.2284	7.07698
12.1996	7.12269
12.171	7.3058
12.1425	7.29791
12.1141	7.20265
12.0859	7.20223
12.0578	7.01875
12.0298	6.71578
12.0019	6.56622
11.9742	6.5427
11.9466	6.5712
11.9192	6.7139
11.8918	7.02466
11.8646	7.26412
11.8375	7.40039
11.8106	7.39227
11.7837	7.39167
11.757	7.46917
11.7304	7.70989
11.7039	7.9238
11.6776	7.99072
11.6513	8.02231
11.6252	8.3557
11.5992	8.55021
11.5733	8.38462
11.5475	8.28713
11.5219	8.35116
11.4963	8.4628
11.4709	8.56947
11.4455	8.68386
11.4203	8.66747
11.3952	8.49324
11.3702	8.40401
11.3454	8.49702
11.3206	8.54645
11.2959	8.41004
11.2714	8.33776
11.2469	8.3387
11.2226	8.29072
11.1983	8.25217
11.1742	8.26031
11.1502	8.23611
11.1263	8.20792
11.1024	8.17899
11.0787	8.28679
11.0551	8.52087
11.0316	8.41641
11.0081	8.20683
10.9848	8.19395
10.9616	8.1737
10.9385	8.05008
10.9154	7.80594
10.8925	7.61182
10.8697	7.52801
10.8469	7.38267
10.8243	7.26601
10.8017	7.30369
10.7793	7.47214
10.7569	7.63216
10.7346	7.70734
10.7125	7.88573
10.6904	8.19508
10.6684	8.42621
10.6465	8.62772
10.6247	8.90858
10.6029	9.21262
10.5813	9.40456
10.5597	9.50567
10.5383	9.54008
10.5169	9.45337
10.4956	9.34383
10.4744	9.15452
10.4533	8.94139
10.4323	8.756
10.4113	8.64351
10.3904	8.48684
10.3697	8.37732
10.349	8.27977
10.3284	8.23804
10.3078	8.22211
10.2874	8.10301
10.267	7.92336
10.2467	7.88005
10.2265	7.88239
10.2064	7.8768
10.1863	7.8446
10.1663	7.87292
10.1464	7.99067
10.1266	8.10968
10.1069	8.34302
10.0872	8.55418
10.0676	8.66412
10.0481	8.92612
10.0287	9.19741
10.0093	9.39255
9.99005	9.68944
9.97084	9.83935
9.95169	9.88841
9.93263	9.97537
9.91364	10.0772
9.89472	10.0823
9.87587	10.1355
9.8571	10.2477
9.83839	10.2603
9.81976	10.0804
9.80119	10.1397
9.78271	10.2754
9.76428	10.278
9.74592	10.2386
9.72764	10.1829
9.70943	9.98474
9.69128	9.81304
9.6732	9.73268
9.65518	9.76224
9.63724	9.87605
9.61935	9.74644
9.60155	9.66325
9.5838	9.51721
9.56611	9.37196
9.5485	9.23564
9.53094	9.04713
9.51345	8.86484
9.49604	8.68549
9.47867	8.45623
9.46137	8.18923
9.44414	7.95514
9.42697	7.79993
9.40986	7.79376
9.39281	7.70579
9.37583	7.35067
9.35891	6.86372
9.34204	6.72092
9.32524	6.73046
9.3085	6.73496
9.29182	6.78715
9.27519	7.00407
9.25863	7.3855
9.24213	7.69209
9.22568	7.83984
9.2093	7.95215
9.19297	8.17221
9.17669	8.38051
9.16048	8.38196
9.14433	8.31302
9.12823	8.21305
9.11218	8.0057
9.0962	7.62081
9.08027	7.29182
9.06439	6.99417
9.04858	6.6026
9.03281	6.18814
9.0171	5.7766
9.00145	5.53931
8.98585	5.45134
8.9703	5.42002
8.9548	5.34779
8.93937	5.21827
8.92398	5.15893
8.90865	5.21295
8.89337	5.39992
8.87814	5.58516
8.86296	5.87621
8.84784	6.15649
8.83277	6.46271
8.81774	6.6685
8.80277	6.82537
8.78786	6.87806
8.77298	7.08076
8.75816	7.23497
8.7434	7.22417
8.72868	7.2846
8.714	7.35761
8.69938	7.22197
8.68481	6.89352
8.67029	6.57272
8.65581	6.44075
8.64139	6.31772
8.62701	6.05367
8.61268	5.78517
8.5984	5.57246
8.58416	5.47067
8.56997	5.41653
8.55583	5.36317
8.54174	5.30978
8.52769	5.22477
8.51368	5.21242
8.49973	5.2121
8.48582	5.2983
8.47195	5.37947
8.45813	5.30042
8.44436	5.43924
8.43062	5.51658
8.41693	5.43233
8.4033	5.38649
8.3897	5.3002
8.37614	5.41142
8.36264	5.58536
8.34917	5.5716
8.33574	5.49585
8.32236	5.5033
8.30903	5.701
8.29573	5.74687
8.28248	5.7187
8.26927	5.81611
8.2561	6.01572
8.24298	6.17908
8.2299	6.17058
8.21685	6.05568
8.20385	6.08523
8.19089	6.24091
8.17797	6.34009
8.16509	6.29794
8.15225	6.35982
8.13946	6.53647
8.1267	6.63803
8.11398	6.77854
8.10131	6.90834
8.08867	6.92361
8.07606	7.00767
8.0635	7.13748
8.05099	7.14331
8.0385	7.06591
8.02606	7.0969
8.01366	7.2588
8.00129	7.4693
7.98896	7.6028
7.97667	7.66621
7.96442	7.63722
7.9522	7.66956
7.94002	7.76896
7.92788	7.84787
7.91578	7.90355
7.90371	7.97635
7.89168	8.04035
7.87969	8.01765
7.86773	8.03188
7.85581	8.13883
7.84392	8.14804
7.83207	8.14761
7.82026	8.30311
7.80849	8.38979
7.79674	8.3389
7.78503	8.31618
7.77337	8.44427
7.76173	8.53538
7.75012	8.4924
7.73856	8.51308
7.72703	8.58386
7.71553	8.66566
7.70406	8.70936
7.69263	8.76818
7.68123	8.89042
7.66987	8.96271
7.65855	8.88368
7.64725	8.94774
7.63598	9.12186
7.62475	9.24827
7.61356	9.28972
7.60239	9.31027
7.59126	9.39724
7.58017	9.44685
7.5691	9.4691
7.55806	9.52126
7.54707	9.59307
7.5361	9.68834
7.52516	9.86203
7.51425	9.92442
7.50338	9.90955
7.49253	9.96341
7.48172	10.02
7.47094	10.0409
7.46019	10.021
7.44947	10.0211
7.43879	10.041
7.42813	10.0962
7.4175	10.134
7.4069	10.1694
7.39634	10.1507
7.3858	10.2062
7.37529	10.1817
7.36482	10.1914
7.35437	10.2894
7.34396	10.3867
7.33357	10.4157
7.32321	10.4768
7.31288	10.5772
7.30258	10.6394
7.29231	10.6533
7.28207	10.6831
7.27185	10.7887
7.26167	10.9123
7.25152	10.9796
7.24139	10.9093
7.23129	10.8896
7.22122	10.8961
7.21117	11.0148
7.20116	11.1688
7.19117	11.2052
7.18121	11.2738
7.17128	11.3536
7.16137	11.3635
7.1515	11.4394
7.14164	11.466
7.13182	11.5023
7.12203	11.5994
7.11225	11.5613
7.10251	11.5667
7.0928	11.6679
7.08311	11.6706
7.07344	11.6
7.06381	11.6623
7.0542	11.8947
7.04461	12.0958
7.03506	11.9686
7.02552	11.9811
7.01601	11.9363
7.00653	11.9372
6.99708	12.1379
6.98765	12.1743
6.97824	12.228
6.96886	12.4515
6.95951	12.5876
6.95018	12.4413
6.94087	12.4098
6.9316	12.49
6.92234	12.5477
6.91311	12.5493
6.90391	12.6607
6.89473	12.7288
6.88557	12.7586
6.87644	12.8956
6.86733	13.3308
6.85824	13.3348
6.84918	13.0357
6.84015	13.0295
6.83114	13.1665
6.82215	13.0972
6.81319	12.9892
6.80424	13.1122
6.79532	13.296
6.78643	13.3624
6.77756	13.3398
6.76871	13.2551
6.75989	13.1751
6.75109	13.228
6.74231	13.1955
6.73355	13.1782
6.72482	13.2706
6.71611	13.3887
6.70742	13.4487
6.69875	13.3455
6.69011	13.3855
6.68149	13.5259
6.67289	13.5589
6.66431	13.4435
6.65576	13.3907
6.64722	13.6995
6.63871	14.127
6.63022	13.917
6.62175	13.5276
6.61331	13.4634
6.60488	13.488
6.59648	13.6008
6.5881	13.6957
6.57974	13.7658
6.5714	13.8504
6.56308	13.673
6.55478	13.661
6.54651	13.6144
6.53825	13.5098
6.53001	13.5728
6.5218	13.7484
6.51361	13.6601
6.50544	13.659
6.49729	14.1132
6.48915	14.228
6.48104	13.8446
6.47295	13.6483
6.46488	13.6276
6.45683	13.6251
6.4488	13.5634
6.44079	13.5151
6.4328	13.6325
6.42482	13.7679
6.41687	14.1559
6.40894	13.9318
6.40103	13.3706
6.39314	13.3079
6.38526	13.3011
6.37741	13.2818
6.36957	13.3201
6.36176	13.1657
6.35396	13.149
6.34618	13.3515
6.33843	13.2619
6.33069	12.9886
6.32297	12.8305
6.31527	12.7241
6.30758	12.6734
6.29992	12.6353
6.29227	12.6044
6.28465	12.5762
6.27704	12.5808
6.26945	12.5616
6.26188	12.481
6.25432	12.3788
6.24679	12.3124
6.23927	12.2746
6.23177	12.1263
6.22429	12.0082
6.21683	11.9066
6.20938	11.7846
6.20195	11.6692
6.19454	11.6836
6.18715	11.8217
6.17978	11.6035
6.17242	11.3884
6.16508	11.3013
6.15776	11.235
6.15045	11.2064
6.14317	11.1484
6.1359	10.9915
6.12864	10.8831
6.12141	10.9795
6.11419	11.1496
6.10699	11.0192
6.0998	10.8488
6.09263	10.7898
6.08549	10.7084
6.07835	10.8488
6.07123	10.9594
6.06413	10.8094
6.05705	10.9543
6.04998	11.4302
6.04293	11.31
6.0359	11.1408
6.02888	11.1994
6.02187	11.2753
6.01489	11.4352
6.00792	11.4914
6.00096	11.4798
5.99403	11.6619
5.98711	11.794
5.9802	11.7716
5.97331	11.854
5.96644	11.9128
5.95958	11.9219
5.95274	12.0165
5.94591	12.1269
5.9391	12.4564
5.9323	12.4099
5.92552	12.1255
5.91876	12.1396
5.91201	12.2197
5.90528	12.3419
5.89856	12.6825
5.89186	12.7154
5.88517	12.8355
5.8785	12.8511
5.87184	12.4527
5.8652	12.3902
5.85857	12.3463
5.85196	12.3295
5.84536	12.3136
5.83878	12.382
5.83221	12.5063
5.82566	12.6607
5.81912	12.6255
5.81259	12.3381
5.80608	12.2217
5.79959	12.2057
5.79311	12.1321
5.78665	12.0351
5.78019	12.0027
5.77376	12.0963
5.76734	12.3807
5.76093	12.2668
5.75453	12.0419
5.74815	12.0137
5.74179	11.8687
5.73543	11.9246
5.7291	11.922
5.72277	11.8774
5.71646	11.8706
5.71017	11.8623
5.70389	11.7758
5.69762	11.814
5.69136	11.8823
5.68513	11.8206
5.6789	11.879
5.67268	11.9503
5.66648	11.8306
5.6603	11.7762
5.65413	11.8114
5.64797	11.9523
5.64182	12.0854
5.63569	11.9095
5.62957	11.8474
5.62347	11.9215
5.61737	11.9524
5.61129	11.9688
5.60522	11.9726
5.59917	12.0619
5.59313	12.0564
5.5871	12.0682
5.58109	12.2248
5.57509	12.2418
5.5691	12.1094
5.56312	12.1179
5.55716	12.1896
5.55121	12.3162
5.54528	12.315
5.53935	12.3442
5.53344	12.3517
5.52754	12.3649
5.52166	12.4162
5.51578	12.441
5.50992	12.4259
5.50407	12.5248
5.49823	12.6774
5.49241	12.7044
5.4866	12.6665
5.4808	12.6737
5.47501	12.6422
5.46923	12.647
5.46347	12.6693
5.45772	12.6781
5.45198	12.667
5.44625	12.5825
5.44054	12.5663
5.43484	12.5998
5.42914	12.6449
5.42347	12.8947
5.4178	12.9714
5.41214	12.9102
5.4065	12.8886
5.40087	12.8837
5.39525	12.8565
5.38964	12.794
5.38404	12.8304
5.37846	12.9161
5.37288	12.9304
5.36732	12.9961
5.36177	13.0589
5.35623	13.1098
5.35071	13.1409
5.34519	13.1548
5.33968	13.2301
5.33419	13.2765
5.32871	13.2898
5.32324	13.316
5.31778	13.3971
5.31233	13.4345
5.30689	13.3912
5.30147	13.4219
5.29605	13.4679
5.29065	13.583
5.28525	13.6183
5.27987	13.671
5.2745	13.7438
5.26914	13.7522
5.26379	13.7797
5.25845	13.8633
5.25312	13.9036
5.24781	13.9378
5.2425	14.0032
5.23721	14.034
5.23192	14.0721
5.22665	14.1672
5.22138	14.2503
5.21613	14.3532
5.21089	14.3595
5.20566	14.3813
5.20044	14.5135
5.19522	14.5954
5.19002	14.6166
5.18483	14.652
5.17965	14.7671
5.17448	14.8524
5.16933	14.9499
5.16418	14.9328
5.15904	14.9092
5.15391	14.9635
5.14879	15.0914
5.14368	15.0929
5.13859	15.0817
5.1335	15.1409
5.12842	15.2427
5.12335	15.2841
5.1183	15.287
5.11325	15.3149
5.10821	15.3423
5.10318	15.3065
5.09817	15.3497
5.09316	15.4389
5.08816	15.4713
5.08317	15.4772
5.07819	15.4908
5.07322	15.4963
5.06826	15.5657
5.06331	15.6561
5.05837	15.6852
5.05344	15.6359
5.04852	15.5912
5.04361	15.6317
5.03871	15.7159
5.03382	15.8022
5.02894	15.7727
5.02406	15.7382
5.0192	15.7351
5.01435	15.6714
5.0095	15.6711
5.00467	15.7469
4.99984	15.7723
4.99502	15.7534
4.99021	15.816
4.98542	15.9563
4.98063	16.0041
4.97585	15.9802
4.97108	16.0024
4.96632	16.0389
4.96156	16.0579
4.95682	16.0962
4.95209	16.1579
4.94736	16.21
4.94264	16.1804
4.93794	16.2044
4.93324	16.2373
4.92855	16.2589
4.92387	16.2521
4.9192	16.2955
4.91453	16.3867
4.90988	16.4127
4.90524	16.5102
4.9006	16.5613
4.89597	16.5177
4.89135	16.4964
4.88674	16.4712
4.88214	16.4463
4.87755	16.5398
4.87296	16.6455
4.86839	16.6099
4.86382	16.6529
4.85926	16.7313
4.85471	16.6706
4.85017	16.6735
4.84564	16.8284
4.84111	16.8357
4.8366	16.7418
4.83209	16.7387
4.82759	16.7761
4.8231	16.8556
4.81862	16.9201
4.81415	16.9612
4.80968	16.9179
4.80522	16.8957
4.80077	16.9487
4.79633	16.9616
4.7919	16.9979
4.78747	17.0624
4.78306	17.0923
4.77865	17.0948
4.77425	17.0917
4.76986	17.1145
4.76547	17.1506
4.7611	17.1992
4.75673	17.2447
4.75237	17.2747
4.74802	17.3226
4.74367	17.3548
4.73934	17.2616
4.73501	17.1933
4.73069	17.2412
4.72638	17.2538
4.72207	17.2636
4.71777	17.3607
4.71348	17.4334
4.7092	17.4905
4.70493	17.4633
4.70066	17.3732
4.69641	17.3492
4.69216	17.3754
4.68791	17.4287
4.68368	17.5352
4.67945	17.5421
4.67523	17.4568
4.67102	17.5169
4.66682	17.6072
4.66262	17.605
4.65843	17.5376
4.65425	17.5656
4.65007	17.5892
4.64591	17.615
4.64175	17.6642
4.6376	17.6771
4.63345	17.6997
4.62932	17.728
4.62519	17.7249
4.62106	17.7367
4.61695	17.7955
4.61284	17.8092
4.60874	17.8423
4.60465	17.8683
4.60056	17.9095
4.59648	17.9079
4.59241	17.8715
4.58835	17.8674
4.58429	17.9555
4.58024	18.0179
4.5762	17.974
4.57216	17.9155
4.56814	17.9426
4.56411	17.9388
4.5601	17.875
4.55609	17.9117
4.55209	17.9841
4.5481	18.0488
4.54411	18.063
4.54013	18.0811
4.53616	18.1421
4.5322	18.1492
4.52824	18.1171
4.52429	18.0811
4.52034	18.0415
4.51641	18.0733
4.51247	18.1238
4.50855	18.143
4.50463	18.1104
4.50072	18.169
4.49682	18.2299
4.49292	18.2007
4.48903	18.177
4.48515	18.1674
4.48127	18.1995
4.4774	18.2632
4.47354	18.2535
4.46968	18.2377
4.46584	18.267
4.46199	18.307
4.45815	18.3298
4.45432	18.3638
4.4505	18.3527
4.44668	18.3038
4.44287	18.3261
4.43907	18.3522
4.43527	18.3893
4.43148	18.4113
4.4277	18.3929
4.42392	18.3959
4.42015	18.4784
4.41638	18.4765
4.41262	18.4534
4.40887	18.4882
4.40513	18.453
4.40139	18.4553
4.39765	18.4931
4.39393	18.45
4.39021	18.4203
4.38649	18.4006
4.38278	18.4084
4.37908	18.4131
4.37539	18.5133
4.3717	18.6177
4.36801	18.5432
4.36434	18.4458
4.36067	18.4587
4.357	18.5284
4.35335	18.5683
4.34969	18.5851
4.34605	18.674
4.34241	18.666
4.33877	18.6136
4.33514	18.6216
4.33152	18.6591
4.32791	18.6357
4.3243	18.6029
4.32069	18.661
4.3171	18.6418
4.31351	18.664
4.30992	18.6969
4.30634	18.7007
4.30277	18.705
4.2992	18.7583
4.29564	18.8159
4.29208	18.81
4.28853	18.7932
4.28499	18.7889
4.28145	18.862
4.27792	19.0079
4.27439	19.0464
4.27087	18.9172
4.26735	18.8648
4.26384	18.9348
4.26034	18.827
4.25684	18.7542
4.25335	18.7938
4.24986	18.8598
4.24638	18.847
4.24291	18.9083
4.23944	19.0043
4.23598	18.9579
4.23252	18.8669
4.22906	18.9614
4.22562	19.0402
4.22218	18.9752
4.21874	18.9582
4.21531	18.9983
4.21189	19.0116
4.20847	18.9911
4.20506	18.9161
4.20165	18.897
4.19825	18.9502
4.19485	18.9917
4.19146	18.9895
4.18807	18.9456
4.18469	18.8822
4.18132	18.8853
4.17795	18.8923
4.17458	18.975
4.17123	19.0386
4.16787	19.0604
4.16453	19.1239
4.16118	19.1378
4.15785	19.0804
4.15451	19.0854
4.15119	19.1427
4.14787	19.1458
4.14455	19.1316
4.14124	19.1354
4.13794	19.1205
4.13464	19.0905
4.13134	19.0717
4.12805	19.0746
4.12477	19.0934
4.12149	19.1202
4.11822	19.1289
4.11495	19.055
4.11168	19.0375
4.10843	19.0667
4.10517	19.0757
4.10192	19.1516
4.09868	19.1805
4.09545	19.1473
4.09221	19.1628
4.08899	19.1998
4.08576	19.2749
4.08255	19.2253
4.07933	19.2359
4.07613	19.2155
4.07292	19.2067
4.06973	19.2359
4.06654	19.1886
4.06335	19.1927
4.06017	19.2045
4.05699	19.2024
4.05382	19.1906
4.05065	19.2527
4.04749	19.2977
4.04433	19.2913
4.04118	19.3651
4.03803	19.3644
4.03489	19.3116
4.03175	19.3549
4.02862	19.4045
4.02549	19.3719
4.02237	19.3302
4.01925	19.316
4.01614	19.2781
4.01303	19.2297
4.00993	19.2454
4.00683	19.3232
4.00373	19.3472
4.00064	19.3031
3.99756	19.3581
3.99448	19.4332
3.9914	19.4411
3.98833	19.4491
3.98527	19.5125
3.98221	19.4256
3.97915	19.3451
3.9761	19.3801
3.97305	19.4242
3.97001	19.4162
3.96697	19.3871
3.96394	19.3409
3.96091	19.3499
3.95789	19.4787
3.95487	19.5466
3.95186	19.5225
3.94885	19.5179
3.94584	19.4538
3.94284	19.4078
3.93984	19.4336
3.93685	19.4712
3.93386	19.4694
3.93088	19.4748
3.9279	19.5053
3.92493	19.4894
3.92196	19.5043
3.919	19.476
3.91604	19.4643
3.91308	19.4606
3.91013	19.4796
3.90718	19.517
3.90424	19.5275
3.9013	19.5171
3.89837	19.4493
3.89544	19.4372
3.89252	19.463
3.8896	19.4822
3.88668	19.5702
3.88377	19.5771
3.88086	19.5454
3.87796	19.5243
3.87506	19.5904
3.87217	19.6434
3.86928	19.6287
3.86639	19.4935
3.86351	19.4181
3.86064	19.4197
3.85776	19.3896
3.8549	19.3958
3.85203	19.4965
3.84917	19.5309
3.84631	19.5155
3.84346	19.5539
3.84062	19.5928
3.83777	19.5736
3.83494	19.498
3.8321	19.4715
3.82927	19.4963
3.82644	19.5082
3.82362	19.5134
3.82081	19.5235
3.81799	19.5546
3.81518	19.5573
3.81238	19.5033
3.80958	19.4417
3.80678	19.434
3.80399	19.4951
3.8012	19.5772
3.79841	19.6904
3.79563	19.6495
3.79286	19.5494
3.79008	19.5117
3.78731	19.4925
3.78455	19.4547
3.78179	19.5267
3.77903	19.5337
3.77628	19.5586
3.77353	19.5952
3.77079	19.5222
3.76805	19.5287
3.76531	19.5819
3.76258	19.5544
3.75985	19.3719
3.75713	19.3303
3.7544	19.4176
3.75169	19.4364
3.74898	19.4208
3.74627	19.4586
3.74356	19.5049
3.74086	19.5306
3.73816	19.5316
3.73547	19.5106
3.73278	19.5187
3.7301	19.5029
3.72741	19.4389
3.72474	19.4133
3.72206	19.4634
3.71939	19.4365
3.71673	19.3925
3.71406	19.4046
3.71141	19.4409
3.70875	19.4327
3.7061	19.3856
3.70345	19.3878
3.70081	19.4564
3.69817	19.4462
3.69553	19.3156
3.6929	19.3119
3.69027	19.381
3.68765	19.3559
3.68503	19.3405
3.68241	19.3788
3.6798	19.423
3.67719	19.3437
3.67458	19.3283
3.67198	19.3503
3.66938	19.3082
3.66678	19.2737
3.66419	19.305
3.66161	19.3243
3.65902	19.2806
3.65644	19.3314
3.65387	19.3384
3.65129	19.2508
3.64872	19.2159
3.64616	19.2494
3.64359	19.2341
3.64103	19.2481
3.63848	19.2873
3.63593	19.2622
3.63338	19.1499
3.63084	19.0816
3.6283	19.1172
3.62576	19.1822
3.62322	19.1412
3.62069	19.0909
3.61817	19.1523
3.61564	19.1027
3.61312	19.0323
3.61061	19.0424
3.6081	19.1777
3.60559	19.1787
3.60308	19.1218
3.60058	19.2056
3.59808	19.1577
3.59558	19.0218
3.59309	18.9868
3.59061	18.9524
3.58812	18.9414
3.58564	18.9817
3.58316	18.9912
3.58069	18.9347
3.57822	18.8962
3.57575	18.9629
3.57328	18.9927
3.57082	19.0278
3.56836	18.9389
3.56591	18.8669
3.56346	18.9226
3.56101	18.9353
3.55857	18.8625
3.55613	18.8555
3.55369	18.8923
3.55126	18.8649
3.54883	18.8501
3.5464	18.7937
3.54397	18.7378
3.54155	18.6982
3.53914	18.7637
3.53672	18.7636
3.53431	18.7027
3.5319	18.6982
3.5295	18.6457
3.5271	18.6115
3.5247	18.6865
3.52231	18.7216
3.51991	18.6108
3.51753	18.5794
3.51514	18.5796
3.51276	18.5664
3.51038	18.59
3.50801	18.6226
3.50563	18.6713
3.50327	18.5603
3.5009	18.4936
3.49854	18.4808
3.49618	18.4949
3.49382	18.4959
3.49147	18.5271
3.48912	18.5004
3.48677	18.4543
3.48443	18.366
3.48209	18.3263
3.47975	18.3758
3.47742	18.4344
3.47509	18.4819
3.47276	18.4244
3.47044	18.2295
3.46812	18.2294
3.4658	18.3935
3.46348	18.3581
3.46117	18.1913
3.45886	18.1789
