Name: Cordierite Mg_2Al_3(Si_5Al)O_18
Type: Mineral
Class: Silicates
Subclass: Cyclosilicates
Particle Size: 125-500um
Sample No.: CS-3A
Owner: JPL
Wavelength range: VNIR-SWIR
Origin: Canada, Northwest Territories, Mackenzie District, Great Bear Lake.
Collected by:  Ward's
Description: 





Measurement: Hemispherical reflectance
First Column: X
Second Column: Y
X Units: Wavelength (micrometers)
Y Units: Reflectance (percent)
First X Value: 2.500
Last X Value: 0.400
Number of X Values: 2101
Additional information: cs03aa.txt

2.500  34.416737
2.499  34.187232
2.498  34.810026
2.497  35.115403
2.496  35.224547
2.495  35.763815
2.494  35.829388
2.493  36.156687
2.492  36.535097
2.491  36.806011
2.490  37.071482
2.489  37.200466
2.488  37.618980
2.487  37.664583
2.486  37.963727
2.485  38.337806
2.484  38.625086
2.483  38.614732
2.482  38.922265
2.481  39.196381
2.480  39.465072
2.479  39.466615
2.478  39.998109
2.477  40.048760
2.476  40.350159
2.475  40.550948
2.474  40.706903
2.473  40.838432
2.472  41.251735
2.471  41.493708
2.470  41.661772
2.469  41.874011
2.468  42.109722
2.467  42.261889
2.466  42.498987
2.465  42.609875
2.464  42.915420
2.463  42.858269
2.462  43.225360
2.461  43.348257
2.460  43.647255
2.459  43.679907
2.458  43.934577
2.457  43.941356
2.456  44.377992
2.455  44.485962
2.454  44.698777
2.453  44.772490
2.452  44.955978
2.451  45.096808
2.450  45.484637
2.449  45.512638
2.448  45.691172
2.447  45.883776
2.446  46.150297
2.445  46.143698
2.444  46.387003
2.443  46.445906
2.442  46.715552
2.441  46.815903
2.440  47.014664
2.439  47.103999
2.438  47.368408
2.437  47.313248
2.436  47.656753
2.435  47.630077
2.434  47.791465
2.433  47.845595
2.432  48.116242
2.431  48.115082
2.430  48.277736
2.429  48.456071
2.428  48.632430
2.427  48.632819
2.426  48.711794
2.425  48.798530
2.424  48.974882
2.423  49.037173
2.422  49.181814
2.421  49.325138
2.420  49.399996
2.419  49.500148
2.418  49.699521
2.417  49.785066
2.416  49.928434
2.415  50.050538
2.414  50.171029
2.413  50.232806
2.412  50.366239
2.411  50.455627
2.410  50.595877
2.409  50.659883
2.408  50.773259
2.407  50.864060
2.406  51.044948
2.405  51.048412
2.404  51.106776
2.403  51.190747
2.402  51.386127
2.401  51.389242
2.400  51.427653
2.399  51.422742
2.398  51.518842
2.397  51.565220
2.396  51.667698
2.395  51.716625
2.394  51.774397
2.393  51.842842
2.392  51.892773
2.391  51.941689
2.390  51.991598
2.389  52.095272
2.388  52.170353
2.387  52.169860
2.386  52.221797
2.385  52.276625
2.384  52.333590
2.383  52.373486
2.382  52.432846
2.381  52.446068
2.380  52.484079
2.379  52.541348
2.378  52.579515
2.377  52.588142
2.376  52.676657
2.375  52.742872
2.374  52.755668
2.373  52.837780
2.372  52.911700
2.371  52.857979
2.370  52.867230
2.369  52.899007
2.368  52.960495
2.367  52.951106
2.366  52.974161
2.365  53.006466
2.364  53.012268
2.363  53.032812
2.362  52.992167
2.361  53.011206
2.360  53.095250
2.359  53.140232
2.358  53.139140
2.357  53.103217
2.356  53.098528
2.355  53.155994
2.354  53.192725
2.353  53.182970
2.352  53.134332
2.351  53.146665
2.350  53.156746
2.349  53.159723
2.348  53.172938
2.347  53.190357
2.346  53.266826
2.345  53.334725
2.344  53.315134
2.343  53.339419
2.342  53.383117
2.341  53.408412
2.340  53.409920
2.339  53.474317
2.338  53.514138
2.337  53.500193
2.336  53.485245
2.335  53.516027
2.334  53.561799
2.333  53.564128
2.332  53.572972
2.331  53.627022
2.330  53.629349
2.329  53.645818
2.328  53.615001
2.327  53.599184
2.326  53.613002
2.325  53.628096
2.324  53.616405
2.323  53.663794
2.322  53.637203
2.321  53.678678
2.320  53.655753
2.319  53.677753
2.318  53.723561
2.317  53.732900
2.316  53.729182
2.315  53.675667
2.314  53.693732
2.313  53.757061
2.312  53.710245
2.311  53.718458
2.310  53.739979
2.309  53.785223
2.308  53.769847
2.307  53.792401
2.306  53.771375
2.305  53.757489
2.304  53.797682
2.303  53.850288
2.302  53.735742
2.301  53.719557
2.300  53.777343
2.299  53.814922
2.298  53.760384
2.297  53.750211
2.296  53.711975
2.295  53.728814
2.294  53.709411
2.293  53.739892
2.292  53.715315
2.291  53.770511
2.290  53.724139
2.289  53.736550
2.288  53.635899
2.287  53.684515
2.286  53.657154
2.285  53.614415
2.284  53.553524
2.283  53.579609
2.282  53.533556
2.281  53.580961
2.280  53.504361
2.279  53.591281
2.278  53.559547
2.277  53.580724
2.276  53.554846
2.275  53.535569
2.274  53.491859
2.273  53.461433
2.272  53.446550
2.271  53.469958
2.270  53.397605
2.269  53.391254
2.268  53.378925
2.267  53.344724
2.266  53.229581
2.265  53.330924
2.264  53.257730
2.263  53.277737
2.262  53.229889
2.261  53.279246
2.260  53.159232
2.259  53.247290
2.258  53.197414
2.257  53.206449
2.256  53.200020
2.255  53.249679
2.254  53.125619
2.253  53.141643
2.252  53.175248
2.251  53.276640
2.250  53.260485
2.249  53.267391
2.248  53.323867
2.247  53.306191
2.246  53.342483
2.245  53.460298
2.244  53.364190
2.243  53.533258
2.242  53.445301
2.241  53.581455
2.240  53.578338
2.239  53.627117
2.238  53.701176
2.237  53.747783
2.236  53.768636
2.235  53.848404
2.234  53.768192
2.233  53.981549
2.232  53.929475
2.231  53.969388
2.230  53.933820
2.229  54.031933
2.228  53.957585
2.227  54.014935
2.226  53.986331
2.225  54.089063
2.224  54.060525
2.223  54.170550
2.222  54.088199
2.221  54.071409
2.220  53.977197
2.219  54.056193
2.218  53.987994
2.217  54.024986
2.216  54.100995
2.215  53.940802
2.214  53.972976
2.213  53.924564
2.212  53.904916
2.211  53.820159
2.210  53.875707
2.209  53.847219
2.208  53.764998
2.207  53.854273
2.206  53.836800
2.205  53.938908
2.204  53.907013
2.203  53.974043
2.202  53.930070
2.201  54.022057
2.200  54.106219
2.199  54.213946
2.198  54.170702
2.197  54.308655
2.196  54.302799
2.195  54.405017
2.194  54.450893
2.193  54.613851
2.192  54.503598
2.191  54.725281
2.190  54.670882
2.189  54.742741
2.188  54.723342
2.187  54.894738
2.186  54.868662
2.185  54.923860
2.184  54.916241
2.183  55.006943
2.182  55.071870
2.181  55.020425
2.180  55.113395
2.179  55.167873
2.178  55.120296
2.177  55.263012
2.176  55.285958
2.175  55.374607
2.174  55.297569
2.173  55.401212
2.172  55.416492
2.171  55.553776
2.170  55.558459
2.169  55.720832
2.168  55.730804
2.167  55.771209
2.166  55.835319
2.165  55.944978
2.164  56.030531
2.163  56.172964
2.162  56.191574
2.161  56.414385
2.160  56.405135
2.159  56.572589
2.158  56.626191
2.157  56.780432
2.156  56.939761
2.155  57.064905
2.154  57.110813
2.153  57.264435
2.152  57.324898
2.151  57.395155
2.150  57.405243
2.149  57.559660
2.148  57.693791
2.147  57.753500
2.146  57.785794
2.145  57.933261
2.144  57.989243
2.143  58.021975
2.142  58.017475
2.141  58.109554
2.140  58.089670
2.139  58.148551
2.138  58.189768
2.137  58.251794
2.136  58.232823
2.135  58.190573
2.134  58.224114
2.133  58.296770
2.132  58.201876
2.131  58.261838
2.130  58.303615
2.129  58.316196
2.128  58.288866
2.127  58.231008
2.126  58.214876
2.125  58.199569
2.124  58.222839
2.123  58.210112
2.122  58.119038
2.121  58.140720
2.120  58.082184
2.119  58.034451
2.118  57.965374
2.117  57.929105
2.116  57.908414
2.115  57.861132
2.114  57.805309
2.113  57.760483
2.112  57.710599
2.111  57.691835
2.110  57.585681
2.109  57.534588
2.108  57.475674
2.107  57.441032
2.106  57.375109
2.105  57.358932
2.104  57.263428
2.103  57.228880
2.102  57.135024
2.101  57.138191
2.100  57.105739
2.099  57.109770
2.098  57.039353
2.097  57.044319
2.096  57.114224
2.095  57.146030
2.094  57.168426
2.093  57.204882
2.092  57.238128
2.091  57.216602
2.090  57.282841
2.089  57.375892
2.088  57.370854
2.087  57.383385
2.086  57.392055
2.085  57.397213
2.084  57.361965
2.083  57.387117
2.082  57.386463
2.081  57.383831
2.080  57.412283
2.079  57.459546
2.078  57.544862
2.077  57.650970
2.076  57.762074
2.075  57.881661
2.074  58.021800
2.073  58.172216
2.072  58.305016
2.071  58.493333
2.070  58.668347
2.069  58.749399
2.068  58.817994
2.067  58.874515
2.066  58.936450
2.065  59.008975
2.064  59.015733
2.063  59.016083
2.062  59.048734
2.061  59.065968
2.060  59.120095
2.059  59.164896
2.058  59.193572
2.057  59.221426
2.056  59.225379
2.055  59.216414
2.054  59.324784
2.053  59.331482
2.052  59.312418
2.051  59.340542
2.050  59.343047
2.049  59.322005
2.048  59.378104
2.047  59.406454
2.046  59.463951
2.045  59.442209
2.044  59.482577
2.043  59.490142
2.042  59.406094
2.041  59.438981
2.040  59.501029
2.039  59.493452
2.038  59.520676
2.037  59.516776
2.036  59.488152
2.035  59.423990
2.034  59.406264
2.033  59.406366
2.032  59.406868
2.031  59.390666
2.030  59.349326
2.029  59.277441
2.028  59.303710
2.027  59.270446
2.026  59.238702
2.025  59.088571
2.024  59.061510
2.023  58.935954
2.022  58.770689
2.021  58.460474
2.020  58.123245
2.019  57.784041
2.018  57.372227
2.017  56.928605
2.016  56.642581
2.015  56.408010
2.014  56.301775
2.013  56.312458
2.012  56.507181
2.011  56.779885
2.010  57.066082
2.009  57.349759
2.008  57.663422
2.007  57.863982
2.006  57.998817
2.005  58.077221
2.004  58.104466
2.003  58.015702
2.002  57.963290
2.001  57.841192
2.000  57.790483
1.999  57.681777
1.998  57.493485
1.997  57.306029
1.996  57.185681
1.995  57.076952
1.994  56.882414
1.993  56.656010
1.992  56.533901
1.991  56.325886
1.990  56.166185
1.989  55.951999
1.988  55.877449
1.987  55.696424
1.986  55.482309
1.985  55.306891
1.984  55.227853
1.983  55.094493
1.982  55.067813
1.981  54.860569
1.980  54.747933
1.979  54.649455
1.978  54.478713
1.977  54.253708
1.976  54.090138
1.975  53.851912
1.974  53.525461
1.973  53.272027
1.972  52.914885
1.971  52.607406
1.970  52.394719
1.969  52.091581
1.968  51.986964
1.967  51.883196
1.966  51.848535
1.965  51.850408
1.964  52.052338
1.963  52.132141
1.962  52.336560
1.961  52.383706
1.960  52.528841
1.959  52.543855
1.958  52.534630
1.957  52.434755
1.956  52.462013
1.955  52.399010
1.954  52.420599
1.953  52.265086
1.952  52.375232
1.951  52.191941
1.950  52.223422
1.949  52.145445
1.948  52.189158
1.947  52.105879
1.946  52.049535
1.945  52.047143
1.944  52.042935
1.943  51.970902
1.942  52.046305
1.941  51.915166
1.940  51.995419
1.939  51.691480
1.938  51.813048
1.937  51.649665
1.936  51.542940
1.935  51.420462
1.934  51.402109
1.933  51.193015
1.932  51.085884
1.931  50.923168
1.930  50.899192
1.929  50.714753
1.928  50.709168
1.927  50.431256
1.926  50.205583
1.925  50.156310
1.924  49.951373
1.923  49.559622
1.922  49.369525
1.921  48.918016
1.920  48.530333
1.919  47.828026
1.918  47.383938
1.917  46.639642
1.916  45.803506
1.915  44.756463
1.914  43.779030
1.913  42.507421
1.912  41.367144
1.911  39.755839
1.910  38.223995
1.909  36.506099
1.908  34.769490
1.907  32.725179
1.906  30.619589
1.905  28.507757
1.904  26.420343
1.903  24.349895
1.902  22.676507
1.901  21.207301
1.900  20.516286
1.899  20.325920
1.898  20.944474
1.897  22.133052
1.896  24.089236
1.895  26.377197
1.894  29.229387
1.893  32.102927
1.892  35.090498
1.891  37.821443
1.890  40.435947
1.889  42.537727
1.888  44.389032
1.887  45.865507
1.886  47.109444
1.885  48.134013
1.884  49.065046
1.883  49.789255
1.882  50.594626
1.881  51.127101
1.880  51.677396
1.879  52.126396
1.878  52.452058
1.877  52.670225
1.876  52.880869
1.875  53.050486
1.874  53.203345
1.873  53.248935
1.872  53.337052
1.871  53.323843
1.870  53.296497
1.869  53.205998
1.868  53.259569
1.867  53.087882
1.866  53.043426
1.865  53.001891
1.864  53.032557
1.863  52.927273
1.862  52.820075
1.861  52.684888
1.860  52.645019
1.859  52.508078
1.858  52.423352
1.857  52.285482
1.856  52.159710
1.855  52.018120
1.854  51.929572
1.853  51.805757
1.852  51.737508
1.851  51.683982
1.850  51.706679
1.849  51.620967
1.848  51.626412
1.847  51.572821
1.846  51.563365
1.845  51.588750
1.844  51.669193
1.843  51.634499
1.842  51.638964
1.841  51.602759
1.840  51.629114
1.839  51.625263
1.838  51.620596
1.837  51.597457
1.836  51.667351
1.835  51.684759
1.834  51.794369
1.833  51.884592
1.832  52.046701
1.831  52.169187
1.830  52.312630
1.829  52.424299
1.828  52.563891
1.827  52.623167
1.826  52.815005
1.825  52.904259
1.824  53.108181
1.823  53.231440
1.822  53.316688
1.821  53.480427
1.820  53.753690
1.819  53.988583
1.818  54.284388
1.817  54.551899
1.816  54.916307
1.815  55.234813
1.814  55.592213
1.813  55.987190
1.812  56.426483
1.811  56.843852
1.810  57.262742
1.809  57.595471
1.808  57.961914
1.807  58.346573
1.806  58.756760
1.805  59.052569
1.804  59.319581
1.803  59.624063
1.802  59.881139
1.801  60.101201
1.800  60.316014
1.799  60.491153
1.798  60.677298
1.797  60.832916
1.796  60.991660
1.795  61.152149
1.794  61.311353
1.793  61.435253
1.792  61.528601
1.791  61.660827
1.790  61.780747
1.789  61.904226
1.788  62.032936
1.787  62.165154
1.786  62.252618
1.785  62.376530
1.784  62.549686
1.783  62.666768
1.782  62.741599
1.781  62.870268
1.780  63.029922
1.779  63.142659
1.778  63.254338
1.777  63.393928
1.776  63.514742
1.775  63.574700
1.774  63.669116
1.773  63.795237
1.772  63.911060
1.771  64.015458
1.770  64.105270
1.769  64.204496
1.768  64.226750
1.767  64.259695
1.766  64.318718
1.765  64.437147
1.764  64.516192
1.763  64.560801
1.762  64.619503
1.761  64.692113
1.760  64.735921
1.759  64.741669
1.758  64.807036
1.757  64.877985
1.756  64.904863
1.755  64.943140
1.754  64.978943
1.753  64.985369
1.752  65.016539
1.751  65.045305
1.750  65.062523
1.749  65.083526
1.748  65.084521
1.747  65.180402
1.746  65.114275
1.745  65.142293
1.744  65.205003
1.743  65.213520
1.742  65.204792
1.741  65.223229
1.740  65.230059
1.739  65.267369
1.738  65.323217
1.737  65.358389
1.736  65.373318
1.735  65.409706
1.734  65.352431
1.733  65.344848
1.732  65.362687
1.731  65.420459
1.730  65.387610
1.729  65.414406
1.728  65.423003
1.727  65.457667
1.726  65.406284
1.725  65.407945
1.724  65.428747
1.723  65.469855
1.722  65.433261
1.721  65.448120
1.720  65.409266
1.719  65.434097
1.718  65.400001
1.717  65.391100
1.716  65.371586
1.715  65.427138
1.714  65.400700
1.713  65.383807
1.712  65.382567
1.711  65.405530
1.710  65.333153
1.709  65.392685
1.708  65.361399
1.707  65.307750
1.706  65.313306
1.705  65.337864
1.704  65.266962
1.703  65.239410
1.702  65.228317
1.701  65.210892
1.700  65.233743
1.699  65.282852
1.698  65.197984
1.697  65.250770
1.696  65.164927
1.695  65.188409
1.694  65.200180
1.693  65.215949
1.692  65.151102
1.691  65.220816
1.690  65.058098
1.689  65.061416
1.688  64.991163
1.687  65.072518
1.686  65.012430
1.685  65.088936
1.684  64.983065
1.683  64.968561
1.682  64.948960
1.681  65.014946
1.680  64.961993
1.679  64.922881
1.678  64.927407
1.677  64.924668
1.676  64.929281
1.675  64.905360
1.674  64.886939
1.673  64.891173
1.672  64.825227
1.671  64.854801
1.670  64.775250
1.669  64.829977
1.668  64.633956
1.667  64.796933
1.666  64.735947
1.665  64.715049
1.664  64.607082
1.663  64.709080
1.662  64.652667
1.661  64.699523
1.660  64.624666
1.659  64.568858
1.658  64.550260
1.657  64.577852
1.656  64.508445
1.655  64.589274
1.654  64.459138
1.653  64.510981
1.652  64.385402
1.651  64.419776
1.650  64.387163
1.649  64.498553
1.648  64.383462
1.647  64.399114
1.646  64.395879
1.645  64.352403
1.644  64.267872
1.643  64.293223
1.642  64.270968
1.641  64.224997
1.640  64.226861
1.639  64.187157
1.638  64.172241
1.637  64.181276
1.636  64.121199
1.635  64.110996
1.634  64.068839
1.633  64.075563
1.632  64.010076
1.631  64.043168
1.630  63.962674
1.629  63.920560
1.628  63.895301
1.627  63.979601
1.626  63.755187
1.625  63.841161
1.624  63.793484
1.623  63.820388
1.622  63.735722
1.621  63.656950
1.620  63.601517
1.619  63.667059
1.618  63.590676
1.617  63.607968
1.616  63.498811
1.615  63.479001
1.614  63.384210
1.613  63.373301
1.612  63.364464
1.611  63.426532
1.610  63.292100
1.609  63.372061
1.608  63.206781
1.607  63.194516
1.606  63.151993
1.605  63.110008
1.604  63.168844
1.603  63.078856
1.602  62.988057
1.601  63.000025
1.600  62.928239
1.599  62.882396
1.598  62.847935
1.597  62.854661
1.596  62.758530
1.595  62.765118
1.594  62.703565
1.593  62.624912
1.592  62.580574
1.591  62.581206
1.590  62.486698
1.589  62.422569
1.588  62.408566
1.587  62.378770
1.586  62.314364
1.585  62.311976
1.584  62.106154
1.583  62.091213
1.582  61.991917
1.581  61.922729
1.580  61.887389
1.579  61.873546
1.578  61.792347
1.577  61.761318
1.576  61.718305
1.575  61.695076
1.574  61.579080
1.573  61.579841
1.572  61.491368
1.571  61.478102
1.570  61.385404
1.569  61.152707
1.568  60.768641
1.567  61.242684
1.566  61.149894
1.565  61.088676
1.564  60.977984
1.563  61.014392
1.562  60.884881
1.561  60.778789
1.560  60.647934
1.559  60.677072
1.558  60.591531
1.557  60.536966
1.556  60.375254
1.555  60.327702
1.554  60.215768
1.553  60.180170
1.552  60.084262
1.551  60.029356
1.550  59.959674
1.549  59.960289
1.548  59.857482
1.547  59.737794
1.546  59.617477
1.545  59.536515
1.544  59.437842
1.543  59.401991
1.542  59.322042
1.541  59.165666
1.540  59.115109
1.539  59.041707
1.538  58.920165
1.537  58.853100
1.536  58.757789
1.535  58.687291
1.534  58.571813
1.533  58.516962
1.532  58.343410
1.531  58.206625
1.530  58.140071
1.529  58.052497
1.528  57.966268
1.527  57.916402
1.526  57.761121
1.525  57.687581
1.524  57.567347
1.523  57.451170
1.522  57.296691
1.521  57.179350
1.520  57.118271
1.519  56.987345
1.518  56.855891
1.517  56.769656
1.516  56.618971
1.515  56.545844
1.514  56.430196
1.513  56.283728
1.512  56.147227
1.511  55.982793
1.510  55.839855
1.509  55.715126
1.508  55.594267
1.507  55.516800
1.506  55.423638
1.505  55.284071
1.504  55.127939
1.503  54.989433
1.502  54.831673
1.501  54.730211
1.500  54.621461
1.499  54.468236
1.498  54.325628
1.497  54.166002
1.496  54.073670
1.495  53.971762
1.494  53.836317
1.493  53.672588
1.492  53.538036
1.491  53.398903
1.490  53.254747
1.489  53.093225
1.488  52.947831
1.487  52.795449
1.486  52.633270
1.485  52.508565
1.484  52.385639
1.483  52.249328
1.482  52.127208
1.481  51.898828
1.480  51.672105
1.479  51.457009
1.478  51.216049
1.477  50.945677
1.476  50.674373
1.475  50.336761
1.474  49.827724
1.473  49.118006
1.472  48.312016
1.471  47.349118
1.470  46.542401
1.469  46.018324
1.468  46.016585
1.467  46.341155
1.466  46.901470
1.465  47.334807
1.464  47.639957
1.463  47.813981
1.462  47.887184
1.461  47.873677
1.460  47.837191
1.459  47.768866
1.458  47.662866
1.457  47.567419
1.456  47.476427
1.455  47.242335
1.454  47.067680
1.453  46.851806
1.452  46.701389
1.451  46.457317
1.450  46.263220
1.449  46.057516
1.448  45.876541
1.447  45.576354
1.446  45.417465
1.445  45.190244
1.444  45.025894
1.443  44.712387
1.442  44.531631
1.441  44.324603
1.440  44.105480
1.439  43.873067
1.438  43.668571
1.437  43.368967
1.436  43.214740
1.435  42.882839
1.434  42.675337
1.433  42.381669
1.432  42.241359
1.431  41.946531
1.430  41.677802
1.429  41.349011
1.428  41.130057
1.427  40.676647
1.426  40.332880
1.425  39.868712
1.424  39.432470
1.423  38.960622
1.422  38.639190
1.421  38.242295
