Name: Vesuvianite Ca_10(Mg,Fe^2+)_2Al_4(Si_2O_7)_2(SiO_4)_5(OH,F)_4
Type: Mineral
Class: Silicates
Subclass: Sorosilicate
Particle Size: 125-500um
Sample No.: SS-3A
Owner: JPL
Wavelength range: IR
Origin: USA, California, Riverside County, Crestmore Quarry
Collected by Burminco
Description: 





Measurement: Hemispherical reflectance
First Column: X
Second Column: Y
X Units:  Wavelength (micrometers)
Y Units:  Reflectance (percent)
First X Value: 15.3853
Last X Value: 2.00032
Number of X Values: 2256
Additional information: ss03aa.txt
 
15.3853	1.9449
15.3397	1.88633
15.2945	1.72432
15.2495	1.60075
15.2048	1.56792
15.1603	1.73503
15.1161	1.92367
15.0722	1.78505
15.0285	1.78474
14.9851	1.85755
14.9419	1.67716
14.8989	1.8022
14.8563	1.78611
14.8138	1.66342
14.7716	1.84111
14.7296	2.11931
14.6879	2.23367
14.6464	2.24692
14.6052	2.11741
14.5641	1.93876
14.5233	1.94951
14.4828	2.07722
14.4424	2.10098
14.4023	2.10587
14.3624	1.98903
14.3227	2.03866
14.2833	2.08889
14.244	1.93363
14.205	1.95988
14.1662	2.21127
14.1276	2.34054
14.0892	2.43783
14.051	2.46983
14.0131	2.33153
13.9753	2.27697
13.9377	2.39811
13.9004	2.61021
13.8632	2.74977
13.8262	2.75114
13.7895	2.74973
13.7529	2.92913
13.7165	3.14451
13.6803	3.1397
13.6443	3.25739
13.6085	3.38362
13.5729	3.55512
13.5374	3.73191
13.5022	3.7176
13.4671	3.73087
13.4322	3.89151
13.3975	4.11457
13.363	4.09651
13.3286	3.81223
13.2944	3.76893
13.2604	3.92436
13.2266	4.13536
13.193	4.18621
13.1595	4.19739
13.1262	4.40772
13.093	4.46112
13.06	4.54533
13.0272	4.79906
12.9946	4.84285
12.9621	4.87453
12.9298	5.02204
12.8976	5.15346
12.8656	5.36646
12.8337	5.53707
12.8021	5.53918
12.7705	5.7142
12.7391	5.96178
12.7079	5.99222
12.6769	5.90041
12.6459	5.90268
12.6152	5.94943
12.5845	5.96436
12.5541	5.98695
12.5238	6.03061
12.4936	6.04372
12.4635	5.9851
12.4337	5.7397
12.4039	5.75703
12.3743	5.94345
12.3448	6.02074
12.3155	5.91334
12.2863	5.75052
12.2573	5.84767
12.2284	6.0277
12.1996	6.14675
12.171	6.27086
12.1425	6.37714
12.1141	6.62183
12.0859	6.6245
12.0578	6.64157
12.0298	6.8956
12.0019	7.19764
11.9742	7.32585
11.9466	7.3463
11.9192	7.40186
11.8918	7.61625
11.8646	7.85909
11.8375	7.82581
11.8106	7.76815
11.7837	7.89066
11.757	8.08206
11.7304	8.16277
11.7039	8.18183
11.6776	8.12198
11.6513	8.07287
11.6252	8.12542
11.5992	8.21317
11.5733	8.39392
11.5475	8.45517
11.5219	8.39478
11.4963	8.49881
11.4709	8.63642
11.4455	8.68946
11.4203	8.86604
11.3952	9.29716
11.3702	9.50385
11.3454	9.50232
11.3206	9.58819
11.2959	9.67187
11.2714	9.61269
11.2469	9.46336
11.2226	9.20511
11.1983	9.11105
11.1742	8.99313
11.1502	8.92056
11.1263	8.96343
11.1024	8.91412
11.0787	8.87788
11.0551	9.01859
11.0316	9.28838
11.0081	9.49491
10.9848	9.69331
10.9616	9.93607
10.9385	10.1031
10.9154	10.2019
10.8925	10.2528
10.8697	10.2969
10.8469	10.1841
10.8243	9.88953
10.8017	9.65802
10.7793	9.32101
10.7569	9.01598
10.7346	8.87457
10.7125	8.62265
10.6904	8.31156
10.6684	8.25226
10.6465	8.33364
10.6247	8.40613
10.6029	8.49353
10.5813	8.74436
10.5597	8.9206
10.5383	9.07736
10.5169	9.23048
10.4956	9.40345
10.4744	9.60699
10.4533	9.81095
10.4323	10.0762
10.4113	10.3346
10.3904	10.5076
10.3697	10.5967
10.349	10.5955
10.3284	10.6426
10.3078	10.6388
10.2874	10.4688
10.267	10.4188
10.2467	10.3827
10.2265	10.1023
10.2064	9.78413
10.1863	9.58248
10.1663	9.34488
10.1464	9.01941
10.1266	8.82697
10.1069	8.69507
10.0872	8.62779
10.0676	8.64551
10.0481	8.67847
10.0287	8.90546
10.0093	9.4382
9.99005	10.0808
9.97084	10.7943
9.95169	11.6952
9.93263	12.6411
9.91364	13.441
9.89472	14.3343
9.87587	15.2725
9.8571	16.1136
9.83839	17.0935
9.81976	17.9565
9.80119	18.653
9.78271	19.2372
9.76428	19.7241
9.74592	20.1168
9.72764	20.2441
9.70943	20.2701
9.69128	20.2535
9.6732	20.041
9.65518	19.6698
9.63724	19.1412
9.61935	18.5762
9.60155	17.9099
9.5838	17.1372
9.56611	16.2628
9.5485	15.1579
9.53094	14.093
9.51345	13.0594
9.49604	11.8023
9.47867	10.5052
9.46137	9.15618
9.44414	7.77798
9.42697	6.53947
9.40986	5.42846
9.39281	4.47471
9.37583	3.66962
9.35891	3.1705
9.34204	2.7416
9.32524	2.30014
9.3085	1.84897
9.29182	1.55709
9.27519	1.48233
9.25863	1.35977
9.24213	1.16184
9.22568	0.956485
9.2093	0.962808
9.19297	0.928372
9.17669	0.896605
9.16048	1.01922
9.14433	0.984675
9.12823	0.86985
9.11218	0.866028
9.0962	0.734287
9.08027	0.502886
9.06439	0.55707
9.04858	0.704337
9.03281	0.753274
9.0171	0.777763
9.00145	0.892595
8.98585	0.911934
8.9703	0.79037
8.9548	0.80201
8.93937	0.796921
8.92398	0.585181
8.90865	0.558592
8.89337	0.652424
8.87814	0.546036
8.86296	0.486935
8.84784	0.655665
8.83277	0.781678
8.81774	0.777374
8.80277	0.779099
8.78786	0.775935
8.77298	0.663513
8.75816	0.562422
8.7434	0.517857
8.72868	0.549145
8.714	0.595828
8.69938	0.621194
8.68481	0.663255
8.67029	0.585735
8.65581	0.531827
8.64139	0.575667
8.62701	0.587088
8.61268	0.68863
8.5984	0.721786
8.58416	0.691314
8.56997	0.689901
8.55583	0.605077
8.54174	0.623422
8.52769	0.748576
8.51368	0.729975
8.49973	0.846283
8.48582	0.880205
8.47195	0.815428
8.45813	0.917605
8.44436	0.933289
8.43062	1.00802
8.41693	1.02583
8.4033	0.957789
8.3897	1.01709
8.37614	1.13909
8.36264	1.18062
8.34917	1.08179
8.33574	1.13978
8.32236	1.17007
8.30903	1.14944
8.29573	1.1703
8.28248	1.17666
8.26927	1.16882
8.2561	1.22054
8.24298	1.23087
8.2299	1.36338
8.21685	1.3747
8.20385	1.27502
8.19089	1.2723
8.17797	1.30272
8.16509	1.38919
8.15225	1.54764
8.13946	1.6746
8.1267	1.59403
8.11398	1.46938
8.10131	1.4991
8.08867	1.55832
8.07606	1.56803
8.0635	1.51241
8.05099	1.4657
8.0385	1.54217
8.02606	1.54394
8.01366	1.53359
8.00129	1.58501
7.98896	1.56975
7.97667	1.62742
7.96442	1.71635
7.9522	1.76021
7.94002	1.7775
7.92788	1.72055
7.91578	1.71688
7.90371	1.75422
7.89168	1.7866
7.87969	1.80547
7.86773	1.76848
7.85581	1.7592
7.84392	1.70261
7.83207	1.65642
7.82026	1.73424
7.80849	1.85441
7.79674	1.87277
7.78503	1.85824
7.77337	1.83034
7.76173	1.88466
7.75012	1.90896
7.73856	1.94506
7.72703	2.02062
7.71553	2.02248
7.70406	2.07111
7.69263	2.07147
7.68123	2.05938
7.66987	2.07941
7.65855	2.08346
7.64725	2.1098
7.63598	2.18489
7.62475	2.16923
7.61356	2.07619
7.60239	2.0971
7.59126	2.15265
7.58017	2.26011
7.5691	2.3289
7.55806	2.33156
7.54707	2.33598
7.5361	2.41917
7.52516	2.40444
7.51425	2.42088
7.50338	2.47298
7.49253	2.4328
7.48172	2.43579
7.47094	2.42335
7.46019	2.35697
7.44947	2.38289
7.43879	2.51797
7.42813	2.53777
7.4175	2.50185
7.4069	2.44691
7.39634	2.34981
7.3858	2.28166
7.37529	2.3638
7.36482	2.40746
7.35437	2.42734
7.34396	2.48735
7.33357	2.50228
7.32321	2.5051
7.31288	2.428
7.30258	2.50999
7.29231	2.64496
7.28207	2.67326
7.27185	2.68652
7.26167	2.71301
7.25152	2.83256
7.24139	2.94662
7.23129	3.04625
7.22122	3.13355
7.21117	3.19229
7.20116	3.12386
7.19117	3.15146
7.18121	3.31846
7.17128	3.50627
7.16137	3.61252
7.1515	3.58321
7.14164	3.52442
7.13182	3.56514
7.12203	3.64319
7.11225	3.78853
7.10251	3.87414
7.0928	3.97114
7.08311	4.02545
7.07344	4.00206
7.06381	4.04455
7.0542	4.10348
7.04461	4.14159
7.03506	4.18238
7.02552	4.32146
7.01601	4.35235
7.00653	4.348
6.99708	4.43302
6.98765	4.52794
6.97824	4.60907
6.96886	4.67425
6.95951	4.68734
6.95018	4.61014
6.94087	4.65609
6.9316	4.71166
6.92234	4.73817
6.91311	4.79458
6.90391	4.8157
6.89473	4.67207
6.88557	4.49269
6.87644	4.40973
6.86733	4.40105
6.85824	4.27425
6.84918	4.0865
6.84015	4.00367
6.83114	4.09831
6.82215	4.15569
6.81319	3.97064
6.80424	3.91523
6.79532	4.06013
6.78643	4.17043
6.77756	4.17019
6.76871	4.1929
6.75989	4.25559
6.75109	4.40129
6.74231	4.68825
6.73355	4.96708
6.72482	5.13493
6.71611	5.21293
6.70742	5.38605
6.69875	5.59466
6.69011	5.77875
6.68149	5.97642
6.67289	6.09396
6.66431	6.12755
6.65576	6.15634
6.64722	6.394
6.63871	6.66243
6.63022	6.65229
6.62175	6.52287
6.61331	6.43913
6.60488	6.50972
6.59648	6.57202
6.5881	6.46339
6.57974	6.4154
6.5714	6.35309
6.56308	6.08553
6.55478	5.90355
6.54651	5.74743
6.53825	5.42063
6.53001	5.15507
6.5218	5.1024
6.51361	4.93414
6.50544	4.82288
6.49729	4.85456
6.48915	4.72124
6.48104	4.49572
6.47295	4.39546
6.46488	4.21803
6.45683	4.00166
6.4488	3.73566
6.44079	3.45731
6.4328	3.30434
6.42482	3.20839
6.41687	3.06232
6.40894	2.90979
6.40103	2.83571
6.39314	2.78118
6.38526	2.71676
6.37741	2.67864
6.36957	2.73426
6.36176	2.80502
6.35396	2.9994
6.34618	3.1948
6.33843	3.28208
6.33069	3.469
6.32297	3.78606
6.31527	3.98171
6.30758	4.18736
6.29992	4.41976
6.29227	4.58494
6.28465	4.65565
6.27704	4.76298
6.26945	4.85259
6.26188	4.90774
6.25432	4.97199
6.24679	4.99315
6.23927	4.98255
6.23177	4.95886
6.22429	4.96997
6.21683	4.94771
6.20938	4.84548
6.20195	4.88327
6.19454	4.89829
6.18715	4.9325
6.17978	4.89054
6.17242	4.78234
6.16508	4.79637
6.15776	4.7483
6.15045	4.62114
6.14317	4.50601
6.1359	4.39533
6.12864	4.36245
6.12141	4.43654
6.11419	4.45834
6.10699	4.32297
6.0998	4.14161
6.09263	4.06003
6.08549	4.1805
6.07835	4.35294
6.07123	4.32844
6.06413	4.20787
6.05705	4.30082
6.04998	4.49694
6.04293	4.3452
6.0359	4.17782
6.02888	4.18362
6.02187	4.20412
6.01489	4.27191
6.00792	4.19414
6.00096	4.07353
5.99403	4.19799
5.98711	4.31486
5.9802	4.2282
5.97331	4.23317
5.96644	4.34672
5.95958	4.27897
5.95274	4.20467
5.94591	4.35775
5.9391	4.52196
5.9323	4.37542
5.92552	4.27708
5.91876	4.29086
5.91201	4.25012
5.90528	4.25725
5.89856	4.33159
5.89186	4.28695
5.88517	4.38139
5.8785	4.46975
5.87184	4.30257
5.8652	4.21596
5.85857	4.14356
5.85196	4.17211
5.84536	4.19106
5.83878	4.10698
5.83221	4.12408
5.82566	4.2442
5.81912	4.21736
5.81259	4.09864
5.80608	4.04567
5.79959	4.02019
5.79311	3.94873
5.78665	3.92623
5.78019	3.94381
5.77376	3.95452
5.76734	4.02395
5.76093	3.94474
5.75453	3.87383
5.74815	3.89955
5.74179	3.86364
5.73543	3.88985
5.7291	3.86186
5.72277	3.8547
5.71646	3.80484
5.71017	3.75294
5.70389	3.61249
5.69762	3.61337
5.69136	3.67964
5.68513	3.70534
5.6789	3.71838
5.67268	3.6332
5.66648	3.53817
5.6603	3.53015
5.65413	3.49122
5.64797	3.51013
5.64182	3.56119
5.63569	3.51499
5.62957	3.49528
5.62347	3.44186
5.61737	3.37344
5.61129	3.35031
5.60522	3.33477
5.59917	3.25755
5.59313	3.23142
5.5871	3.218
5.58109	3.24476
5.57509	3.17623
5.5691	3.12968
5.56312	3.21732
5.55716	3.29438
5.55121	3.28997
5.54528	3.23109
5.53935	3.27474
5.53344	3.29461
5.52754	3.32156
5.52166	3.40047
5.51578	3.40196
5.50992	3.43094
5.50407	3.50891
5.49823	3.55598
5.49241	3.50091
5.4866	3.42864
5.4808	3.51061
5.47501	3.61191
5.46923	3.69475
5.46347	3.7062
5.45772	3.71286
5.45198	3.72533
5.44625	3.79567
5.44054	3.85267
5.43484	3.90034
5.42914	3.89543
5.42347	3.96383
5.4178	4.03892
5.41214	4.01808
5.4065	3.99237
5.40087	4.03433
5.39525	4.10474
5.38964	4.12605
5.38404	4.07873
5.37846	4.03598
5.37288	4.1038
5.36732	4.19502
5.36177	4.25265
5.35623	4.317
5.35071	4.4383
5.34519	4.30954
5.33968	4.21668
5.33419	4.27015
5.32871	4.36968
5.32324	4.42457
5.31778	4.43877
5.31233	4.49827
5.30689	4.5507
5.30147	4.54143
5.29605	4.5748
5.29065	4.70535
5.28525	4.72183
5.27987	4.73318
5.2745	4.8205
5.26914	4.90285
5.26379	4.93279
5.25845	5.01079
5.25312	5.10818
5.24781	5.1161
5.2425	5.1656
5.23721	5.25147
5.23192	5.235
5.22665	5.26845
5.22138	5.39905
5.21613	5.45936
5.21089	5.44682
5.20566	5.5028
5.20044	5.64772
5.19522	5.73138
5.19002	5.80133
5.18483	5.83944
5.17965	5.89029
5.17448	6.01377
5.16933	6.10684
5.16418	6.19838
5.15904	6.27898
5.15391	6.36885
5.14879	6.44227
5.14368	6.43176
5.13859	6.45033
5.1335	6.56248
5.12842	6.64853
5.12335	6.82463
5.1183	6.94294
5.11325	6.97589
5.10821	6.93531
5.10318	6.93597
5.09817	7.06601
5.09316	7.31321
5.08816	7.44866
5.08317	7.55344
5.07819	7.65881
5.07322	7.75267
5.06826	7.88657
5.06331	7.98625
5.05837	8.05743
5.05344	8.19796
5.04852	8.33033
5.04361	8.41205
5.03871	8.50994
5.03382	8.59734
5.02894	8.71003
5.02406	8.8799
5.0192	9.0097
5.01435	9.10866
5.0095	9.19079
5.00467	9.24281
4.99984	9.29737
4.99502	9.44012
4.99021	9.63411
4.98542	9.71373
4.98063	9.75379
4.97585	9.91922
4.97108	10.0911
4.96632	10.2253
4.96156	10.2175
4.95682	10.2755
4.95209	10.4414
4.94736	10.665
4.94264	10.8211
4.93794	10.8567
4.93324	10.9597
4.92855	11.1078
4.92387	11.1839
4.9192	11.2571
4.91453	11.3759
4.90988	11.5108
4.90524	11.649
4.9006	11.801
4.89597	11.8773
4.89135	11.9909
4.88674	12.0371
4.88214	12.0704
4.87755	12.2618
4.87296	12.4307
4.86839	12.4813
4.86382	12.5636
4.85926	12.6801
4.85471	12.8433
4.85017	12.971
4.84564	13.0434
4.84111	13.1471
4.8366	13.2848
4.83209	13.3691
4.82759	13.4352
4.8231	13.5341
4.81862	13.629
4.81415	13.7106
4.80968	13.8188
4.80522	13.9454
4.80077	13.9989
4.79633	13.9798
4.7919	14.1065
4.78747	14.2538
4.78306	14.3416
4.77865	14.4758
4.77425	14.499
4.76986	14.4866
4.76547	14.6105
4.7611	14.692
4.75673	14.7106
4.75237	14.7837
4.74802	14.7801
4.74367	14.7882
4.73934	14.8326
4.73501	14.8865
4.73069	14.957
4.72638	14.9855
4.72207	14.8506
4.71777	14.7967
4.71348	14.765
4.7092	14.7926
4.70493	14.7551
4.70066	14.6655
4.69641	14.5817
4.69216	14.5623
4.68791	14.5383
4.68368	14.5315
4.67945	14.565
4.67523	14.5695
4.67102	14.5979
4.66682	14.6378
4.66262	14.722
4.65843	14.8194
4.65425	14.8369
4.65007	14.906
4.64591	15.0108
4.64175	15.1267
4.6376	15.2264
4.63345	15.29
4.62932	15.3483
4.62519	15.4652
4.62106	15.5516
4.61695	15.6242
4.61284	15.7135
4.60874	15.7458
4.60465	15.7371
4.60056	15.7594
4.59648	15.7878
4.59241	15.8395
4.58835	15.9186
4.58429	15.9494
4.58024	15.9405
4.5762	16.0032
4.57216	16.0535
4.56814	16.1093
4.56411	16.1652
4.5601	16.1213
4.55609	16.1193
4.55209	16.0678
4.5481	16.0255
4.54411	16.1207
4.54013	16.2067
4.53616	16.2405
4.5322	16.2081
4.52824	16.1837
4.52429	16.1988
4.52034	16.2594
4.51641	16.3153
4.51247	16.4188
4.50855	16.4889
4.50463	16.4701
4.50072	16.4524
4.49682	16.4155
4.49292	16.4396
4.48903	16.5405
4.48515	16.6733
4.48127	16.7391
4.4774	16.756
4.47354	16.7472
4.46968	16.8224
4.46584	16.8791
4.46199	16.8861
4.45815	16.8319
4.45432	16.89
4.4505	16.9787
4.44668	17.027
4.44287	17.0753
4.43907	17.1215
4.43527	17.2036
4.43148	17.1959
4.4277	17.2132
4.42392	17.2102
4.42015	17.2271
4.41638	17.2815
4.41262	17.3647
4.40887	17.3911
4.40513	17.4399
4.40139	17.4762
4.39765	17.4159
4.39393	17.4161
4.39021	17.4779
4.38649	17.4957
4.38278	17.5356
4.37908	17.565
4.37539	17.5124
4.3717	17.517
4.36801	17.5127
4.36434	17.5426
4.36067	17.5694
4.357	17.6253
4.35335	17.6723
4.34969	17.6726
4.34605	17.6845
4.34241	17.607
4.33877	17.552
4.33514	17.6045
4.33152	17.6013
4.32791	17.6079
4.3243	17.6948
4.32069	17.735
4.3171	17.7564
4.31351	17.8125
4.30992	17.8412
4.30634	17.8512
4.30277	17.8667
4.2992	17.8097
4.29564	17.8017
4.29208	17.9294
4.28853	18.0205
4.28499	18.0026
4.28145	17.9529
4.27792	17.9484
4.27439	17.9352
4.27087	17.9115
4.26735	17.913
4.26384	17.9086
4.26034	17.9226
4.25684	17.9616
4.25335	18.0068
4.24986	17.9849
4.24638	17.8991
4.24291	17.9131
4.23944	18.0522
4.23598	18.1229
4.23252	18.1044
4.22906	18.067
4.22562	17.9638
4.22218	17.9069
4.21874	17.9029
4.21531	17.86
4.21189	17.8095
4.20847	17.77
4.20506	17.7228
4.20165	17.7082
4.19825	17.7351
4.19485	17.673
4.19146	17.6782
4.18807	17.6265
4.18469	17.5756
4.18132	17.5518
4.17795	17.5196
4.17458	17.5328
4.17123	17.5881
4.16787	17.615
4.16453	17.5957
4.16118	17.5649
4.15785	17.4728
4.15451	17.4275
4.15119	17.4684
4.14787	17.447
4.14455	17.3318
4.14124	17.2346
4.13794	17.1914
4.13464	17.1932
4.13134	17.1592
4.12805	17.1168
4.12477	17.1129
4.12149	17.1191
4.11822	17.091
4.11495	17.0848
4.11168	17.0796
4.10843	17.0456
4.10517	16.9331
4.10192	16.846
4.09868	16.7847
4.09545	16.7375
4.09221	16.7629
4.08899	16.8291
4.08576	16.7235
4.08255	16.5621
4.07933	16.5561
4.07613	16.5092
4.07292	16.4743
4.06973	16.416
4.06654	16.4392
4.06335	16.4049
4.06017	16.3072
4.05699	16.2583
4.05382	16.1546
4.05065	16.0701
4.04749	15.9484
4.04433	15.8045
4.04118	15.6586
4.03803	15.4949
4.03489	15.3961
4.03175	15.3441
4.02862	15.2679
4.02549	15.2341
4.02237	15.1974
4.01925	15.0161
4.01614	14.8478
4.01303	14.7983
4.00993	14.7534
4.00683	14.6148
4.00373	14.4866
4.00064	14.4354
3.99756	14.3596
3.99448	14.2626
3.9914	14.166
3.98833	14.165
3.98527	14.1321
3.98221	14.1134
3.97915	14.0669
3.9761	13.9996
3.97305	13.9817
3.97001	13.9418
3.96697	13.9338
3.96394	13.9949
3.96091	14.036
3.95789	14.0381
3.95487	14.0437
3.95186	14.1594
3.94885	14.1839
3.94584	14.0482
3.94284	14.0415
3.93984	14.1054
3.93685	14.0964
3.93386	14.0032
3.93088	13.9135
3.9279	13.9047
3.92493	13.8178
3.92196	13.7092
3.919	13.6013
3.91604	13.556
3.91308	13.5253
3.91013	13.42
3.90718	13.2853
3.90424	13.2549
3.9013	13.3072
3.89837	13.2966
3.89544	13.2589
3.89252	13.2114
3.8896	13.1901
3.88668	13.1459
3.88377	13.1063
3.88086	13.1536
3.87796	13.2849
3.87506	13.4039
3.87217	13.4474
3.86928	13.3059
3.86639	13.2249
3.86351	13.3671
3.86064	13.4619
3.85776	13.4655
3.8549	13.4509
3.85203	13.4599
3.84917	13.516
3.84631	13.5136
3.84346	13.4327
3.84062	13.349
3.83777	13.4086
3.83494	13.3871
3.8321	13.3949
3.82927	13.3837
3.82644	13.3115
3.82362	13.4255
3.82081	13.4804
3.81799	13.4658
3.81518	13.4432
3.81238	13.4956
3.80958	13.5832
3.80678	13.5578
3.80399	13.5128
3.8012	13.6034
3.79841	13.6648
3.79563	13.6842
3.79286	13.742
3.79008	13.7647
3.78731	13.7004
3.78455	13.7167
3.78179	13.7145
3.77903	13.6709
3.77628	13.7341
3.77353	13.7297
3.77079	13.6362
3.76805	13.4495
3.76531	13.355
3.76258	13.3495
3.75985	13.2989
3.75713	13.2006
3.7544	13.187
3.75169	13.2281
3.74898	13.276
3.74627	13.2556
3.74356	13.1634
3.74086	13.18
3.73816	13.162
3.73547	13.0812
3.73278	13.0531
3.7301	13.054
3.72741	12.9744
3.72474	13.0016
3.72206	13.0024
3.71939	12.8823
3.71673	12.8322
3.71406	12.7286
3.71141	12.6129
3.70875	12.6179
3.7061	12.6244
3.70345	12.5672
3.70081	12.5563
3.69817	12.4848
3.69553	12.3867
3.6929	12.3157
3.69027	12.2287
3.68765	12.1373
3.68503	12.0585
3.68241	12.0874
3.6798	12.0854
3.67719	12.0004
3.67458	11.9271
3.67198	11.8406
3.66938	11.7969
3.66678	11.7268
3.66419	11.6561
3.66161	11.5568
3.65902	11.4072
3.65644	11.2961
3.65387	11.2757
3.65129	11.2652
3.64872	11.2146
3.64616	11.1406
3.64359	11.0726
3.64103	10.9816
3.63848	10.8829
3.63593	10.8508
3.63338	10.809
3.63084	10.6907
3.6283	10.5554
3.62576	10.4959
3.62322	10.4438
3.62069	10.368
3.61817	10.2666
3.61564	10.2006
3.61312	10.1683
3.61061	10.1753
3.6081	10.1183
3.60559	9.99192
3.60308	9.91571
3.60058	9.79424
3.59808	9.67625
3.59558	9.61453
3.59309	9.61892
3.59061	9.54951
3.58812	9.37873
3.58564	9.21412
3.58316	9.07769
3.58069	9.02301
3.57822	8.92389
3.57575	8.82576
3.57328	8.82799
3.57082	8.83366
3.56836	8.70501
3.56591	8.5684
3.56346	8.53716
3.56101	8.48339
3.55857	8.42025
3.55613	8.36478
3.55369	8.2747
3.55126	8.16502
3.54883	8.06367
3.5464	8.00088
3.54397	7.89877
3.54155	7.76519
3.53914	7.7162
3.53672	7.67089
3.53431	7.49079
3.5319	7.35114
3.5295	7.22137
3.5271	7.1009
3.5247	6.97351
3.52231	6.88241
3.51991	6.82351
3.51753	6.70457
3.51514	6.57158
3.51276	6.54493
3.51038	6.43947
3.50801	6.30672
3.50563	6.25171
3.50327	6.20731
3.5009	6.13048
3.49854	6.06055
3.49618	5.95908
3.49382	5.98919
3.49147	5.95223
3.48912	5.94265
3.48677	5.97166
3.48443	5.9069
3.48209	5.74128
3.47975	5.71892
