Name: Sandstone (Flagstone)
Type: Rock
Class: Sedimentary
Subclass:  Sandstone 
Particle Size: Solid surface
Sample No.: Ward61.txt
Owner: JPL
Wavelength range:  VNIR SWIR IR 
Origin: Ward's Collection of American Rocks.  Sample locality - near Masonville, Delaware County, New York.
Collected by:  Ward's Natural Science
Description: A very fine, brownish sandstone.  Quartz grains, mica flakes
and numerous specks of limonite are often apparent.
Geologic age - Middle Devonian.



Measurement: Hemispherical reflectance
First Column: X
Second Column: Y
X Units: Wavelength (micrometers)
Y Units: Reflectance (percent)
First X Value: 2.500
Last X Value: 0.400
Number of X Values: 2101
Additional information: None

2.500  14.712052
2.499  14.035556
2.498  14.766005
2.497  14.421079
2.496  14.373211
2.495  14.338084
2.494  14.510340
2.493  14.368955
2.492  14.503058
2.491  14.401657
2.490  14.586100
2.489  14.224820
2.488  14.466763
2.487  14.488826
2.486  14.607854
2.485  14.358445
2.484  14.525978
2.483  14.386466
2.482  14.722228
2.481  14.317174
2.480  14.686794
2.479  14.442111
2.478  14.657650
2.477  14.323169
2.476  14.719311
2.475  14.472539
2.474  14.486925
2.473  14.439059
2.472  14.420228
2.471  14.559673
2.470  14.582048
2.469  14.378849
2.468  14.558997
2.467  14.467036
2.466  14.649224
2.465  14.450639
2.464  14.581062
2.463  14.545512
2.462  14.592126
2.461  14.420346
2.460  14.693643
2.459  14.451787
2.458  14.602974
2.457  14.419041
2.456  14.538642
2.455  14.544141
2.454  14.503630
2.453  14.437653
2.452  14.675938
2.451  14.492573
2.450  14.552465
2.449  14.538796
2.448  14.579517
2.447  14.487374
2.446  14.611464
2.445  14.476178
2.444  14.562692
2.443  14.564003
2.442  14.619763
2.441  14.499653
2.440  14.587114
2.439  14.610955
2.438  14.709534
2.437  14.600479
2.436  14.713972
2.435  14.548197
2.434  14.562255
2.433  14.509858
2.432  14.625912
2.431  14.604107
2.430  14.756213
2.429  14.683032
2.428  14.761880
2.427  14.604198
2.426  14.780560
2.425  14.694778
2.424  14.821564
2.423  14.742256
2.422  14.810642
2.421  14.782243
2.420  14.902302
2.419  14.850936
2.418  14.890219
2.417  14.821606
2.416  14.951088
2.415  14.980911
2.414  15.014050
2.413  14.903873
2.412  14.929897
2.411  15.002884
2.410  15.090764
2.409  14.978736
2.408  15.079983
2.407  15.062827
2.406  15.121970
2.405  15.051207
2.404  15.104500
2.403  15.037923
2.402  15.094203
2.401  15.076175
2.400  15.145518
2.399  15.144944
2.398  15.137612
2.397  15.100520
2.396  15.183529
2.395  15.122582
2.394  15.179069
2.393  15.116529
2.392  15.162535
2.391  15.158273
2.390  15.124183
2.389  15.133194
2.388  15.211764
2.387  15.170965
2.386  15.152181
2.385  15.123540
2.384  15.167627
2.383  15.179595
2.382  15.151872
2.381  15.096998
2.380  15.194843
2.379  15.128964
2.378  15.162792
2.377  15.122411
2.376  15.109654
2.375  15.073311
2.374  15.046335
2.373  15.011996
2.372  15.021639
2.371  15.058762
2.370  15.079214
2.369  15.043202
2.368  15.052183
2.367  15.007148
2.366  15.021459
2.365  14.970486
2.364  14.976425
2.363  14.970450
2.362  14.925061
2.361  14.903894
2.360  14.908470
2.359  14.923335
2.358  14.941094
2.357  14.928261
2.356  14.938096
2.355  14.928048
2.354  14.918081
2.353  14.844183
2.352  14.829248
2.351  14.887605
2.350  14.840012
2.349  14.878466
2.348  14.860571
2.347  14.837576
2.346  14.914015
2.345  14.959181
2.344  14.931400
2.343  14.915388
2.342  14.946500
2.341  15.030206
2.340  15.015002
2.339  15.031963
2.338  15.060450
2.337  15.099456
2.336  15.090355
2.335  15.132513
2.334  15.089364
2.333  15.166721
2.332  15.227499
2.331  15.298467
2.330  15.289184
2.329  15.343625
2.328  15.351954
2.327  15.414239
2.326  15.401262
2.325  15.480747
2.324  15.500347
2.323  15.524929
2.322  15.547078
2.321  15.604298
2.320  15.609402
2.319  15.687687
2.318  15.644423
2.317  15.643584
2.316  15.651573
2.315  15.802461
2.314  15.761001
2.313  15.857444
2.312  15.805624
2.311  15.916472
2.310  15.890728
2.309  15.963887
2.308  15.925874
2.307  15.992010
2.306  16.000210
2.305  16.030786
2.304  16.091735
2.303  16.060390
2.302  16.028600
2.301  16.108453
2.300  16.096786
2.299  16.174505
2.298  16.142537
2.297  16.256566
2.296  16.169216
2.295  16.258364
2.294  16.149328
2.293  16.204655
2.292  16.242754
2.291  16.298202
2.290  16.196126
2.289  16.312552
2.288  16.229211
2.287  16.288880
2.286  16.324390
2.285  16.327130
2.284  16.193806
2.283  16.320489
2.282  16.203827
2.281  16.352974
2.280  16.251546
2.279  16.302069
2.278  16.295332
2.277  16.279678
2.276  16.230812
2.275  16.358007
2.274  16.224772
2.273  16.275969
2.272  16.207915
2.271  16.278435
2.270  16.183871
2.269  16.197266
2.268  16.129694
2.267  16.200208
2.266  16.104320
2.265  16.099744
2.264  16.111310
2.263  16.122177
2.262  16.124004
2.261  16.026675
2.260  15.999857
2.259  16.025916
2.258  15.988649
2.257  16.127645
2.256  15.971398
2.255  16.111404
2.254  15.939521
2.253  15.999927
2.252  16.004292
2.251  16.061703
2.250  16.018777
2.249  16.067999
2.248  16.054531
2.247  16.025222
2.246  16.020363
2.245  16.160078
2.244  16.029440
2.243  16.143853
2.242  15.990006
2.241  16.246479
2.240  16.068035
2.239  16.172519
2.238  16.164427
2.237  16.282455
2.236  16.076086
2.235  16.133004
2.234  16.100252
2.233  16.154760
2.232  16.013190
2.231  16.214265
2.230  15.983251
2.229  16.244489
2.228  15.900938
2.227  16.021455
2.226  16.006427
2.225  16.035854
2.224  15.902745
2.223  15.987292
2.222  15.855584
2.221  15.910634
2.220  15.878075
2.219  15.778075
2.218  15.841843
2.217  15.847440
2.216  15.666254
2.215  15.795958
2.214  15.705196
2.213  15.762148
2.212  15.778014
2.211  15.624716
2.210  15.656902
2.209  15.661322
2.208  15.646574
2.207  15.697341
2.206  15.539363
2.205  15.694679
2.204  15.627863
2.203  15.679402
2.202  15.658553
2.201  15.789032
2.200  15.737354
2.199  15.676236
2.198  15.684030
2.197  15.813225
2.196  15.723860
2.195  15.828878
2.194  15.908874
2.193  15.909114
2.192  15.937355
2.191  16.105464
2.190  16.005690
2.189  16.062456
2.188  16.152309
2.187  16.282181
2.186  16.258885
2.185  16.368116
2.184  16.383367
2.183  16.541180
2.182  16.489527
2.181  16.571221
2.180  16.531352
2.179  16.661087
2.178  16.603179
2.177  16.809818
2.176  16.769808
2.175  16.880424
2.174  16.814588
2.173  17.006492
2.172  16.902921
2.171  17.041898
2.170  16.984621
2.169  17.143543
2.168  17.143003
2.167  17.136491
2.166  17.134110
2.165  17.197351
2.164  17.207461
2.163  17.207144
2.162  17.232610
2.161  17.279677
2.160  17.263613
2.159  17.304410
2.158  17.265264
2.157  17.401207
2.156  17.303137
2.155  17.364796
2.154  17.289950
2.153  17.428328
2.152  17.342641
2.151  17.417447
2.150  17.436817
2.149  17.364813
2.148  17.358349
2.147  17.479377
2.146  17.375624
2.145  17.447230
2.144  17.417950
2.143  17.466153
2.142  17.431644
2.141  17.546086
2.140  17.400596
2.139  17.523716
2.138  17.449466
2.137  17.475199
2.136  17.413997
2.135  17.502586
2.134  17.440266
2.133  17.415331
2.132  17.458150
2.131  17.412743
2.130  17.369785
2.129  17.500484
2.128  17.354236
2.127  17.407540
2.126  17.365623
2.125  17.458435
2.124  17.361398
2.123  17.360402
2.122  17.327477
2.121  17.353386
2.120  17.331493
2.119  17.355030
2.118  17.317636
2.117  17.360464
2.116  17.303653
2.115  17.371399
2.114  17.301970
2.113  17.272227
2.112  17.250423
2.111  17.270527
2.110  17.252541
2.109  17.278108
2.108  17.202861
2.107  17.336091
2.106  17.344797
2.105  17.308297
2.104  17.221519
2.103  17.243970
2.102  17.297281
2.101  17.338364
2.100  17.248291
2.099  17.285935
2.098  17.256782
2.097  17.269459
2.096  17.293405
2.095  17.320899
2.094  17.311185
2.093  17.340289
2.092  17.290896
2.091  17.349998
2.090  17.345433
2.089  17.336792
2.088  17.334481
2.087  17.368122
2.086  17.346905
2.085  17.330793
2.084  17.373649
2.083  17.364240
2.082  17.310120
2.081  17.408871
2.080  17.400651
2.079  17.386942
2.078  17.431832
2.077  17.430404
2.076  17.478648
2.075  17.450077
2.074  17.414107
2.073  17.465213
2.072  17.461183
2.071  17.456465
2.070  17.424028
2.069  17.433524
2.068  17.430801
2.067  17.460068
2.066  17.481264
2.065  17.457493
2.064  17.452126
2.063  17.477585
2.062  17.510962
2.061  17.463883
2.060  17.487421
2.059  17.478110
2.058  17.499949
2.057  17.495614
2.056  17.493792
2.055  17.492075
2.054  17.474073
2.053  17.490661
2.052  17.539046
2.051  17.507315
2.050  17.533769
2.049  17.531928
2.048  17.527432
2.047  17.513530
2.046  17.513760
2.045  17.453160
2.044  17.485519
2.043  17.469592
2.042  17.486608
2.041  17.463292
2.040  17.539114
2.039  17.550146
2.038  17.541887
2.037  17.431123
2.036  17.524197
2.035  17.530981
2.034  17.503376
2.033  17.518521
2.032  17.549643
2.031  17.572415
2.030  17.666685
2.029  17.541732
2.028  17.498395
2.027  17.479636
2.026  17.513448
2.025  17.454999
2.024  17.537577
2.023  17.505586
2.022  17.554568
2.021  17.471109
2.020  17.556283
2.019  17.458351
2.018  17.547155
2.017  17.541267
2.016  17.508278
2.015  17.431889
2.014  17.469986
2.013  17.489767
2.012  17.499132
2.011  17.509632
2.010  17.536122
2.009  17.470231
2.008  17.529412
2.007  17.481996
2.006  17.567321
2.005  17.509640
2.004  17.504422
2.003  17.472435
2.002  17.462139
2.001  17.414032
2.000  17.601050
1.999  17.489066
1.998  17.502666
1.997  17.472291
1.996  17.524089
1.995  17.508802
1.994  17.567665
1.993  17.501788
1.992  17.553633
1.991  17.444366
1.990  17.546584
1.989  17.523478
1.988  17.535128
1.987  17.483533
1.986  17.527232
1.985  17.492438
1.984  17.502528
1.983  17.469899
1.982  17.583544
1.981  17.481816
1.980  17.600474
1.979  17.486866
1.978  17.645614
1.977  17.553662
1.976  17.618914
1.975  17.578369
1.974  17.689575
1.973  17.482556
1.972  17.661683
1.971  17.568424
1.970  17.646895
1.969  17.541999
1.968  17.696017
1.967  17.537122
1.966  17.678033
1.965  17.563009
1.964  17.643345
1.963  17.529042
1.962  17.595254
1.961  17.611644
1.960  17.605587
1.959  17.567514
1.958  17.673755
1.957  17.592420
1.956  17.684497
1.955  17.575118
1.954  17.678790
1.953  17.566743
1.952  17.713352
1.951  17.572649
1.950  17.713061
1.949  17.639357
1.948  17.743128
1.947  17.532091
1.946  17.724845
1.945  17.643005
1.944  17.685546
1.943  17.674133
1.942  17.822904
1.941  17.606234
1.940  17.790409
1.939  17.613605
1.938  17.683062
1.937  17.627999
1.936  17.902397
1.935  17.658384
1.934  17.723517
1.933  17.654384
1.932  17.724847
1.931  17.727726
1.930  17.773686
1.929  17.720617
1.928  17.783357
1.927  17.737894
1.926  17.601573
1.925  17.848051
1.924  17.822517
1.923  17.648423
1.922  17.768153
1.921  17.695065
1.920  17.809633
1.919  17.717659
1.918  17.731393
1.917  17.696486
1.916  17.777767
1.915  17.739123
1.914  17.715349
1.913  17.699938
1.912  17.822509
1.911  17.681058
1.910  17.874003
1.909  17.716320
1.908  17.803628
1.907  17.719706
1.906  17.891873
1.905  17.832816
1.904  17.914077
1.903  17.862770
1.902  17.935284
1.901  17.859134
1.900  17.999239
1.899  17.940836
1.898  18.003555
1.897  17.908721
1.896  18.106631
1.895  17.921166
1.894  18.006352
1.893  17.947606
1.892  18.147825
1.891  18.001719
1.890  18.168749
1.889  18.084069
1.888  18.132167
1.887  18.125138
1.886  18.170307
1.885  18.117247
1.884  18.201397
1.883  18.141703
1.882  18.195014
1.881  18.159663
1.880  18.274306
1.879  18.119887
1.878  18.314074
1.877  18.168621
1.876  18.278138
1.875  18.237746
1.874  18.328769
1.873  18.271174
1.872  18.297606
1.871  18.258785
1.870  18.294255
1.869  18.322327
1.868  18.339160
1.867  18.265148
1.866  18.341496
1.865  18.299323
1.864  18.314587
1.863  18.259302
1.862  18.347729
1.861  18.282917
1.860  18.350718
1.859  18.278342
1.858  18.327720
1.857  18.239985
1.856  18.347209
1.855  18.282266
1.854  18.441003
1.853  18.319087
1.852  18.285350
1.851  18.319512
1.850  18.386055
1.849  18.365613
1.848  18.438962
1.847  18.331992
1.846  18.385736
1.845  18.314068
1.844  18.409067
1.843  18.393661
1.842  18.403170
1.841  18.341728
1.840  18.448325
1.839  18.452256
1.838  18.415051
1.837  18.335899
1.836  18.359113
1.835  18.327318
1.834  18.354934
1.833  18.390953
1.832  18.442631
1.831  18.343915
1.830  18.421187
1.829  18.338740
1.828  18.385836
1.827  18.418354
1.826  18.386821
1.825  18.274681
1.824  18.344291
1.823  18.371496
1.822  18.394307
1.821  18.356477
1.820  18.343271
1.819  18.329801
1.818  18.402002
1.817  18.402927
1.816  18.369426
1.815  18.360711
1.814  18.419510
1.813  18.380162
1.812  18.394704
1.811  18.360543
1.810  18.371378
1.809  18.380891
1.808  18.375275
1.807  18.359639
1.806  18.382256
1.805  18.326894
1.804  18.366052
1.803  18.389295
1.802  18.408176
1.801  18.379845
1.800  18.432900
1.799  18.420963
1.798  18.369354
1.797  18.352502
1.796  18.429225
1.795  18.416470
1.794  18.357078
1.793  18.365143
1.792  18.428048
1.791  18.402029
1.790  18.320641
1.789  18.379084
1.788  18.429424
1.787  18.419494
1.786  18.400533
1.785  18.320293
1.784  18.322501
1.783  18.419795
1.782  18.397901
1.781  18.384439
1.780  18.403883
1.779  18.372994
1.778  18.413811
1.777  18.486019
1.776  18.443362
1.775  18.441706
1.774  18.440617
1.773  18.504267
1.772  18.470247
1.771  18.441144
1.770  18.467213
1.769  18.494463
1.768  18.497268
1.767  18.465749
1.766  18.413590
1.765  18.453818
1.764  18.507292
1.763  18.450058
1.762  18.451709
1.761  18.505616
1.760  18.476453
1.759  18.491246
1.758  18.471449
1.757  18.500604
1.756  18.446020
1.755  18.492236
1.754  18.490723
1.753  18.511732
1.752  18.459310
1.751  18.483289
1.750  18.471563
1.749  18.485270
1.748  18.461458
1.747  18.557090
1.746  18.489308
1.745  18.514256
1.744  18.460417
1.743  18.483131
1.742  18.509452
1.741  18.514550
1.740  18.501576
1.739  18.512606
1.738  18.496911
1.737  18.574949
1.736  18.488498
1.735  18.557981
1.734  18.479790
1.733  18.545564
1.732  18.544569
1.731  18.545255
1.730  18.549588
1.729  18.576946
1.728  18.507401
1.727  18.551062
1.726  18.563543
1.725  18.665839
1.724  18.594666
1.723  18.585073
1.722  18.458627
1.721  18.536446
1.720  18.524237
1.719  18.553022
1.718  18.506227
1.717  18.580286
1.716  18.579579
1.715  18.539895
1.714  18.484205
1.713  18.594518
1.712  18.491757
1.711  18.560151
1.710  18.472496
1.709  18.637598
1.708  18.533751
1.707  18.603218
1.706  18.548543
1.705  18.604449
1.704  18.459488
1.703  18.606454
1.702  18.479134
1.701  18.597188
1.700  18.500866
1.699  18.611458
1.698  18.492830
1.697  18.612631
1.696  18.463997
1.695  18.628823
1.694  18.548703
1.693  18.575146
1.692  18.430835
1.691  18.529420
1.690  18.462023
1.689  18.559884
1.688  18.499281
1.687  18.590820
1.686  18.451580
1.685  18.634233
1.684  18.462352
1.683  18.498373
1.682  18.490555
1.681  18.511803
1.680  18.474060
1.679  18.589448
1.678  18.452301
1.677  18.579675
1.676  18.477481
1.675  18.469312
1.674  18.518190
1.673  18.523095
1.672  18.404134
1.671  18.491459
1.670  18.391403
1.669  18.498051
1.668  18.296436
1.667  18.567125
1.666  18.315473
1.665  18.504489
1.664  18.404654
1.663  18.587327
1.662  18.393365
1.661  18.454775
1.660  18.361105
1.659  18.438615
1.658  18.328780
1.657  18.492765
1.656  18.396349
1.655  18.496036
1.654  18.446541
1.653  18.461085
1.652  18.382096
1.651  18.466803
1.650  18.376399
1.649  18.459295
1.648  18.373599
1.647  18.415831
1.646  18.352874
1.645  18.543138
1.644  18.307576
1.643  18.557397
1.642  18.527602
1.641  18.320199
1.640  18.427500
1.639  18.436960
1.638  18.397484
1.637  18.465313
1.636  18.391427
1.635  18.354845
1.634  18.414681
1.633  18.451713
1.632  18.337261
1.631  18.469441
1.630  18.358218
1.629  18.381326
1.628  18.384822
1.627  18.418697
1.626  18.342128
1.625  18.480608
1.624  18.363274
1.623  18.502151
1.622  18.342485
1.621  18.409415
1.620  18.400252
1.619  18.428282
1.618  18.348274
1.617  18.390238
1.616  18.400802
1.615  18.399097
1.614  18.350639
1.613  18.431178
1.612  18.415770
1.611  18.475526
1.610  18.373871
1.609  18.457890
1.608  18.379120
1.607  18.364827
1.606  18.317138
1.605  18.349242
1.604  18.363855
1.603  18.436733
1.602  18.351796
1.601  18.426605
1.600  18.319340
1.599  18.409073
1.598  18.304514
1.597  18.324198
1.596  18.325448
1.595  18.356001
1.594  18.299487
1.593  18.364455
1.592  18.292769
1.591  18.322834
1.590  18.350970
1.589  18.323104
1.588  18.287117
1.587  18.348395
1.586  18.312414
1.585  18.325481
1.584  18.273888
1.583  18.301987
1.582  18.239497
1.581  18.340696
1.580  18.212561
1.579  18.336337
1.578  18.257260
1.577  18.352852
1.576  18.247936
1.575  18.361366
1.574  18.255628
1.573  18.354321
1.572  18.246825
1.571  18.346085
1.570  18.250119
1.569  18.271360
1.568  18.221357
1.567  18.302300
1.566  18.208947
1.565  18.317910
1.564  18.287653
1.563  18.324352
1.562  18.286301
1.561  18.310702
1.560  18.280792
1.559  18.329186
1.558  18.254750
1.557  18.282502
1.556  18.239762
1.555  18.249085
1.554  18.218788
1.553  18.198000
1.552  18.245309
1.551  18.326356
1.550  18.240830
1.549  18.302162
1.548  18.263030
1.547  18.322032
1.546  18.219046
1.545  18.244558
1.544  18.256699
1.543  18.269925
1.542  18.239724
1.541  18.245638
1.540  18.231665
1.539  18.240022
1.538  18.247898
1.537  18.269301
1.536  18.248798
1.535  18.235962
1.534  18.231063
1.533  18.236630
1.532  18.161930
1.531  18.188121
1.530  18.241068
1.529  18.242248
1.528  18.200069
1.527  18.207696
1.526  18.170641
1.525  18.239105
1.524  18.184171
1.523  18.215639
1.522  18.191954
1.521  18.222835
1.520  18.212430
1.519  18.194635
1.518  18.202892
1.517  18.227622
1.516  18.240559
1.515  18.243317
1.514  18.194929
1.513  18.197360
1.512  18.200257
1.511  18.246279
1.510  18.180850
1.509  18.126424
1.508  18.135387
1.507  18.160283
1.506  18.180756
1.505  18.177311
1.504  18.206263
1.503  18.232778
1.502  18.117916
1.501  18.149223
1.500  18.184664
1.499  18.123497
1.498  18.140558
1.497  18.123048
1.496  18.096026
1.495  18.097443
1.494  18.168145
1.493  18.217647
1.492  18.152432
1.491  18.089743
1.490  18.123436
1.489  18.135290
1.488  18.108521
1.487  18.108515
1.486  18.174404
1.485  18.165409
1.484  18.143878
1.483  18.155088
1.482  18.159927
1.481  18.051571
1.480  18.028307
1.479  18.060353
1.478  18.150345
1.477  18.123690
1.476  18.087499
1.475  18.042451
1.474  18.084492
1.473  18.052513
1.472  18.088010
1.471  18.022446
1.470  18.032997
1.469  18.072182
1.468  18.108177
1.467  18.072322
1.466  18.064852
1.465  18.045612
1.464  18.091351
1.463  18.077187
1.462  18.028053
1.461  17.989002
1.460  18.045152
1.459  17.984518
1.458  18.034959
1.457  18.017358
1.456  18.017190
1.455  17.972060
1.454  18.006998
1.453  17.913965
1.452  17.970878
1.451  17.955540
1.450  17.989222
1.449  17.942475
1.448  17.996304
1.447  17.929344
1.446  17.961739
1.445  17.882841
1.444  17.952262
1.443  17.905024
1.442  17.983966
1.441  17.964414
1.440  17.955853
1.439  17.863171
1.438  17.911484
1.437  17.893691
1.436  17.871404
1.435  17.866428
1.434  17.912662
1.433  17.811331
1.432  17.848690
