Name: Porphyritic Biotite Granite
Type: Rock
Class: Igneous
Subclass:  Felsic 
Particle Size: Solid surface
Sample No.: Ward10.txt
Owner: JPL
Wavelength range:  IR 
Origin: Ward's Collection of American Rocks.  Sample locality - St. Cloud, Stearns County, Minnesota.
Collected by:  Ward's Natural Science
Description: The rock is a very coarse grained granite with large pale
pink feldspar crystals that provide the porphyritic characters.  Small
gray feldspar, quartz and biotite are readily recoginized.
Geologic age - Post-Archean (probably Keweenawan).


Measurement: Hemispherical reflectance
First Column: X
Second Column: Y
X Units: Wavelength (micrometers)
Y Units: Reflectance (percent)
First X Value: 15.3871
Last X Value: 1.9998
Number of X Values: 2257
Additional information: None

15.3871   7.17426
15.3416   6.94577
15.2964   6.35542
15.2514   5.87959
15.2066   5.57869
15.1622   5.03912
15.1180   4.65752
15.0740   4.82976
15.0303   4.99532
14.9869   4.76014
14.9437   4.72857
14.9008   5.14343
14.8581   5.05616
14.8156   4.84174
14.7734   5.03147
14.7314   5.39556
14.6897   5.26232
14.6482   5.40377
14.6069   5.85836
14.5659   5.83777
14.5251   5.69348
14.4845   5.99885
14.4442   6.24607
14.4041   6.28249
14.3642   5.99253
14.3245   5.52625
14.2850   5.34887
14.2458   5.35730
14.2068   5.44818
14.1679   5.75635
14.1293   6.00522
14.0909   6.29059
14.0528   6.43363
14.0148   6.33817
13.9770   6.34625
13.9394   6.54259
13.9021   6.60662
13.8649   6.73878
13.8279   6.71241
13.7911   6.66619
13.7546   6.77776
13.7182   6.88716
13.6820   6.79153
13.6460   6.76983
13.6101   6.97727
13.5745   7.06764
13.5391   7.04817
13.5038   7.09088
13.4687   7.43651
13.4339   7.69181
13.3991   7.39838
13.3646   7.31301
13.3302   7.42287
13.2961   7.60009
13.2621   7.71284
13.2282   7.78386
13.1946   7.85900
13.1611   7.95361
13.1278   7.98142
13.0946   8.12121
13.0616   8.52865
13.0288   8.82992
12.9962   9.01105
12.9637   9.30869
12.9313   9.83638
12.8992  10.59910
12.8672  11.41620
12.8353  11.94930
12.8036  12.15900
12.7721  11.89330
12.7407  11.26520
12.7095  10.27410
12.6784   9.29471
12.6475   8.70701
12.6167   8.72043
12.5861   9.02237
12.5556   9.65188
12.5253  10.12950
12.4951  10.23300
12.4651   9.94575
12.4352   9.29227
12.4054   8.14587
12.3758   6.52138
12.3463   5.29869
12.3170   4.74337
12.2878   4.46484
12.2588   4.47490
12.2299   4.81276
12.2011   5.18362
12.1725   5.44220
12.1439   5.58388
12.1156   5.72664
12.0873   6.06640
12.0592   6.31275
12.0312   6.45978
12.0034   6.59151
11.9757   6.50729
11.9481   6.59813
11.9206   6.86202
11.8933   7.12852
11.8661   7.33551
11.8390   7.48171
11.8120   7.57928
11.7852   7.78466
11.7584   7.90102
11.7318   7.95422
11.7053   8.08000
11.6790   8.25530
11.6527   8.38005
11.6266   8.44963
11.6006   8.47051
11.5747   8.54422
11.5489   8.64702
11.5233   8.71115
11.4977   8.88184
11.4723   9.03569
11.4469   9.18632
11.4217   9.31142
11.3966   9.34954
11.3716   9.49993
11.3468   9.70647
11.3220   9.79069
11.2973   9.91751
11.2728  10.00360
11.2483  10.09340
11.2240  10.20180
11.1997  10.34850
11.1756  10.41150
11.1515  10.49310
11.1276  10.72880
11.1038  10.89720
11.0801  11.10120
11.0564  11.30660
11.0329  11.35000
11.0095  11.53920
10.9862  11.71700
10.9629  11.80160
10.9398  11.96440
10.9168  12.20760
10.8938  12.43570
10.8710  12.58540
10.8483  12.70120
10.8256  12.77800
10.8031  12.90730
10.7806  12.95980
10.7582  13.12360
10.7360  13.40260
10.7138  13.66790
10.6917  13.83970
10.6697  13.97390
10.6478  14.08100
10.6260  14.22490
10.6042  14.44260
10.5826  14.74420
10.5610  14.93350
10.5396  14.95540
10.5182  14.97440
10.4969  15.05150
10.4757  15.24490
10.4546  15.51560
10.4335  15.71510
10.4126  15.87580
10.3917  16.06460
10.3709  16.25000
10.3502  16.57750
10.3296  16.94230
10.3091  17.16310
10.2886  17.33790
10.2683  17.58460
10.2480  18.03180
10.2277  18.39120
10.2076  18.69700
10.1876  19.19830
10.1676  19.66900
10.1477  20.02060
10.1279  20.34520
10.1081  20.67690
10.0885  21.08100
10.0689  21.48680
10.0494  21.81580
10.0299  22.17110
10.0106  22.61630
 9.9913  22.99890
 9.9720  23.43030
 9.9529  23.84920
 9.9338  24.07010
 9.9148  24.13310
 9.8959  24.31390
 9.8771  24.69920
 9.8583  24.90960
 9.8396  24.87510
 9.8210  24.78840
 9.8024  24.62060
 9.7839  24.69970
 9.7655  24.93970
 9.7471  25.27260
 9.7288  25.55470
 9.7106  25.55710
 9.6925  25.68230
 9.6744  25.83210
 9.6564  25.85690
 9.6384  26.12250
 9.6205  26.36530
 9.6027  26.57340
 9.5850  26.76380
 9.5673  26.77110
 9.5497  26.73550
 9.5321  26.90720
 9.5146  27.13750
 9.4972  27.38170
 9.4798  27.62030
 9.4625  27.88190
 9.4453  28.36030
 9.4281  28.97430
 9.4110  29.78100
 9.3940  30.89660
 9.3770  32.07080
 9.3600  33.08230
 9.3432  34.05880
 9.3264  35.01170
 9.3096  35.66970
 9.2930  36.10940
 9.2763  36.33350
 9.2598  36.39370
 9.2432  36.29500
 9.2268  36.13030
 9.2104  36.16660
 9.1941  36.07650
 9.1778  36.06580
 9.1616  36.06950
 9.1454  35.92210
 9.1293  35.88740
 9.1133  35.83450
 9.0973  35.70580
 9.0814  35.69610
 9.0655  35.52500
 9.0497  35.32970
 9.0339  35.35420
 9.0182  35.39590
 9.0025  35.30210
 8.9870  35.31740
 8.9714  35.34450
 8.9559  35.45620
 8.9405  35.66360
 8.9251  35.82120
 8.9097  35.85390
 8.8945  35.88150
 8.8792  35.91990
 8.8641  36.01290
 8.8489  36.17000
 8.8338  36.30150
 8.8188  36.20500
 8.8039  36.11960
 8.7889  36.13300
 8.7741  36.00800
 8.7592  35.78070
 8.7445  35.69890
 8.7297  35.50110
 8.7151  35.11650
 8.7005  34.62470
 8.6859  33.88580
 8.6714  32.70600
 8.6569  31.13370
 8.6425  29.50920
 8.6281  28.89760
 8.6137  29.91640
 8.5994  31.70770
 8.5852  33.33560
 8.5710  34.31850
 8.5569  34.94070
 8.5428  35.33750
 8.5287  35.46420
 8.5147  35.61800
 8.5008  35.68260
 8.4869  35.71290
 8.4730  35.71750
 8.4592  35.53380
 8.4454  35.31950
 8.4316  35.20900
 8.4180  35.02150
 8.4043  34.72250
 8.3907  34.43430
 8.3772  34.26640
 8.3637  33.99960
 8.3502  33.56380
 8.3368  33.05000
 8.3234  32.66330
 8.3100  32.12420
 8.2967  31.48240
 8.2835  30.95360
 8.2703  30.34950
 8.2571  29.49230
 8.2440  28.67960
 8.2309  27.83150
 8.2179  26.91400
 8.2049  26.24520
 8.1919  25.53160
 8.1790  24.37910
 8.1661  23.01340
 8.1532  21.67460
 8.1404  20.27060
 8.1277  18.67240
 8.1150  17.15460
 8.1023  15.80820
 8.0897  14.50800
 8.0770  13.27820
 8.0645  12.10040
 8.0520  11.11240
 8.0395  10.21820
 8.0270   9.32721
 8.0146   8.57975
 8.0023   7.89534
 7.9899   7.25719
 7.9776   6.63643
 7.9654   6.04837
 7.9532   5.60079
 7.9410   5.12036
 7.9288   4.63959
 7.9167   4.20645
 7.9047   3.85636
 7.8926   3.62420
 7.8807   3.38659
 7.8687   3.14125
 7.8568   2.91149
 7.8449   2.76154
 7.8330   2.64338
 7.8212   2.48427
 7.8094   2.30833
 7.7977   2.19385
 7.7860   2.08670
 7.7743   2.03635
 7.7627   2.00906
 7.7511   1.90059
 7.7395   1.70486
 7.7280   1.52688
 7.7165   1.58209
 7.7050   1.61014
 7.6936   1.49361
 7.6822   1.32291
 7.6708   1.30378
 7.6595   1.34600
 7.6482   1.33737
 7.6369   1.26677
 7.6257   1.23255
 7.6145   1.15209
 7.6033   1.12444
 7.5922   1.17863
 7.5811   1.16896
 7.5700   1.10307
 7.5590   1.04646
 7.5480   1.07966
 7.5370   1.11035
 7.5261   1.01136
 7.5152   0.89507
 7.5043   0.94443
 7.4935   1.09269
 7.4826   1.11440
 7.4718   1.15238
 7.4611   1.22837
 7.4504   1.31421
 7.4397   1.24278
 7.4290   1.15893
 7.4184   1.09636
 7.4078   1.05859
 7.3972   1.12799
 7.3867   1.19082
 7.3762   1.22010
 7.3657   1.27906
 7.3553   1.22202
 7.3449   1.17303
 7.3345   1.15925
 7.3241   1.15531
 7.3138   1.18067
 7.3035   1.28403
 7.2932   1.31655
 7.2830   1.25083
 7.2727   1.22036
 7.2626   1.33968
 7.2524   1.39564
 7.2423   1.33024
 7.2322   1.35479
 7.2221   1.36450
 7.2120   1.44124
 7.2020   1.52149
 7.1921   1.45681
 7.1821   1.43511
 7.1722   1.43290
 7.1623   1.46767
 7.1524   1.50966
 7.1425   1.53757
 7.1327   1.57623
 7.1229   1.53605
 7.1131   1.52880
 7.1034   1.62254
 7.0937   1.75149
 7.0840   1.76171
 7.0743   1.73162
 7.0647   1.83810
 7.0551   1.91156
 7.0455   1.80996
 7.0359   1.81306
 7.0264   1.87989
 7.0169   1.93231
 7.0074   1.94390
 6.9979   1.97875
 6.9885   1.95832
 6.9791   1.95146
 6.9697   1.90230
 6.9604   1.87985
 6.9510   1.94362
 6.9417   2.01060
 6.9324   2.01418
 6.9232   2.03954
 6.9140   2.04907
 6.9047   2.11890
 6.8956   2.14204
 6.8864   2.09698
 6.8773   1.99393
 6.8682   1.95188
 6.8591   2.05275
 6.8500   2.15119
 6.8410   2.19298
 6.8320   2.16701
 6.8230   2.07682
 6.8140   2.06808
 6.8051   2.20950
 6.7962   2.22930
 6.7873   2.17996
 6.7784   2.23221
 6.7695   2.32059
 6.7607   2.32664
 6.7519   2.30471
 6.7431   2.28773
 6.7344   2.24372
 6.7256   2.26271
 6.7169   2.28000
 6.7082   2.29694
 6.6996   2.31317
 6.6909   2.30653
 6.6823   2.34563
 6.6737   2.35130
 6.6651   2.36626
 6.6566   2.39550
 6.6480   2.46087
 6.6395   2.52637
 6.6310   2.51226
 6.6226   2.58728
 6.6141   2.59764
 6.6057   2.54972
 6.5973   2.49152
 6.5889   2.46039
 6.5805   2.48933
 6.5722   2.57341
 6.5639   2.56532
 6.5556   2.59089
 6.5473   2.58369
 6.5390   2.54281
 6.5308   2.56082
 6.5226   2.58331
 6.5144   2.58856
 6.5062   2.63758
 6.4981   2.67641
 6.4900   2.68418
 6.4818   2.72818
 6.4737   2.77941
 6.4657   2.65696
 6.4576   2.50945
 6.4496   2.60474
 6.4416   2.74126
 6.4336   2.70754
 6.4256   2.66715
 6.4177   2.77668
 6.4097   2.85885
 6.4018   2.85233
 6.3939   2.80214
 6.3860   2.71970
 6.3782   2.79253
 6.3704   2.93475
 6.3625   2.86996
 6.3547   2.82618
 6.3470   2.85141
 6.3392   2.83401
 6.3315   2.81607
 6.3237   2.81847
 6.3160   2.80801
 6.3083   2.80408
 6.3007   2.75842
 6.2930   2.71007
 6.2854   2.76850
 6.2778   2.87859
 6.2702   2.84478
 6.2626   2.73532
 6.2551   2.68020
 6.2476   2.73717
 6.2400   2.74614
 6.2325   2.73370
 6.2251   2.72956
 6.2176   2.72057
 6.2101   2.75996
 6.2027   2.76708
 6.1953   2.74108
 6.1879   2.79944
 6.1805   2.86542
 6.1732   2.89506
 6.1658   2.93656
 6.1585   2.90954
 6.1512   2.98386
 6.1439   2.95656
 6.1367   2.80199
 6.1294   2.86255
 6.1222   2.96797
 6.1149   3.05115
 6.1077   3.04849
 6.1006   3.05251
 6.0934   3.16957
 6.0862   3.16330
 6.0791   3.11626
 6.0720   3.15870
 6.0649   3.05763
 6.0578   3.00711
 6.0507   3.17536
 6.0437   3.28535
 6.0366   3.19781
 6.0296   3.11077
 6.0226   3.12339
 6.0156   3.13571
 6.0087   3.07968
 6.0017   3.04063
 5.9948   3.08603
 5.9878   3.10268
 5.9809   3.15839
 5.9740   3.24465
 5.9672   3.21464
 5.9603   3.08427
 5.9535   3.08093
 5.9466   3.15330
 5.9398   3.29382
 5.9330   3.33709
 5.9262   3.19843
 5.9195   3.14722
 5.9127   3.18730
 5.9060   3.24136
 5.8993   3.26175
 5.8926   3.33012
 5.8859   3.39988
 5.8792   3.37661
 5.8726   3.30601
 5.8659   3.24514
 5.8593   3.23716
 5.8527   3.27544
 5.8461   3.27929
 5.8395   3.29625
 5.8329   3.36187
 5.8264   3.41004
 5.8198   3.41399
 5.8133   3.41366
 5.8068   3.40503
 5.8003   3.39321
 5.7938   3.36374
 5.7874   3.33999
 5.7809   3.40379
 5.7745   3.49856
 5.7680   3.47582
 5.7616   3.42686
 5.7552   3.51196
 5.7489   3.59627
 5.7425   3.56229
 5.7361   3.53327
 5.7298   3.57521
 5.7235   3.62010
 5.7172   3.58325
 5.7109   3.56567
 5.7046   3.56677
 5.6983   3.58577
 5.6921   3.58359
 5.6858   3.55876
 5.6796   3.61482
 5.6734   3.66379
 5.6672   3.63623
 5.6610   3.61969
 5.6548   3.65789
 5.6487   3.65255
 5.6425   3.64418
 5.6364   3.55585
 5.6303   3.56877
 5.6242   3.65907
 5.6181   3.64393
 5.6120   3.66125
 5.6059   3.68589
 5.5999   3.67239
 5.5938   3.65730
 5.5878   3.64510
 5.5818   3.69177
 5.5758   3.68665
 5.5698   3.68868
 5.5638   3.73735
 5.5578   3.80352
 5.5519   3.81770
 5.5460   3.77334
 5.5400   3.76222
 5.5341   3.79109
 5.5282   3.92843
 5.5223   3.91995
 5.5164   3.93376
 5.5106   4.06766
 5.5047   4.09305
 5.4989   4.00445
 5.4931   3.95915
 5.4873   3.99213
 5.4815   4.04482
 5.4757   4.09679
 5.4699   4.17282
 5.4641   4.15065
 5.4584   4.09860
 5.4527   4.07956
 5.4469   4.15206
 5.4412   4.16140
 5.4355   4.14914
 5.4298   4.23645
 5.4241   4.28751
 5.4185   4.23867
 5.4128   4.19306
 5.4072   4.20165
 5.4015   4.26429
 5.3959   4.25398
 5.3903   4.20166
 5.3847   4.17560
 5.3791   4.20886
 5.3735   4.21863
 5.3680   4.22071
 5.3624   4.23926
 5.3569   4.23143
 5.3514   4.24977
 5.3458   4.27449
 5.3403   4.30749
 5.3348   4.26544
 5.3294   4.26990
 5.3239   4.28278
 5.3184   4.23128
 5.3130   4.27066
 5.3075   4.25766
 5.3021   4.27359
 5.2967   4.27127
 5.2913   4.19931
 5.2859   4.27638
 5.2805   4.39568
 5.2751   4.45480
 5.2698   4.45158
 5.2644   4.41440
 5.2591   4.42007
 5.2538   4.46978
 5.2485   4.54389
 5.2431   4.53238
 5.2378   4.49910
 5.2326   4.52152
 5.2273   4.51725
 5.2220   4.56381
 5.2168   4.65719
 5.2115   4.77961
 5.2063   4.74344
 5.2011   4.68227
 5.1959   4.72146
 5.1907   4.76863
 5.1855   4.76974
 5.1803   4.71837
 5.1751   4.73970
 5.1700   4.79767
 5.1648   4.75440
 5.1597   4.78707
 5.1545   4.82398
 5.1494   4.84865
 5.1443   4.89113
 5.1392   4.92481
 5.1341   5.02281
 5.1291   5.01062
 5.1240   4.98314
 5.1189   5.00781
 5.1139   5.00034
 5.1088   5.01734
 5.1038   5.13702
 5.0988   5.08415
 5.0938   4.99953
 5.0888   5.03697
 5.0838   5.09944
 5.0788   5.06004
 5.0738   5.09455
 5.0689   5.17159
 5.0639   5.10691
 5.0590   5.15722
 5.0541   5.17202
 5.0491   5.10515
 5.0442   5.14090
 5.0393   5.18493
 5.0344   5.19991
 5.0296   5.22803
 5.0247   5.24038
 5.0198   5.23905
 5.0150   5.27067
 5.0101   5.34421
 5.0053   5.35051
 5.0004   5.31486
 4.9956   5.31859
 4.9908   5.32674
 4.9860   5.33787
 4.9812   5.42033
 4.9765   5.45959
 4.9717   5.37158
 4.9669   5.36792
 4.9622   5.50613
 4.9574   5.57891
 4.9527   5.57328
 4.9480   5.56950
 4.9432   5.56501
 4.9385   5.60869
 4.9338   5.65022
 4.9291   5.70032
 4.9245   5.69530
 4.9198   5.62457
 4.9151   5.69357
 4.9105   5.82041
 4.9058   5.91729
 4.9012   6.00542
 4.8966   6.02118
 4.8919   5.95885
 4.8873   6.01465
 4.8827   6.17641
 4.8781   6.26384
 4.8736   6.26593
 4.8690   6.30809
 4.8644   6.28493
 4.8599   6.30466
 4.8553   6.38225
 4.8508   6.41244
 4.8462   6.40690
 4.8417   6.47641
 4.8372   6.52103
 4.8327   6.61057
 4.8282   6.63353
 4.8237   6.67619
 4.8192   6.73002
 4.8147   6.78776
 4.8103   6.80687
 4.8058   6.87908
 4.8014   6.98241
 4.7969   6.91227
 4.7925   6.77730
 4.7881   6.76092
 4.7836   6.82017
 4.7792   6.86390
 4.7748   6.96509
 4.7704   7.00853
 4.7660   7.08653
 4.7617   7.15381
 4.7573   7.17534
 4.7530   7.08966
 4.7486   7.15281
 4.7443   7.32281
 4.7399   7.29068
 4.7356   7.20687
 4.7313   7.25187
 4.7270   7.28788
 4.7226   7.29516
 4.7184   7.34947
 4.7141   7.22526
 4.7098   7.17507
 4.7055   7.20292
 4.7012   7.18740
 4.6970   7.14874
 4.6927   7.21884
 4.6885   7.29858
 4.6842   7.21142
 4.6800   7.14338
 4.6758   7.21301
 4.6716   7.33085
 4.6674   7.46317
 4.6632   7.54031
 4.6590   7.50471
 4.6548   7.51870
 4.6506   7.62600
 4.6465   7.73584
 4.6423   7.83921
 4.6382   7.87471
 4.6340   7.88455
 4.6299   7.85996
 4.6258   7.91133
 4.6216   8.04625
 4.6175   8.13699
 4.6134   8.12026
 4.6093   8.13396
 4.6052   8.30686
 4.6011   8.45974
 4.5971   8.50524
 4.5930   8.47043
 4.5889   8.47307
 4.5849   8.55036
 4.5808   8.55481
 4.5768   8.54369
 4.5727   8.56764
 4.5687   8.66074
 4.5647   8.75279
 4.5607   8.79978
 4.5567   8.75994
 4.5526   8.70950
 4.5487   8.74893
 4.5447   8.75274
 4.5407   8.71796
 4.5367   8.78292
 4.5328   8.81754
 4.5288   8.76656
 4.5248   8.70106
 4.5209   8.61680
 4.5170   8.59903
 4.5130   8.59957
 4.5091   8.60739
 4.5052   8.62749
 4.5013   8.63048
 4.4974   8.61328
 4.4935   8.63580
 4.4896   8.68899
 4.4857   8.66414
 4.4818   8.60673
 4.4779   8.52058
 4.4741   8.61226
 4.4702   8.70724
 4.4664   8.68606
 4.4625   8.80459
 4.4587   8.93774
 4.4549   9.00431
 4.4510   9.05577
 4.4472   9.05320
 4.4434   9.19441
 4.4396   9.26795
 4.4358   9.15081
 4.4320   9.12415
 4.4282   9.33665
 4.4245   9.47871
 4.4207   9.50434
 4.4169   9.50581
 4.4132   9.53529
 4.4094   9.66061
 4.4057   9.73574
 4.4019   9.79775
 4.3982   9.90947
 4.3945  10.05680
 4.3907  10.06250
 4.3870  10.07800
 4.3833  10.20960
 4.3796  10.30040
 4.3759  10.42910
 4.3722  10.60220
 4.3685  10.69600
 4.3649  10.71920
 4.3612  10.77150
 4.3575  10.89620
 4.3539  10.96280
 4.3502  11.09250
 4.3466  11.27580
 4.3429  11.44270
 4.3393  11.51180
 4.3357  11.53360
 4.3320  11.52740
 4.3284  11.60310
 4.3248  11.70110
 4.3212  11.70110
 4.3176  11.75770
 4.3140  11.84770
 4.3105  11.82810
 4.3069  11.74770
 4.3033  11.80660
 4.2997  11.93750
 4.2962  12.00660
 4.2926  12.01480
 4.2890  12.11880
 4.2855  12.16880
 4.2820  12.26050
 4.2784  12.32040
 4.2749  12.24030
 4.2714  12.22130
 4.2679  12.36810
 4.2644  12.41980
 4.2609  12.50660
 4.2574  12.64210
 4.2539  12.71610
 4.2504  12.76480
 4.2469  12.81690
 4.2434  12.98410
 4.2400  13.07300
 4.2365  13.04590
 4.2330  13.13490
 4.2296  13.24940
 4.2261  13.36060
 4.2227  13.41650
 4.2193  13.51250
 4.2158  13.53220
 4.2124  13.52880
 4.2090  13.66160
 4.2056  13.79560
 4.2022  13.78660
 4.1988  13.77570
 4.1954  13.89100
 4.1920  13.97510
 4.1886  13.97080
 4.1852  13.94700
 4.1818  13.98570
 4.1785  14.15160
 4.1751  14.31400
 4.1717  14.39920
 4.1684  14.39140
 4.1650  14.44370
 4.1617  14.45540
 4.1584  14.48910
 4.1550  14.58150
 4.1517  14.58950
 4.1484  14.66480
 4.1451  14.72480
 4.1418  14.80140
 4.1384  14.89890
 4.1351  14.88450
 4.1319  14.87880
 4.1286  14.97250
 4.1253  15.00100
 4.1220  15.05160
 4.1187  15.15440
 4.1155  15.13640
 4.1122  15.22040
 4.1089  15.31230
 4.1057  15.36070
 4.1024  15.51610
 4.0992  15.52980
 4.0959  15.57230
 4.0927  15.70840
 4.0895  15.82170
 4.0863  15.86580
 4.0830  15.75850
 4.0798  15.66540
 4.0766  15.84970
 4.0734  16.04410
 4.0702  16.03360
 4.0670  15.84930
 4.0639  15.81540
 4.0607  15.94380
 4.0575  16.04190
 4.0543  15.96360
 4.0511  15.96600
 4.0480  15.96090
 4.0448  15.87610
 4.0417  15.91050
 4.0385  15.95900
 4.0354  15.96200
 4.0323  15.88120
 4.0291  15.77860
 4.0260  15.86090
 4.0229  15.95330
 4.0197  15.96040
 4.0166  15.91020
 4.0135  15.88030
 4.0104  15.87910
 4.0073  15.77950
 4.0042  15.75100
 4.0011  15.67800
 3.9981  15.66730
 3.9950  15.65590
 3.9919  15.59500
 3.9888  15.65380
 3.9857  15.64690
 3.9827  15.56070
 3.9796  15.63020
 3.9766  15.65180
 3.9735  15.57270
 3.9705  15.53200
 3.9675  15.59180
 3.9644  15.74970
 3.9614  15.89760
 3.9584  16.05020
 3.9554  16.12360
 3.9523  16.23790
 3.9493  16.36300
 3.9463  16.45310
 3.9433  16.66220
 3.9403  16.73880
 3.9373  16.70860
 3.9343  16.74810
 3.9314  16.76070
 3.9284  16.77850
 3.9254  16.91360
 3.9224  17.01880
 3.9195  16.93700
 3.9165  16.87360
 3.9136  17.00500
 3.9106  17.16830
 3.9077  17.14600
 3.9047  17.20280
 3.9018  17.29640
 3.8988  17.14210
 3.8959  17.04410
 3.8930  17.08410
 3.8901  17.09250
 3.8872  16.98110
 3.8842  16.97710
 3.8813  17.16340
 3.8784  17.24080
 3.8755  17.19380
 3.8726  17.10370
 3.8697  17.02730
 3.8669  16.90260
 3.8640  16.83270
 3.8611  16.94030
 3.8582  16.98120
 3.8554  17.02420
