Name: Calcite CaCO_3
Type: Mineral
Class: Carbonates
Subclass: 
Particle Size: 45-125um
Sample No.: C-3E
Owner: JPL
Wavelength range: IR
Origin: 
Collected by JPL
Description: 





Measurement: Hemispherical reflectance
First Column: X
Second Column: Y
X Units:  Wavelength (micrometers)
Y Units:  Reflectance (percent)
First X Value: 15.3853
Last X Value: 2.00032
Number of X Values: 2256
Additional information: c03ea.txt
 
15.3853	20.4282
15.3397	21.08
15.2945	21.5956
15.2495	22.2168
15.2048	22.7038
15.1603	23.0683
15.1161	23.3167
15.0722	23.7602
15.0285	24.1608
14.9851	24.3613
14.9419	24.9276
14.8989	25.634
14.8563	26.0308
14.8138	26.2001
14.7716	26.3372
14.7296	26.3371
14.6879	26.1148
14.6464	25.7348
14.6052	25.4745
14.5641	24.842
14.5233	23.7807
14.4828	22.2739
14.4424	20.1687
14.4023	18.365
14.3624	16.9754
14.3227	14.7003
14.2833	12.2753
14.244	10.2
14.205	7.71378
14.1662	5.6094
14.1276	4.06799
14.0892	3.71367
14.051	3.92564
14.0131	2.8914
13.9753	1.69
13.9377	2.05924
13.9004	3.58283
13.8632	6.36361
13.8262	9.98028
13.7895	13.436
13.7529	16.4468
13.7165	19.1857
13.6803	21.6378
13.6443	23.8654
13.6085	25.9193
13.5729	27.7419
13.5374	29.0904
13.5022	30.322
13.4671	31.2049
13.4322	31.8968
13.3975	32.2734
13.363	32.4413
13.3286	32.3552
13.2944	31.8678
13.2604	31.3526
13.2266	30.7556
13.193	29.9497
13.1595	28.8406
13.1262	27.4008
13.093	25.9556
13.06	24.6278
13.0272	23.3143
12.9946	22.0292
12.9621	21.0934
12.9298	20.515
12.8976	20.392
12.8656	20.512
12.8337	20.4317
12.8021	20.1813
12.7705	20.0982
12.7391	20.1987
12.7079	20.5588
12.6769	21.1308
12.6459	21.6526
12.6152	22.1466
12.5845	22.6152
12.5541	22.9105
12.5238	22.8824
12.4936	23.1733
12.4635	23.6838
12.4337	24.0795
12.4039	24.3562
12.3743	24.283
12.3448	23.9723
12.3155	23.8508
12.2863	24.0127
12.2573	24.4037
12.2284	25.0359
12.1996	25.6348
12.171	26.021
12.1425	26.0545
12.1141	26.0328
12.0859	25.8797
12.0578	25.6155
12.0298	25.311
12.0019	24.9071
11.9742	24.0602
11.9466	22.9466
11.9192	21.8187
11.8918	20.3292
11.8646	17.8376
11.8375	14.098
11.8106	9.58078
11.7837	8.02496
11.757	10.7984
11.7304	13.1446
11.7039	13.1389
11.6776	12.1405
11.6513	11.1103
11.6252	10.1948
11.5992	9.31721
11.5733	8.66199
11.5475	8.32377
11.5219	8.13141
11.4963	8.07635
11.4709	8.41799
11.4455	9.20478
11.4203	11.1081
11.3952	14.4768
11.3702	17.4953
11.3454	18.6429
11.3206	19.2118
11.2959	20.7967
11.2714	21.6938
11.2469	19.3966
11.2226	16.5819
11.1983	15.8937
11.1742	16.3732
11.1502	17.2886
11.1263	18.3028
11.1024	19.0383
11.0787	19.5177
11.0551	20.0242
11.0316	20.5599
11.0081	21.1642
10.9848	21.7394
10.9616	22.261
10.9385	22.6588
10.9154	22.8387
10.8925	22.6864
10.8697	22.2739
10.8469	21.6184
10.8243	20.7414
10.8017	19.8677
10.7793	18.9809
10.7569	17.9971
10.7346	17.1625
10.7125	16.5964
10.6904	16.2493
10.6684	16.0959
10.6465	16.1945
10.6247	16.373
10.6029	16.4587
10.5813	16.3065
10.5597	16.1502
10.5383	16.3208
10.5169	16.5501
10.4956	16.9634
10.4744	17.5804
10.4533	18.4154
10.4323	19.0948
10.4113	19.495
10.3904	19.6777
10.3697	19.788
10.349	19.9154
10.3284	19.8818
10.3078	19.7228
10.2874	19.3224
10.267	18.6478
10.2467	17.8594
10.2265	17.1029
10.2064	16.7585
10.1863	16.8836
10.1663	17.0818
10.1464	17.1054
10.1266	16.8665
10.1069	16.3515
10.0872	15.6897
10.0676	15.1039
10.0481	14.8087
10.0287	14.587
10.0093	14.2837
9.99005	14.0743
9.97084	14.004
9.95169	13.9162
9.93263	13.6984
9.91364	13.3228
9.89472	12.9744
9.87587	12.916
9.8571	13.0134
9.83839	13.0849
9.81976	13.2526
9.80119	13.4967
9.78271	13.7134
9.76428	13.8735
9.74592	14.1815
9.72764	14.7568
9.70943	15.5005
9.69128	16.241
9.6732	17.0868
9.65518	17.8608
9.63724	18.3816
9.61935	18.6042
9.60155	18.6527
9.5838	18.6764
9.56611	18.8203
9.5485	19.1935
9.53094	19.5968
9.51345	19.8628
9.49604	19.959
9.47867	19.8532
9.46137	19.7536
9.44414	19.5981
9.42697	19.3045
9.40986	18.8158
9.39281	18.0454
9.37583	17.2502
9.35891	17.196
9.34204	17.5182
9.32524	17.8978
9.3085	18.196
9.29182	18.5489
9.27519	18.5178
9.25863	17.6715
9.24213	16.0052
9.22568	15.3733
9.2093	15.963
9.19297	16.8461
9.17669	17.9861
9.16048	18.6853
9.14433	18.9987
9.12823	19.0539
9.11218	19.0416
9.0962	19.2257
9.08027	19.2501
9.06439	19.1104
9.04858	19.0531
9.03281	18.8986
9.0171	18.7687
9.00145	18.6626
8.98585	18.4228
8.9703	18.2266
8.9548	17.9674
8.93937	17.5631
8.92398	17.3518
8.90865	17.189
8.89337	16.8235
8.87814	16.4218
8.86296	15.9859
8.84784	15.6955
8.83277	15.4276
8.81774	15.1088
8.80277	14.7746
8.78786	14.1671
8.77298	13.4722
8.75816	12.8952
8.7434	12.2656
8.72868	11.5254
8.714	10.9398
8.69938	10.4315
8.68481	9.92778
8.67029	9.35542
8.65581	8.85397
8.64139	8.31569
8.62701	7.70053
8.61268	7.20985
8.5984	6.88624
8.58416	6.81301
8.56997	6.87865
8.55583	6.86519
8.54174	6.81315
8.52769	6.87723
8.51368	6.84524
8.49973	6.67194
8.48582	6.5063
8.47195	6.49708
8.45813	6.67162
8.44436	6.91253
8.43062	7.0578
8.41693	7.18788
8.4033	7.19578
8.3897	7.25714
8.37614	7.52193
8.36264	7.86603
8.34917	8.0829
8.33574	8.27273
8.32236	8.36816
8.30903	8.42308
8.29573	8.56467
8.28248	8.67423
8.26927	8.75875
8.2561	8.83667
8.24298	8.80451
8.2299	8.78654
8.21685	8.76954
8.20385	8.82436
8.19089	8.85996
8.17797	8.76073
8.16509	8.64733
8.15225	8.50877
8.13946	8.46988
8.1267	8.50601
8.11398	8.47118
8.10131	8.20811
8.08867	7.98754
8.07606	7.89525
8.0635	7.83282
8.05099	7.85859
8.0385	8.00738
8.02606	8.04469
8.01366	8.0955
8.00129	8.2325
7.98896	8.34977
7.97667	8.36336
7.96442	8.35187
7.9522	8.23316
7.94002	7.97891
7.92788	7.77334
7.91578	7.61594
7.90371	7.5778
7.89168	7.58317
7.87969	7.55968
7.86773	7.64619
7.85581	7.70483
7.84392	7.66064
7.83207	7.58528
7.82026	7.51793
7.80849	7.47045
7.79674	7.39643
7.78503	7.38309
7.77337	7.46397
7.76173	7.51605
7.75012	7.42455
7.73856	7.40747
7.72703	7.39336
7.71553	7.26448
7.70406	7.19789
7.69263	7.10352
7.68123	6.99367
7.66987	6.97123
7.65855	6.94362
7.64725	6.89299
7.63598	6.82635
7.62475	6.81397
7.61356	6.7795
7.60239	6.78552
7.59126	6.77469
7.58017	6.76026
7.5691	6.80436
7.55806	6.8408
7.54707	6.93227
7.5361	7.04678
7.52516	7.12945
7.51425	7.14414
7.50338	7.12339
7.49253	7.18092
7.48172	7.30573
7.47094	7.42018
7.46019	7.422
7.44947	7.46425
7.43879	7.45776
7.42813	7.47285
7.4175	7.55939
7.4069	7.74098
7.39634	7.93859
7.3858	8.04675
7.37529	8.18032
7.36482	8.28364
7.35437	8.36545
7.34396	8.5655
7.33357	8.71748
7.32321	8.8241
7.31288	8.98665
7.30258	9.18298
7.29231	9.38983
7.28207	9.5834
7.27185	9.78112
7.26167	9.97189
7.25152	10.2127
7.24139	10.4938
7.23129	10.8318
7.22122	11.2901
7.21117	11.7468
7.20116	12.0678
7.19117	12.613
7.18121	13.3285
7.17128	14.0204
7.16137	14.6425
7.1515	15.1945
7.14164	15.6113
7.13182	15.9825
7.12203	16.8344
7.11225	18.1146
7.10251	19.2202
7.0928	20.0913
7.08311	20.737
7.07344	21.2482
7.06381	21.6027
7.0542	21.8906
7.04461	22.042
7.03506	21.9763
7.02552	22.0274
7.01601	22.1058
7.00653	22.2472
6.99708	22.3652
6.98765	22.3653
6.97824	22.3437
6.96886	22.5308
6.95951	22.7521
6.95018	22.5391
6.94087	22.4339
6.9316	22.5
6.92234	22.7463
6.91311	23.0657
6.90391	23.3045
6.89473	23.5768
6.88557	23.9619
6.87644	24.2853
6.86733	24.9202
6.85824	25.1555
6.84918	24.9715
6.84015	25.1962
6.83114	25.6733
6.82215	25.9345
6.81319	26.097
6.80424	26.497
6.79532	27.1187
6.78643	27.589
6.77756	27.8418
6.76871	28.1633
6.75989	28.5938
6.75109	29.2285
6.74231	29.9143
6.73355	30.7617
6.72482	31.7744
6.71611	32.7448
6.70742	33.5493
6.69875	34.0314
6.69011	34.7708
6.68149	35.6314
6.67289	35.9793
6.66431	36.1467
6.65576	36.4896
6.64722	37.4241
6.63871	38.5733
6.63022	38.6004
6.62175	38.4059
6.61331	38.6932
6.60488	39.0407
6.59648	39.6012
6.5881	40.0937
6.57974	40.6614
6.5714	41.2478
6.56308	41.1281
6.55478	41.1426
6.54651	41.1489
6.53825	41.0753
6.53001	41.0863
6.5218	41.2745
6.51361	40.9836
6.50544	40.7634
6.49729	41.0874
6.48915	40.7331
6.48104	39.5396
6.47295	38.1504
6.46488	36.3245
6.45683	34.0606
6.4488	30.8208
6.44079	27.0653
6.4328	23.4898
6.42482	20.6179
6.41687	18.4423
6.40894	16.0192
6.40103	13.7707
6.39314	12.1457
6.38526	10.7763
6.37741	9.45853
6.36957	8.21748
6.36176	7.18689
6.35396	6.29932
6.34618	5.48621
6.33843	4.57951
6.33069	3.852
6.32297	3.34152
6.31527	2.86026
6.30758	2.35037
6.29992	2.03957
6.29227	1.8202
6.28465	1.66822
6.27704	1.60314
6.26945	1.45632
6.26188	1.23289
6.25432	1.08609
6.24679	0.915422
6.23927	0.7987
6.23177	0.733614
6.22429	0.626008
6.21683	0.584211
6.20938	0.573204
6.20195	0.592901
6.19454	0.628601
6.18715	0.547207
6.17978	0.441186
6.17242	0.412505
6.16508	0.390797
6.15776	0.43688
6.15045	0.519392
6.14317	0.597719
6.1359	0.657378
6.12864	0.627938
6.12141	0.564024
6.11419	0.472927
6.10699	0.551907
6.0998	0.576433
6.09263	0.585319
6.08549	0.706416
6.07835	0.724634
6.07123	0.654271
6.06413	0.580525
6.05705	0.62755
6.04998	0.80833
6.04293	0.917206
6.0359	0.899104
6.02888	1.02099
6.02187	1.1511
6.01489	1.16266
6.00792	1.22757
6.00096	1.39995
5.99403	1.5059
5.98711	1.46304
5.9802	1.39893
5.97331	1.39865
5.96644	1.43038
5.95958	1.55666
5.95274	1.69933
5.94591	1.74757
5.9391	1.89462
5.9323	2.00594
5.92552	2.06755
5.91876	2.1746
5.91201	2.18495
5.90528	2.21223
5.89856	2.39445
5.89186	2.49124
5.88517	2.49583
5.8785	2.50406
5.87184	2.50968
5.8652	2.65485
5.85857	2.71022
5.85196	2.66231
5.84536	2.66519
5.83878	2.59644
5.83221	2.53355
5.82566	2.48967
5.81912	2.44916
5.81259	2.41369
5.80608	2.42223
5.79959	2.42213
5.79311	2.33843
5.78665	2.331
5.78019	2.30045
5.77376	2.32634
5.76734	2.37549
5.76093	2.40953
5.75453	2.45249
5.74815	2.48486
5.74179	2.48407
5.73543	2.45058
5.7291	2.52074
5.72277	2.71361
5.71646	2.86134
5.71017	2.99238
5.70389	3.15807
5.69762	3.31863
5.69136	3.47232
5.68513	3.69454
5.6789	3.93434
5.67268	4.13811
5.66648	4.33137
5.6603	4.63961
5.65413	4.93798
5.64797	5.20488
5.64182	5.35255
5.63569	5.33351
5.62957	5.16208
5.62347	4.74863
5.61737	4.19165
5.61129	3.55989
5.60522	2.91933
5.59917	2.27776
5.59313	1.7424
5.5871	1.32352
5.58109	1.14446
5.57509	1.06402
5.5691	0.994068
5.56312	0.91573
5.55716	0.881908
5.55121	0.918452
5.54528	1.19036
5.53935	1.86235
5.53344	2.87315
5.52754	3.99945
5.52166	5.17505
5.51578	6.37143
5.50992	7.52035
5.50407	8.5825
5.49823	9.61826
5.49241	10.6237
5.4866	11.6366
5.4808	12.6349
5.47501	13.493
5.46923	14.4049
5.46347	15.3795
5.45772	16.2943
5.45198	17.2782
5.44625	18.2652
5.44054	19.2685
5.43484	20.2907
5.42914	21.4254
5.42347	22.7011
5.4178	23.6602
5.41214	24.4844
5.4065	25.4215
5.40087	26.4119
5.39525	27.3914
5.38964	28.3462
5.38404	29.313
5.37846	30.2048
5.37288	31.0789
5.36732	31.9828
5.36177	32.8322
5.35623	33.7339
5.35071	34.6813
5.34519	35.4417
5.33968	36.1532
5.33419	36.9794
5.32871	37.8447
5.32324	38.6916
5.31778	39.5358
5.31233	40.4015
5.30689	41.1962
5.30147	42.0206
5.29605	42.8262
5.29065	43.4674
5.28525	43.9734
5.27987	44.5345
5.2745	45.1023
5.26914	45.6254
5.26379	46.135
5.25845	46.7557
5.25312	47.2975
5.24781	47.8828
5.2425	48.4468
5.23721	48.8929
5.23192	49.3155
5.22665	49.7307
5.22138	50.1397
5.21613	50.667
5.21089	51.1197
5.20566	51.4745
5.20044	51.9841
5.19522	52.4244
5.19002	52.8112
5.18483	53.2062
5.17965	53.5031
5.17448	53.6785
5.16933	53.8561
5.16418	54.2316
5.15904	54.6648
5.15391	54.9999
5.14879	55.35
5.14368	55.5567
5.13859	55.6668
5.1335	55.7599
5.12842	55.601
5.12335	55.0489
5.1183	53.7718
5.11325	50.6738
5.10821	45.5988
5.10318	40.393
5.09817	38.8564
5.09316	43.6697
5.08816	50.1617
5.08317	54.5991
5.07819	57.1263
5.07322	58.4739
5.06826	59.2047
5.06331	59.6378
5.05837	59.84
5.05344	59.96
5.04852	60.0718
5.04361	60.1603
5.03871	60.1644
5.03382	60.0945
5.02894	59.9993
5.02406	59.9831
5.0192	59.9471
5.01435	59.8884
5.0095	59.7507
5.00467	59.6762
4.99984	59.6218
4.99502	59.5061
4.99021	59.3467
4.98542	59.2615
4.98063	59.1759
4.97585	59.0024
4.97108	58.8045
4.96632	58.6422
4.96156	58.5081
4.95682	58.3622
4.95209	58.1829
4.94736	58.0947
4.94264	58.0772
4.93794	58.0475
4.93324	57.9696
4.92855	57.9392
4.92387	57.9315
4.9192	57.9907
4.91453	58.1213
4.90988	58.2642
4.90524	58.3251
4.9006	58.372
4.89597	58.4501
4.89135	58.5308
4.88674	58.5921
4.88214	58.6672
4.87755	58.7829
4.87296	58.8658
4.86839	58.8593
4.86382	58.9554
4.85926	59.0872
4.85471	59.1304
4.85017	59.149
4.84564	59.2459
4.84111	59.3251
4.8366	59.4311
4.83209	59.5212
4.82759	59.5212
4.8231	59.5522
4.81862	59.6408
4.81415	59.618
4.80968	59.5404
4.80522	59.44
4.80077	59.4428
4.79633	59.4291
4.7919	59.3906
4.78747	59.3116
4.78306	59.0916
4.77865	58.7329
4.77425	58.2637
4.76986	57.6066
4.76547	56.7607
4.7611	55.8448
4.75673	54.9467
4.75237	54.0371
4.74802	53.0102
4.74367	51.7709
4.73934	50.4288
4.73501	48.9785
4.73069	47.3387
4.72638	45.2783
4.72207	42.6288
4.71777	39.5915
4.71348	36.4799
4.7092	33.4861
4.70493	30.8053
4.70066	28.5898
4.69641	26.8187
4.69216	25.4595
4.68791	24.427
4.68368	23.6426
4.67945	23.0687
4.67523	22.7099
4.67102	22.628
4.66682	22.74
4.66262	23.0684
4.65843	23.6519
4.65425	24.6308
4.65007	26.1052
4.64591	27.8603
4.64175	29.7794
4.6376	31.8725
4.63345	33.8501
4.62932	35.5287
4.62519	36.9693
4.62106	38.3882
4.61695	39.7723
4.61284	40.8788
4.60874	41.606
4.60465	42.0545
4.60056	42.2985
4.59648	42.6843
4.59241	43.0984
4.58835	43.3237
4.58429	43.4599
4.58024	43.57
4.5762	43.7332
4.57216	43.853
4.56814	43.8863
4.56411	43.9481
4.5601	44.0261
4.55609	44.0589
4.55209	44.0815
4.5481	44.1409
4.54411	44.1488
4.54013	44.1593
4.53616	44.1483
4.5322	44.1202
4.52824	44.1375
4.52429	44.234
4.52034	44.3483
4.51641	44.4486
4.51247	44.4608
4.50855	44.6251
4.50463	44.9278
4.50072	45.2445
4.49682	45.6773
4.49292	46.1263
4.48903	46.6315
4.48515	47.3382
4.48127	48.2314
4.4774	49.1907
4.47354	50.0245
4.46968	50.7583
4.46584	51.4805
4.46199	52.1232
4.45815	52.6341
4.45432	53.087
4.4505	53.609
4.44668	54.2921
4.44287	55.0439
4.43907	55.8473
4.43527	56.6511
4.43148	57.2975
4.4277	57.8151
4.42392	58.2322
4.42015	58.6014
4.41638	58.9474
4.41262	59.3208
4.40887	59.6646
4.40513	59.8319
4.40139	60.0187
4.39765	60.2068
4.39393	60.4396
4.39021	60.7442
4.38649	60.9411
4.38278	61.0478
4.37908	61.0875
4.37539	60.9659
4.3717	60.686
4.36801	60.1698
4.36434	59.5214
4.36067	58.7673
4.357	57.9237
4.35335	57.0703
4.34969	56.4533
4.34605	56.1327
4.34241	55.9835
4.33877	55.7934
4.33514	55.6549
4.33152	55.5464
4.32791	55.5051
4.3243	55.511
4.32069	55.477
4.3171	55.3129
4.31351	55.2313
4.30992	55.3509
4.30634	55.6242
4.30277	56.0412
4.2992	56.4622
4.29564	56.694
4.29208	56.7304
4.28853	56.7778
4.28499	56.8022
4.28145	56.7545
4.27792	56.7419
4.27439	56.6447
4.27087	56.4176
4.26735	56.1208
4.26384	55.8231
4.26034	55.5679
4.25684	55.3221
4.25335	55.1597
4.24986	55.0047
4.24638	54.7161
4.24291	54.4088
4.23944	54.0887
4.23598	53.7323
4.23252	53.4377
4.22906	53.248
4.22562	53.0098
4.22218	52.7319
4.21874	52.5875
4.21531	52.4273
4.21189	52.26
4.20847	52.0231
4.20506	51.7652
4.20165	51.5118
4.19825	51.1739
4.19485	50.7024
4.19146	50.2849
4.18807	49.8828
4.18469	49.4565
4.18132	49.0042
4.17795	48.6231
4.17458	48.2389
4.17123	47.8089
4.16787	47.3433
4.16453	46.8696
4.16118	46.3824
4.15785	45.8523
4.15451	45.2527
4.15119	44.6186
4.14787	43.9958
4.14455	43.3133
4.14124	42.5638
4.13794	41.7656
4.13464	40.9602
4.13134	40.2787
4.12805	39.4824
4.12477	38.5534
4.12149	37.6723
4.11822	36.8874
4.11495	36.1693
4.11168	35.3306
4.10843	34.4896
4.10517	33.7228
4.10192	33.0121
4.09868	32.2722
4.09545	31.4488
4.09221	30.5925
4.08899	29.8129
4.08576	29.0295
4.08255	28.1371
4.07933	27.1838
4.07613	26.1562
4.07292	25.072
4.06973	24.0438
4.06654	23.0393
4.06335	21.9638
4.06017	21.0262
4.05699	20.0599
4.05382	18.867
4.05065	17.3709
4.04749	15.6008
4.04433	13.7543
4.04118	12.0344
4.03803	10.5179
4.03489	9.28367
4.03175	8.33483
4.02862	7.40785
4.02549	6.57149
4.02237	5.90364
4.01925	5.32008
4.01614	4.85579
4.01303	4.40367
4.00993	3.83158
4.00683	3.30538
4.00373	2.97305
4.00064	2.71146
3.99756	2.57137
3.99448	2.45504
3.9914	2.28196
3.98833	2.15848
3.98527	2.1606
3.98221	2.0284
3.97915	1.8555
3.9761	1.97608
3.97305	2.09563
3.97001	2.05228
3.96697	2.03109
3.96394	2.06809
3.96091	2.22025
3.95789	2.35924
3.95487	2.40869
3.95186	2.54417
3.94885	2.74536
3.94584	2.9937
3.94284	3.33947
3.93984	3.65285
3.93685	3.92461
3.93386	4.1008
3.93088	4.18781
3.9279	4.29545
3.92493	4.41764
3.92196	4.53337
3.919	4.67693
3.91604	4.75059
3.91308	4.79384
3.91013	4.92707
3.90718	5.01035
3.90424	5.02642
3.9013	5.05145
3.89837	5.08276
3.89544	5.14957
3.89252	5.26154
3.8896	5.31359
3.88668	5.31175
3.88377	5.31966
3.88086	5.3404
3.87796	5.40587
3.87506	5.50958
3.87217	5.4965
3.86928	5.45697
3.86639	5.53665
3.86351	5.63843
3.86064	5.66201
3.85776	5.71233
3.8549	5.78377
3.85203	5.87162
3.84917	5.90614
3.84631	6.05237
3.84346	6.19972
3.84062	6.32478
3.83777	6.71098
3.83494	7.15264
3.8321	7.6766
3.82927	8.39526
3.82644	9.17899
3.82362	10.0304
3.82081	10.7911
3.81799	11.6137
3.81518	12.6687
3.81238	13.8417
3.80958	15.1884
3.80678	16.6775
3.80399	18.4207
3.8012	20.606
3.79841	23.1916
3.79563	26.0366
3.79286	29.0526
3.79008	31.9111
3.78731	34.3278
3.78455	36.2804
3.78179	37.8737
3.77903	39.1793
3.77628	40.3151
3.77353	41.3759
3.77079	42.3758
3.76805	43.2243
3.76531	43.9692
3.76258	44.672
3.75985	45.2782
3.75713	45.679
3.7544	45.9708
3.75169	46.323
3.74898	46.7032
3.74627	47.1582
3.74356	47.691
3.74086	48.3002
3.73816	49.0133
3.73547	49.6787
3.73278	50.2005
3.7301	50.7465
3.72741	51.2113
3.72474	51.5885
3.72206	51.9054
3.71939	52.2413
3.71673	52.5
3.71406	52.7639
3.71141	52.9438
3.70875	53.1484
3.7061	53.4163
3.70345	53.5756
3.70081	53.6207
3.69817	53.7114
3.69553	53.8748
3.6929	54.0317
3.69027	54.0917
3.68765	54.1066
3.68503	54.1911
3.68241	54.1748
3.6798	54.1227
3.67719	54.1184
3.67458	54.0087
3.67198	53.9857
3.66938	53.9316
3.66678	53.7593
3.66419	53.5815
3.66161	53.4608
3.65902	53.3562
3.65644	53.1403
3.65387	52.9369
3.65129	52.6234
3.64872	52.3548
3.64616	52.2622
3.64359	52.047
3.64103	51.7709
3.63848	51.5179
3.63593	51.2268
3.63338	50.9078
3.63084	50.7185
3.6283	50.4421
3.62576	50.1488
3.62322	49.8038
3.62069	49.3232
3.61817	48.9135
3.61564	48.5266
3.61312	48.1241
3.61061	47.6905
3.6081	47.1526
3.60559	46.5018
3.60308	45.7521
3.60058	44.927
3.59808	44.0623
3.59558	43.2139
3.59309	42.2827
3.59061	41.1197
3.58812	39.8121
3.58564	38.4045
3.58316	36.8306
3.58069	35.1569
3.57822	33.4643
3.57575	31.9925
3.57328	31.0493
3.57082	30.6883
3.56836	30.7084
3.56591	30.9687
3.56346	31.1083
3.56101	30.9089
3.55857	30.5376
3.55613	29.9086
3.55369	29.1351
3.55126	28.2598
3.54883	27.3
3.5464	26.1874
3.54397	24.8734
3.54155	23.5068
3.53914	21.994
3.53672	20.3785
3.53431	18.6494
3.5319	16.8275
3.5295	14.8427
3.5271	12.8068
3.5247	10.9991
3.52231	9.39718
3.51991	8.05843
3.51753	7.16567
3.51514	6.50865
3.51276	5.95163
3.51038	5.6085
3.50801	5.34593
3.50563	5.15175
3.50327	4.89235
3.5009	4.66996
3.49854	4.48249
3.49618	4.28733
3.49382	4.13577
3.49147	3.90563
3.48912	3.74474
3.48677	3.61937
3.48443	3.47788
3.48209	3.38275
3.47975	3.36154
3.47742	3.41649
3.47509	3.41048
3.47276	3.5214
3.47044	3.83314
3.46812	4.30111
3.4658	4.97282
3.46348	5.67617
3.46117	6.15492
