Name: Halite NaCl
Type: Mineral
Class: Halides
Subclass: 
Particle Size: 0-45um
Sample No.: H-3A
Owner: JPL
Wavelength range: IR
Origin: USA, Michigan, Wayne County, Detroit
Collected by Ward's
Description: 





Measurement: Hemispherical reflectance
First Column: X
Second Column: Y
X Units:  Wavelength (micrometers)
Y Units:  Reflectance (percent)
First X Value: 15.3853
Last X Value: 2.00032
Number of X Values: 2256
Additional information: h03aa.txt
 
15.3853	43.6163
15.3397	43.7851
15.2945	44.1225
15.2495	44.676
15.2048	45.1955
15.1603	45.712
15.1161	45.9426
15.0722	46.3959
15.0285	47.1074
14.9851	47.7074
14.9419	47.9275
14.8989	48.1812
14.8563	48.8143
14.8138	49.4808
14.7716	50.0315
14.7296	50.5969
14.6879	51.2558
14.6464	51.8823
14.6052	52.3993
14.5641	53.0438
14.5233	53.8227
14.4828	54.5188
14.4424	55.0701
14.4023	55.6055
14.3624	56.1225
14.3227	56.7689
14.2833	57.4682
14.244	58.0696
14.205	58.7909
14.1662	59.4609
14.1276	60.0746
14.0892	60.8732
14.051	61.5129
14.0131	62.0796
13.9753	62.6621
13.9377	63.2541
13.9004	63.7341
13.8632	64.2692
13.8262	65.0016
13.7895	65.5984
13.7529	66.0418
13.7165	66.5327
13.6803	67.0308
13.6443	67.4996
13.6085	68.021
13.5729	68.3354
13.5374	68.7619
13.5022	69.1589
13.4671	69.3492
13.4322	69.6208
13.3975	69.9616
13.363	70.2293
13.3286	70.5426
13.2944	70.9458
13.2604	71.3231
13.2266	71.5251
13.193	71.7573
13.1595	71.8542
13.1262	71.9364
13.093	72.1443
13.06	72.3976
13.0272	72.65
12.9946	72.8877
12.9621	72.9104
12.9298	72.9768
12.8976	73.0878
12.8656	73.0635
12.8337	73.1521
12.8021	73.3528
12.7705	73.5223
12.7391	73.6764
12.7079	73.7334
12.6769	73.7694
12.6459	73.7945
12.6152	73.8323
12.5845	74.047
12.5541	74.264
12.5238	74.3681
12.4936	74.4301
12.4635	74.4401
12.4337	74.5806
12.4039	74.7284
12.3743	74.73
12.3448	74.8403
12.3155	74.9539
12.2863	74.9494
12.2573	74.9851
12.2284	75.1181
12.1996	75.2745
12.171	75.5248
12.1425	75.6838
12.1141	75.6862
12.0859	75.7608
12.0578	75.9187
12.0298	76.1233
12.0019	76.1854
11.9742	76.2175
11.9466	76.3007
11.9192	76.3685
11.8918	76.4304
11.8646	76.4836
11.8375	76.5979
11.8106	76.6003
11.7837	76.4691
11.757	76.4858
11.7304	76.5597
11.7039	76.4924
11.6776	76.3623
11.6513	76.1736
11.6252	75.9501
11.5992	75.8905
11.5733	75.8588
11.5475	75.7369
11.5219	75.6696
11.4963	75.3739
11.4709	74.5836
11.4455	73.8027
11.4203	73.5195
11.3952	73.8638
11.3702	74.5522
11.3454	75.262
11.3206	75.8611
11.2959	76.1602
11.2714	76.2939
11.2469	76.3498
11.2226	76.3723
11.1983	76.38
11.1742	76.2876
11.1502	76.2434
11.1263	76.3256
11.1024	76.3037
11.0787	76.211
11.0551	76.1579
11.0316	76.1409
11.0081	76.0933
10.9848	76.0619
10.9616	76.1162
10.9385	76.1272
10.9154	76.0975
10.8925	76.0591
10.8697	76.0713
10.8469	76.068
10.8243	76.038
10.8017	75.9966
10.7793	75.9573
10.7569	75.8969
10.7346	75.805
10.7125	75.7548
10.6904	75.8513
10.6684	75.8612
10.6465	75.7608
10.6247	75.6807
10.6029	75.5908
10.5813	75.4879
10.5597	75.4284
10.5383	75.4945
10.5169	75.6341
10.4956	75.5911
10.4744	75.4832
10.4533	75.3254
10.4323	75.2148
10.4113	75.2138
10.3904	75.1854
10.3697	75.0425
10.349	74.9421
10.3284	74.9393
10.3078	74.787
10.2874	74.6554
10.267	74.6911
10.2467	74.5903
10.2265	74.5239
10.2064	74.4052
10.1863	74.2469
10.1663	74.1402
10.1464	73.9995
10.1266	73.8238
10.1069	73.7586
10.0872	73.6975
10.0676	73.6574
10.0481	73.5595
10.0287	73.3761
10.0093	73.1683
9.99005	73.0324
9.97084	72.9156
9.95169	72.8034
9.93263	72.6802
9.91364	72.5146
9.89472	72.3536
9.87587	72.2681
9.8571	72.2531
9.83839	72.2357
9.81976	72.1345
9.80119	71.9886
9.78271	71.8149
9.76428	71.7699
9.74592	71.7755
9.72764	71.7063
9.70943	71.6377
9.69128	71.6357
9.6732	71.6719
9.65518	71.6912
9.63724	71.6911
9.61935	71.7876
9.60155	71.8371
9.5838	71.8477
9.56611	71.8467
9.5485	71.7737
9.53094	71.7051
9.51345	71.7783
9.49604	71.865
9.47867	71.8771
9.46137	71.8804
9.44414	72.0032
9.42697	72.0825
9.40986	72.0815
9.39281	72.0563
9.37583	72.1256
9.35891	72.1393
9.34204	72.188
9.32524	72.2407
9.3085	72.2682
9.29182	72.2469
9.27519	72.2278
9.25863	72.2981
9.24213	72.3636
9.22568	72.364
9.2093	72.352
9.19297	72.403
9.17669	72.4379
9.16048	72.4774
9.14433	72.5737
9.12823	72.5973
9.11218	72.5549
9.0962	72.4554
9.08027	72.4651
9.06439	72.57
9.04858	72.6993
9.03281	72.7109
9.0171	72.6654
9.00145	72.7093
8.98585	72.8138
8.9703	72.9192
8.9548	73.0331
8.93937	73.1394
8.92398	73.3021
8.90865	73.3837
8.89337	73.4517
8.87814	73.6588
8.86296	73.9446
8.84784	74.0687
8.83277	74.2571
8.81774	74.4225
8.80277	74.5362
8.78786	74.5469
8.77298	74.5701
8.75816	74.6854
8.7434	74.8749
8.72868	74.9359
8.714	74.9755
8.69938	74.9944
8.68481	75.0475
8.67029	75.109
8.65581	75.1595
8.64139	75.1513
8.62701	75.2485
8.61268	75.3607
8.5984	75.3817
8.58416	75.5236
8.56997	75.6382
8.55583	75.6042
8.54174	75.7124
8.52769	75.859
8.51368	76.0756
8.49973	76.2126
8.48582	76.3332
8.47195	76.515
8.45813	76.6879
8.44436	76.8033
8.43062	76.9095
8.41693	76.9958
8.4033	77.1062
8.3897	77.3025
8.37614	77.4929
8.36264	77.5074
8.34917	77.6082
8.33574	77.7309
8.32236	77.707
8.30903	77.7531
8.29573	77.98
8.28248	78.0941
8.26927	78.1693
8.2561	78.2574
8.24298	78.2766
8.2299	78.2888
8.21685	78.4567
8.20385	78.6012
8.19089	78.5645
8.17797	78.449
8.16509	78.5315
8.15225	78.6019
8.13946	78.6548
8.1267	78.7177
8.11398	78.7622
8.10131	78.7282
8.08867	78.7845
8.07606	78.8678
8.0635	78.9341
8.05099	78.9863
8.0385	79.0229
8.02606	79.0744
8.01366	79.0918
8.00129	79.1188
7.98896	79.1307
7.97667	79.2088
7.96442	79.2809
7.9522	79.337
7.94002	79.3781
7.92788	79.4003
7.91578	79.4944
7.90371	79.6297
7.89168	79.6791
7.87969	79.6851
7.86773	79.7729
7.85581	79.7886
7.84392	79.799
7.83207	79.8406
7.82026	79.8825
7.80849	79.8706
7.79674	79.9552
7.78503	80.0262
7.77337	80.0601
7.76173	80.0805
7.75012	80.0897
7.73856	80.025
7.72703	80.0681
7.71553	80.0955
7.70406	80.0894
7.69263	80.1048
7.68123	80.1303
7.66987	80.0921
7.65855	80.056
7.64725	80.0081
7.63598	80.0097
7.62475	80.0308
7.61356	79.958
7.60239	79.7686
7.59126	79.6747
7.58017	79.5702
7.5691	79.3717
7.55806	79.1593
7.54707	79.1273
7.5361	79.1353
7.52516	79.1928
7.51425	79.2749
7.50338	79.2987
7.49253	79.3025
7.48172	79.3333
7.47094	79.2989
7.46019	79.0422
7.44947	78.5005
7.43879	78.1963
7.42813	77.9273
7.4175	77.6229
7.4069	77.1814
7.39634	76.7501
7.3858	76.534
7.37529	76.3124
7.36482	76.0509
7.35437	76.0556
7.34396	76.2385
7.33357	76.1326
7.32321	75.6972
7.31288	75.7089
7.30258	75.7716
7.29231	75.8814
7.28207	76.3004
7.27185	76.4039
7.26167	76.0458
7.25152	75.9787
7.24139	75.9343
7.23129	76.0246
7.22122	76.2294
7.21117	76.9227
7.20116	76.9094
7.19117	76.5576
7.18121	76.8793
7.17128	77.6483
7.16137	77.484
7.1515	77.3064
7.14164	76.995
7.13182	76.4796
7.12203	76.4693
7.11225	76.2111
7.10251	75.7215
7.0928	75.4481
7.08311	75.1383
7.07344	74.865
7.06381	74.8778
7.0542	75.7391
7.04461	76.2524
7.03506	74.9564
7.02552	74.3683
7.01601	74.153
7.00653	73.9167
6.99708	74.1197
6.98765	73.9657
6.97824	73.6559
6.96886	74.3349
6.95951	75.1824
6.95018	73.892
6.94087	73.0977
6.9316	72.9107
6.92234	72.8675
6.91311	73.0747
6.90391	73.1601
6.89473	72.5892
6.88557	72.3967
6.87644	72.9005
6.86733	75.0232
6.85824	74.7552
6.84918	72.3963
6.84015	71.4293
6.83114	71.9838
6.82215	71.9295
6.81319	71.1067
6.80424	71.383
6.79532	72.9901
6.78643	73.598
6.77756	72.8469
6.76871	72.3483
6.75989	71.987
6.75109	72.2696
6.74231	72.4427
6.73355	72.9116
6.72482	73.8092
6.71611	74.6415
6.70742	74.6495
6.69875	73.9474
6.69011	74.665
6.68149	75.8736
6.67289	75.5815
6.66431	74.9684
6.65576	74.8784
6.64722	76.773
6.63871	79.6709
6.63022	78.7106
6.62175	76.7753
6.61331	76.4211
6.60488	76.4715
6.59648	77.3404
6.5881	77.7496
6.57974	78.5167
6.5714	79.4094
6.56308	78.0261
6.55478	77.4937
6.54651	76.9866
6.53825	76.227
6.53001	76.1851
6.5218	76.9555
6.51361	75.9839
6.50544	76.0139
6.49729	78.4466
6.48915	78.4557
6.48104	76.2712
6.47295	74.7197
6.46488	73.2547
6.45683	72.6153
6.4488	72.4478
6.44079	72.4589
6.4328	72.8991
6.42482	73.5828
6.41687	76.1643
6.40894	74.8678
6.40103	71.1543
6.39314	69.9653
6.38526	69.3617
6.37741	69.2755
6.36957	69.1321
6.36176	67.409
6.35396	66.7617
6.34618	67.4786
6.33843	65.8134
6.33069	63.5379
6.32297	62.3844
6.31527	61.2657
6.30758	60.2132
6.29992	59.0996
6.29227	58.03
6.28465	56.8964
6.27704	55.8895
6.26945	54.9598
6.26188	54.126
6.25432	53.436
6.24679	52.934
6.23927	52.4677
6.23177	51.8803
6.22429	51.1935
6.21683	50.4874
6.20938	49.5531
6.20195	48.6492
6.19454	48.3795
6.18715	48.9976
6.17978	47.9852
6.17242	46.8414
6.16508	47.4819
6.15776	48.2935
6.15045	48.3011
6.14317	48.4453
6.1359	47.8204
6.12864	46.6945
6.12141	46.2047
6.11419	45.8907
6.10699	44.2266
6.0998	43.7358
6.09263	45.064
6.08549	47.3514
6.07835	50.6675
6.07123	53.678
6.06413	55.3088
6.05705	58.9785
6.04998	64.9856
6.04293	65.6319
6.0359	64.8189
6.02888	65.966
6.02187	67.832
6.01489	69.9052
6.00792	70.5779
6.00096	71.2936
5.99403	73.4077
5.98711	74.6578
5.9802	74.5769
5.97331	75.8299
5.96644	76.7012
5.95958	76.0936
5.95274	76.7035
5.94591	78.1976
5.9391	81.176
5.9323	80.8733
5.92552	79.1562
5.91876	79.2756
5.91201	79.5106
5.90528	80.5358
5.89856	83.1403
5.89186	83.5261
5.88517	84.7814
5.8785	85.3952
5.87184	83.1123
5.8652	83.4701
5.85857	83.5641
5.85196	83.336
5.84536	83.4338
5.83878	84.2004
5.83221	85.4658
5.82566	87.1596
5.81912	87.2706
5.81259	85.4445
5.80608	84.8618
5.79959	85.085
5.79311	85.1098
5.78665	85.4587
5.78019	85.9675
5.77376	87.2061
5.76734	89.231
5.76093	87.8656
5.75453	86.5706
5.74815	87.286
5.74179	86.9949
5.73543	86.8092
5.7291	86.8236
5.72277	87.3006
5.71646	87.905
5.71017	88.2988
5.70389	87.3043
5.69762	87.0348
5.69136	87.4598
5.68513	87.27
5.6789	87.786
5.67268	87.8031
5.66648	87.1264
5.6603	87.5699
5.65413	88.0604
5.64797	88.6398
5.64182	89.5113
5.63569	88.4345
5.62957	87.5103
5.62347	87.4703
5.61737	87.7153
5.61129	87.6155
5.60522	87.66
5.59917	87.6219
5.59313	87.3627
5.5871	87.8486
5.58109	88.8629
5.57509	88.6064
5.5691	87.6873
5.56312	87.6756
5.55716	87.9468
5.55121	88.0384
5.54528	87.6606
5.53935	87.4588
5.53344	87.4126
5.52754	87.6351
5.52166	87.7066
5.51578	87.4573
5.50992	87.2643
5.50407	87.388
5.49823	87.3546
5.49241	87.3168
5.4866	87.3594
5.4808	87.7864
5.47501	87.6454
5.46923	87.7849
5.46347	88.0581
5.45772	87.3761
5.45198	86.9824
5.44625	86.9777
5.44054	86.9135
5.43484	86.8111
5.42914	87.1511
5.42347	88.0492
5.4178	87.618
5.41214	86.8547
5.4065	86.555
5.40087	86.3224
5.39525	86.3149
5.38964	86.3349
5.38404	86.3476
5.37846	86.3409
5.37288	86.3216
5.36732	86.2995
5.36177	86.4255
5.35623	86.9087
5.35071	87.3787
5.34519	86.9392
5.33968	86.5069
5.33419	86.5421
5.32871	86.653
5.32324	86.7755
5.31778	86.885
5.31233	87.0095
5.30689	87.1535
5.30147	87.2047
5.29605	87.5186
5.29065	87.7808
5.28525	87.5852
5.27987	87.6438
5.2745	87.642
5.26914	87.6093
5.26379	87.6452
5.25845	87.7313
5.25312	87.7842
5.24781	87.8456
5.2425	87.9281
5.23721	88.0349
5.23192	87.9714
5.22665	87.8756
5.22138	87.9106
5.21613	88.3565
5.21089	88.353
5.20566	88.0627
5.20044	88.1224
5.19522	87.9513
5.19002	87.8467
5.18483	87.8579
5.17965	87.8875
5.17448	87.9301
5.16933	87.9146
5.16418	87.862
5.15904	87.8373
5.15391	87.9493
5.14879	88.2333
5.14368	88.0669
5.13859	87.8317
5.1335	87.7872
5.12842	87.7162
5.12335	87.6975
5.1183	87.7168
5.11325	87.71
5.10821	87.6448
5.10318	87.6402
5.09817	87.6102
5.09316	87.6158
5.08816	87.6587
5.08317	87.7072
5.07819	87.6464
5.07322	87.5783
5.06826	87.5516
5.06331	87.5734
5.05837	87.5687
5.05344	87.5156
5.04852	87.4469
5.04361	87.4175
5.03871	87.4101
5.03382	87.3978
5.02894	87.3682
5.02406	87.3987
5.0192	87.4408
5.01435	87.2695
5.0095	87.1715
5.00467	87.1199
4.99984	87.0681
4.99502	87.0373
4.99021	87.0309
4.98542	87.0158
4.98063	86.9477
4.97585	86.9295
4.97108	86.895
4.96632	86.7863
4.96156	86.7741
4.95682	86.8401
4.95209	86.7679
4.94736	86.6956
4.94264	86.6668
4.93794	86.6145
4.93324	86.5268
4.92855	86.442
4.92387	86.3768
4.9192	86.4153
4.91453	86.3523
4.90988	86.2482
4.90524	86.1824
4.9006	86.1783
4.89597	86.1143
4.89135	86.0104
4.88674	85.9375
4.88214	85.8984
4.87755	85.8422
4.87296	85.7843
4.86839	85.6871
4.86382	85.6129
4.85926	85.5564
4.85471	85.4836
4.85017	85.4055
4.84564	85.4247
4.84111	85.488
4.8366	85.4367
4.83209	85.3603
4.82759	85.3658
4.8231	85.324
4.81862	85.24
4.81415	85.231
4.80968	85.2369
4.80522	85.2658
4.80077	85.2932
4.79633	85.1871
4.7919	85.1665
4.78747	85.1629
4.78306	85.1708
4.77865	85.1526
4.77425	85.0985
4.76986	85.0697
4.76547	85.0706
4.7611	84.9913
4.75673	84.9113
4.75237	84.8697
4.74802	84.8949
4.74367	84.8888
4.73934	84.8812
4.73501	84.8725
4.73069	84.8372
4.72638	84.7535
4.72207	84.7444
4.71777	84.6854
4.71348	84.6137
4.7092	84.6347
4.70493	84.5771
4.70066	84.4644
4.69641	84.4802
4.69216	84.4498
4.68791	84.3791
4.68368	84.2989
4.67945	84.2639
4.67523	84.2435
4.67102	84.1807
4.66682	84.143
4.66262	84.1262
4.65843	84.0585
4.65425	83.996
4.65007	83.9164
4.64591	83.9016
4.64175	83.8728
4.6376	83.8095
4.63345	83.7664
4.62932	83.7354
4.62519	83.6927
4.62106	83.6212
4.61695	83.5366
4.61284	83.4781
4.60874	83.4573
4.60465	83.3908
4.60056	83.3032
4.59648	83.2432
4.59241	83.1644
4.58835	83.0865
4.58429	83.0045
4.58024	82.9454
4.5762	82.9183
4.57216	82.8997
4.56814	82.7984
4.56411	82.7222
4.5601	82.6934
4.55609	82.6496
4.55209	82.5386
4.5481	82.42
4.54411	82.3235
4.54013	82.2713
4.53616	82.2123
4.5322	82.1673
4.52824	82.0987
4.52429	82.0571
4.52034	82.0143
4.51641	81.9194
4.51247	81.8461
4.50855	81.8129
4.50463	81.7437
4.50072	81.6759
4.49682	81.6013
4.49292	81.5229
4.48903	81.4246
4.48515	81.3982
4.48127	81.3783
4.4774	81.2552
4.47354	81.1287
4.46968	81.0983
4.46584	81.1014
4.46199	81.0709
4.45815	81.0368
4.45432	80.9878
4.4505	80.8932
4.44668	80.812
4.44287	80.7397
4.43907	80.6857
4.43527	80.6074
4.43148	80.6075
4.4277	80.6105
4.42392	80.5912
4.42015	80.5692
4.41638	80.5727
4.41262	80.5825
4.40887	80.616
4.40513	80.6472
4.40139	80.6062
4.39765	80.6278
4.39393	80.6863
4.39021	80.7077
4.38649	80.7426
4.38278	80.8356
4.37908	80.8931
4.37539	80.9296
4.3717	81.0266
4.36801	81.1117
4.36434	81.2
4.36067	81.3137
4.357	81.3901
4.35335	81.4928
4.34969	81.6247
4.34605	81.7296
4.34241	81.8244
4.33877	81.9908
4.33514	82.1676
4.33152	82.2782
4.32791	82.3802
4.3243	82.5371
4.32069	82.649
4.3171	82.8435
4.31351	83.0914
4.30992	83.2609
4.30634	83.4384
4.30277	83.6601
4.2992	83.8551
4.29564	83.9996
4.29208	84.1766
4.28853	84.3577
4.28499	84.5332
4.28145	84.7485
4.27792	84.9299
4.27439	85.119
4.27087	85.2775
4.26735	85.3705
4.26384	85.4969
4.26034	85.6103
4.25684	85.7308
4.25335	85.8913
4.24986	86.0586
4.24638	86.2963
4.24291	86.6143
4.23944	86.793
4.23598	86.8552
4.23252	86.9762
4.22906	87.096
4.22562	87.1864
4.22218	87.2677
4.21874	87.2605
4.21531	87.2533
4.21189	87.2708
4.20847	87.3505
4.20506	87.4155
4.20165	87.4969
4.19825	87.5469
4.19485	87.6016
4.19146	87.6352
4.18807	87.7205
4.18469	87.8299
4.18132	87.8769
4.17795	87.8897
4.17458	87.9554
4.17123	88.0319
4.16787	88.0293
4.16453	87.9819
4.16118	88.0281
4.15785	88.1234
4.15451	88.1945
4.15119	88.2418
4.14787	88.261
4.14455	88.3195
4.14124	88.3967
4.13794	88.4281
4.13464	88.4387
4.13134	88.459
4.12805	88.4901
4.12477	88.5129
4.12149	88.5404
4.11822	88.6033
4.11495	88.6079
4.11168	88.5832
4.10843	88.5948
4.10517	88.5967
4.10192	88.5924
4.09868	88.6371
4.09545	88.696
4.09221	88.6772
4.08899	88.694
4.08576	88.7426
4.08255	88.7285
4.07933	88.6913
4.07613	88.6956
4.07292	88.7064
4.06973	88.7443
4.06654	88.7956
4.06335	88.7651
4.06017	88.7488
4.05699	88.7467
4.05382	88.738
4.05065	88.7573
4.04749	88.7519
4.04433	88.7801
4.04118	88.7966
4.03803	88.7632
4.03489	88.7632
4.03175	88.7315
4.02862	88.6979
4.02549	88.7206
4.02237	88.7284
4.01925	88.7333
4.01614	88.7214
4.01303	88.7197
4.00993	88.7575
4.00683	88.737
4.00373	88.6776
4.00064	88.7082
3.99756	88.7331
3.99448	88.7581
3.9914	88.7685
3.98833	88.7187
3.98527	88.6304
3.98221	88.6185
3.97915	88.6524
3.9761	88.6866
3.97305	88.6991
3.97001	88.6787
3.96697	88.661
3.96394	88.6479
3.96091	88.671
3.95789	88.6865
3.95487	88.6774
3.95186	88.6758
3.94885	88.6706
3.94584	88.6908
3.94284	88.7378
3.93984	88.7805
3.93685	88.7952
3.93386	88.7876
3.93088	88.7884
3.9279	88.7856
3.92493	88.816
3.92196	88.8588
3.919	88.8463
3.91604	88.8572
3.91308	88.9408
3.91013	88.9245
3.90718	88.9003
3.90424	88.8884
3.9013	88.8506
3.89837	88.8469
3.89544	88.8443
3.89252	88.8627
3.8896	88.8582
3.88668	88.8711
3.88377	88.9395
3.88086	88.902
3.87796	88.8275
3.87506	88.8866
3.87217	88.8872
3.86928	88.875
3.86639	88.8413
3.86351	88.8198
3.86064	88.8435
3.85776	88.8151
3.8549	88.837
3.85203	88.8649
3.84917	88.841
3.84631	88.8475
3.84346	88.8523
3.84062	88.8258
3.83777	88.7764
3.83494	88.7607
3.8321	88.7708
3.82927	88.7652
3.82644	88.7301
3.82362	88.6924
3.82081	88.6969
3.81799	88.7386
3.81518	88.7491
3.81238	88.7497
3.80958	88.7304
3.80678	88.6943
3.80399	88.7051
3.8012	88.7492
3.79841	88.7349
3.79563	88.6919
3.79286	88.6427
3.79008	88.6311
3.78731	88.6806
3.78455	88.6926
3.78179	88.6929
3.77903	88.7204
3.77628	88.7074
3.77353	88.6141
3.77079	88.5771
3.76805	88.6116
3.76531	88.6301
3.76258	88.5781
3.75985	88.5332
3.75713	88.5966
3.7544	88.6289
3.75169	88.5693
3.74898	88.4901
3.74627	88.5086
3.74356	88.5224
3.74086	88.4804
3.73816	88.5501
3.73547	88.6015
3.73278	88.5407
3.7301	88.4856
3.72741	88.4478
3.72474	88.3956
3.72206	88.3807
3.71939	88.4083
3.71673	88.3487
3.71406	88.2938
3.71141	88.3321
3.70875	88.2895
3.7061	88.2415
3.70345	88.2019
3.70081	88.2722
3.69817	88.3616
3.69553	88.2546
3.6929	88.1684
3.69027	88.231
3.68765	88.2456
3.68503	88.1687
3.68241	88.1482
3.6798	88.1707
3.67719	88.1183
3.67458	88.0691
3.67198	88.0592
3.66938	87.9842
3.66678	87.9888
3.66419	88.01
3.66161	87.9769
3.65902	87.9482
3.65644	87.9587
3.65387	87.9659
3.65129	87.8932
3.64872	87.8581
3.64616	87.949
3.64359	87.939
3.64103	87.7747
3.63848	87.6716
3.63593	87.6847
3.63338	87.7667
3.63084	87.8416
3.6283	87.7602
3.62576	87.6562
3.62322	87.6462
3.62069	87.6424
3.61817	87.6376
3.61564	87.6762
3.61312	87.6247
3.61061	87.5426
3.6081	87.4702
3.60559	87.431
3.60308	87.4536
3.60058	87.448
3.59808	87.3914
3.59558	87.4083
3.59309	87.3949
3.59061	87.3209
3.58812	87.3015
3.58564	87.2958
3.58316	87.244
3.58069	87.2183
3.57822	87.2209
3.57575	87.2144
3.57328	87.1764
3.57082	87.1192
3.56836	87.1059
3.56591	87.0519
3.56346	86.9928
3.56101	86.945
3.55857	86.9159
3.55613	86.8953
3.55369	86.8301
3.55126	86.7822
3.54883	86.7296
3.5464	86.6961
3.54397	86.6235
3.54155	86.5322
3.53914	86.4913
3.53672	86.4004
3.53431	86.361
3.5319	86.3631
3.5295	86.2887
3.5271	86.1852
3.5247	86.0988
3.52231	85.964
3.51991	85.7926
3.51753	85.5321
3.51514	85.318
3.51276	85.053
3.51038	84.6317
3.50801	84.3475
3.50563	84.2134
3.50327	84.1031
3.5009	84.068
3.49854	84.1306
3.49618	84.2237
3.49382	84.2178
3.49147	84.1978
3.48912	84.2944
3.48677	84.3344
3.48443	84.3534
3.48209	84.3461
3.47975	84.2736
3.47742	84.1406
3.47509	84.0485
3.47276	84.0647
3.47044	84.0372
3.46812	83.9955
3.4658	84.0401
3.46348	84.0503
3.46117	83.9833
