Name: Rhodonite (Mn,Ca)SiO_3
Type: Mineral
Class: Silicates
Subclass: Inosilicates
Particle Size: 0-45um
Sample No.: IN-1A
Owner: JPL
Wavelength range: VNIR-SWIR
Origin: USA, California, Fresno County.
Collected by:  Burminco
Description: 





Measurement: Hemispherical reflectance
First Column: X
Second Column: Y
X Units: Wavelength (micrometers)
Y Units: Reflectance (percent)
First X Value: 2.500
Last X Value: 0.400
Number of X Values: 2101
Additional information: in01aa.txt

2.500  65.665662
2.499  65.816603
2.498  65.693416
2.497  65.711616
2.496  65.581246
2.495  65.785980
2.494  65.628084
2.493  65.709629
2.492  65.595992
2.491  65.809062
2.490  65.628845
2.489  65.906277
2.488  65.801545
2.487  65.804532
2.486  65.794865
2.485  66.022326
2.484  65.985167
2.483  65.981347
2.482  65.796794
2.481  65.885641
2.480  65.855217
2.479  65.869985
2.478  65.910115
2.477  65.945662
2.476  65.811005
2.475  65.988936
2.474  65.959328
2.473  65.931142
2.472  66.022459
2.471  66.067209
2.470  66.020686
2.469  66.157840
2.468  65.933729
2.467  66.200277
2.466  66.217184
2.465  66.157707
2.464  66.115028
2.463  66.296771
2.462  66.223911
2.461  66.329297
2.460  66.098152
2.459  66.329027
2.458  66.183392
2.457  66.264268
2.456  66.221751
2.455  66.282457
2.454  66.377724
2.453  66.388593
2.452  66.336028
2.451  66.134590
2.450  66.305754
2.449  66.415021
2.448  66.376436
2.447  66.514520
2.446  66.388020
2.445  66.550794
2.444  66.341695
2.443  66.478186
2.442  66.494365
2.441  66.437086
2.440  66.549688
2.439  66.590341
2.438  66.535398
2.437  66.514400
2.436  66.486291
2.435  66.450802
2.434  66.439919
2.433  66.490859
2.432  66.526108
2.431  66.536737
2.430  66.492311
2.429  66.539371
2.428  66.513017
2.427  66.578198
2.426  66.496052
2.425  66.516758
2.424  66.500598
2.423  66.575724
2.422  66.571558
2.421  66.599371
2.420  66.572473
2.419  66.584520
2.418  66.490444
2.417  66.560975
2.416  66.542817
2.415  66.605179
2.414  66.595303
2.413  66.685198
2.412  66.650031
2.411  66.610071
2.410  66.631421
2.409  66.672940
2.408  66.695519
2.407  66.669203
2.406  66.672773
2.405  66.618993
2.404  66.648128
2.403  66.650512
2.402  66.672109
2.401  66.598593
2.400  66.644254
2.399  66.690490
2.398  66.592672
2.397  66.620735
2.396  66.623642
2.395  66.626424
2.394  66.633357
2.393  66.621660
2.392  66.688487
2.391  66.673669
2.390  66.674138
2.389  66.688554
2.388  66.700578
2.387  66.682158
2.386  66.637955
2.385  66.644642
2.384  66.673517
2.383  66.655541
2.382  66.673295
2.381  66.733711
2.380  66.695149
2.379  66.681153
2.378  66.687134
2.377  66.698204
2.376  66.696663
2.375  66.719665
2.374  66.710041
2.373  66.643222
2.372  66.586357
2.371  66.665825
2.370  66.746284
2.369  66.671236
2.368  66.624998
2.367  66.664673
2.366  66.620925
2.365  66.647357
2.364  66.648610
2.363  66.667904
2.362  66.679373
2.361  66.709978
2.360  66.691917
2.359  66.656547
2.358  66.676165
2.357  66.696919
2.356  66.659599
2.355  66.620927
2.354  66.660131
2.353  66.741982
2.352  66.724122
2.351  66.767017
2.350  66.776593
2.349  66.729033
2.348  66.740216
2.347  66.706851
2.346  66.719688
2.345  66.722368
2.344  66.738964
2.343  66.769899
2.342  66.812955
2.341  66.784907
2.340  66.778246
2.339  66.810527
2.338  66.792903
2.337  66.763200
2.336  66.754001
2.335  66.765534
2.334  66.798417
2.333  66.793059
2.332  66.806537
2.331  66.787322
2.330  66.770693
2.329  66.742307
2.328  66.731886
2.327  66.756741
2.326  66.783952
2.325  66.729224
2.324  66.749316
2.323  66.746585
2.322  66.793807
2.321  66.767325
2.320  66.788804
2.319  66.730019
2.318  66.738490
2.317  66.774149
2.316  66.771026
2.315  66.782578
2.314  66.783876
2.313  66.793657
2.312  66.785056
2.311  66.726087
2.310  66.769269
2.309  66.773663
2.308  66.790123
2.307  66.760701
2.306  66.762407
2.305  66.718607
2.304  66.760193
2.303  66.757295
2.302  66.774834
2.301  66.787943
2.300  66.777299
2.299  66.742219
2.298  66.761646
2.297  66.788397
2.296  66.769859
2.295  66.750282
2.294  66.822173
2.293  66.791946
2.292  66.752101
2.291  66.762742
2.290  66.789579
2.289  66.726350
2.288  66.765856
2.287  66.786330
2.286  66.796877
2.285  66.739157
2.284  66.778979
2.283  66.762273
2.282  66.773879
2.281  66.739937
2.280  66.799356
2.279  66.743491
2.278  66.766912
2.277  66.728029
2.276  66.736556
2.275  66.812115
2.274  66.830977
2.273  66.836807
2.272  66.843639
2.271  66.726602
2.270  66.805279
2.269  66.763769
2.268  66.739120
2.267  66.760074
2.266  66.788705
2.265  66.792110
2.264  66.855103
2.263  66.822213
2.262  66.839103
2.261  66.771493
2.260  66.828342
2.259  66.840726
2.258  66.877964
2.257  66.779005
2.256  66.823540
2.255  66.793916
2.254  66.795788
2.253  66.762077
2.252  66.907761
2.251  66.860971
2.250  66.876156
2.249  66.833926
2.248  66.986621
2.247  66.873281
2.246  66.913249
2.245  66.879806
2.244  66.951715
2.243  66.946906
2.242  66.962571
2.241  66.957552
2.240  66.935354
2.239  66.940174
2.238  66.946708
2.237  66.989423
2.236  67.033417
2.235  66.997704
2.234  67.008405
2.233  66.947320
2.232  67.040159
2.231  67.089538
2.230  67.101636
2.229  67.078498
2.228  67.130008
2.227  67.069802
2.226  67.128322
2.225  67.154232
2.224  67.225657
2.223  67.174712
2.222  67.101881
2.221  67.179436
2.220  67.169283
2.219  67.174398
2.218  67.179781
2.217  67.189361
2.216  67.257520
2.215  67.225992
2.214  67.310014
2.213  67.315219
2.212  67.380303
2.211  67.300449
2.210  67.374886
2.209  67.295983
2.208  67.419427
2.207  67.407883
2.206  67.438180
2.205  67.442373
2.204  67.523372
2.203  67.671182
2.202  67.562735
2.201  67.548624
2.200  67.672004
2.199  67.658406
2.198  67.659570
2.197  67.603830
2.196  67.697295
2.195  67.685638
2.194  67.742015
2.193  67.646642
2.192  67.695661
2.191  67.721824
2.190  67.740622
2.189  67.767405
2.188  67.763994
2.187  67.714752
2.186  67.853464
2.185  67.797154
2.184  67.881141
2.183  67.810039
2.182  67.860323
2.181  67.865270
2.180  67.894467
2.179  67.966987
2.178  68.017176
2.177  68.016495
2.176  68.022230
2.175  68.066701
2.174  68.042997
2.173  68.074435
2.172  68.112069
2.171  68.124556
2.170  68.162652
2.169  68.169467
2.168  68.226139
2.167  68.193043
2.166  68.274192
2.165  68.286591
2.164  68.304250
2.163  68.367666
2.162  68.344591
2.161  68.386712
2.160  68.497434
2.159  68.438584
2.158  68.479953
2.157  68.451327
2.156  68.564488
2.155  68.602225
2.154  68.582127
2.153  68.627930
2.152  68.650949
2.151  68.641624
2.150  68.675687
2.149  68.646299
2.148  68.707754
2.147  68.667882
2.146  68.635454
2.145  68.638204
2.144  68.675928
2.143  68.676826
2.142  68.709529
2.141  68.728712
2.140  68.727643
2.139  68.680647
2.138  68.689499
2.137  68.712677
2.136  68.661052
2.135  68.678830
2.134  68.675678
2.133  68.622804
2.132  68.621520
2.131  68.649577
2.130  68.674306
2.129  68.638843
2.128  68.617544
2.127  68.570171
2.126  68.620484
2.125  68.605273
2.124  68.514578
2.123  68.451419
2.122  68.445817
2.121  68.458887
2.120  68.420852
2.119  68.372779
2.118  68.389167
2.117  68.324470
2.116  68.273519
2.115  68.199611
2.114  68.242531
2.113  68.265087
2.112  68.270757
2.111  68.148137
2.110  68.142228
2.109  68.127765
2.108  68.128208
2.107  68.082411
2.106  68.000396
2.105  67.982856
2.104  67.969483
2.103  67.952681
2.102  67.975255
2.101  67.919070
2.100  67.889509
2.099  67.874860
2.098  67.916678
2.097  67.919801
2.096  67.985633
2.095  68.017798
2.094  68.006853
2.093  68.004441
2.092  68.029924
2.091  68.051746
2.090  68.072740
2.089  68.111648
2.088  68.121400
2.087  68.124681
2.086  68.132444
2.085  68.126077
2.084  68.156748
2.083  68.143384
2.082  68.200960
2.081  68.243882
2.080  68.231290
2.079  68.246990
2.078  68.266394
2.077  68.282212
2.076  68.324380
2.075  68.323244
2.074  68.348725
2.073  68.377618
2.072  68.405966
2.071  68.427364
2.070  68.420139
2.069  68.424518
2.068  68.445970
2.067  68.430458
2.066  68.465604
2.065  68.535064
2.064  68.526694
2.063  68.546868
2.062  68.530284
2.061  68.598100
2.060  68.613466
2.059  68.608861
2.058  68.623093
2.057  68.624072
2.056  68.638717
2.055  68.676988
2.054  68.675046
2.053  68.683409
2.052  68.719490
2.051  68.753345
2.050  68.747294
2.049  68.747501
2.048  68.770635
2.047  68.830527
2.046  68.848917
2.045  68.831038
2.044  68.855294
2.043  68.893253
2.042  68.914781
2.041  68.919207
2.040  68.906574
2.039  68.902824
2.038  68.926157
2.037  68.960457
2.036  68.945985
2.035  69.006953
2.034  69.002971
2.033  68.987029
2.032  68.986220
2.031  68.981931
2.030  69.004671
2.029  69.038479
2.028  69.025552
2.027  69.058188
2.026  69.041748
2.025  69.022836
2.024  69.015999
2.023  69.044958
2.022  69.062116
2.021  69.051176
2.020  69.022184
2.019  69.065616
2.018  69.152099
2.017  69.125315
2.016  69.060645
2.015  69.132812
2.014  69.077202
2.013  69.076543
2.012  69.112066
2.011  69.135911
2.010  69.142228
2.009  69.185231
2.008  69.157544
2.007  69.153710
2.006  69.138914
2.005  69.161028
2.004  69.165660
2.003  69.209545
2.002  69.170502
2.001  69.239554
2.000  69.200950
1.999  69.200328
1.998  69.141202
1.997  69.192633
1.996  69.143780
1.995  69.174744
1.994  69.146980
1.993  69.178595
1.992  69.219285
1.991  69.173054
1.990  69.151148
1.989  69.171162
1.988  69.081321
1.987  69.163683
1.986  69.140965
1.985  69.159511
1.984  69.081726
1.983  69.223973
1.982  69.122869
1.981  69.157200
1.980  69.086418
1.979  69.057341
1.978  69.146055
1.977  69.124387
1.976  69.079067
1.975  69.154456
1.974  69.108378
1.973  69.120389
1.972  69.163218
1.971  69.101161
1.970  69.082536
1.969  69.030777
1.968  69.120839
1.967  69.051517
1.966  69.035061
1.965  69.093492
1.964  69.074105
1.963  69.126898
1.962  69.164116
1.961  69.091643
1.960  69.088176
1.959  69.125966
1.958  69.037534
1.957  69.054353
1.956  69.013218
1.955  69.078397
1.954  69.055018
1.953  69.067867
1.952  69.042692
1.951  69.109679
1.950  69.143329
1.949  69.035002
1.948  69.158390
1.947  69.125613
1.946  69.184728
1.945  69.118750
1.944  69.131723
1.943  69.048124
1.942  69.157843
1.941  69.113532
1.940  69.145919
1.939  69.153154
1.938  69.032745
1.937  69.201305
1.936  69.199248
1.935  69.150788
1.934  69.092117
1.933  69.154377
1.932  69.168931
1.931  69.246315
1.930  69.137108
1.929  69.193112
1.928  69.189409
1.927  69.282650
1.926  69.146603
1.925  69.189543
1.924  69.181621
1.923  69.237927
1.922  69.244218
1.921  69.302342
1.920  69.268325
1.919  69.301911
1.918  69.306423
1.917  69.332479
1.916  69.338489
1.915  69.355707
1.914  69.285133
1.913  69.438463
1.912  69.418007
1.911  69.458868
1.910  69.444172
1.909  69.488222
1.908  69.575018
1.907  69.634913
1.906  69.611211
1.905  69.734706
1.904  69.881789
1.903  69.885006
1.902  69.942601
1.901  70.027540
1.900  70.078510
1.899  70.220270
1.898  70.171342
1.897  70.263506
1.896  70.351484
1.895  70.439190
1.894  70.458674
1.893  70.557509
1.892  70.583280
1.891  70.669363
1.890  70.743675
1.889  70.864604
1.888  70.853212
1.887  70.915612
1.886  70.946375
1.885  70.956385
1.884  71.004754
1.883  71.007968
1.882  71.069273
1.881  71.053800
1.880  71.122747
1.879  71.182940
1.878  71.250427
1.877  71.266813
1.876  71.208988
1.875  71.327240
1.874  71.307615
1.873  71.375080
1.872  71.347780
1.871  71.324921
1.870  71.401367
1.869  71.457761
1.868  71.441431
1.867  71.481588
1.866  71.486276
1.865  71.515313
1.864  71.547343
1.863  71.557396
1.862  71.564042
1.861  71.609957
1.860  71.619921
1.859  71.617500
1.858  71.574629
1.857  71.607457
1.856  71.643573
1.855  71.735901
1.854  71.655302
1.853  71.658366
1.852  71.681933
1.851  71.700597
1.850  71.672384
1.849  71.717547
1.848  71.736184
1.847  71.770843
1.846  71.790448
1.845  71.807000
1.844  71.721941
1.843  71.764223
1.842  71.779231
1.841  71.819410
1.840  71.790888
1.839  71.801117
1.838  71.854240
1.837  71.852911
1.836  71.829514
1.835  71.864361
1.834  71.908727
1.833  71.867678
1.832  71.836066
1.831  71.821318
1.830  71.798692
1.829  71.839260
1.828  71.853441
1.827  71.895225
1.826  71.847910
1.825  71.868923
1.824  71.906618
1.823  71.889861
1.822  71.880703
1.821  71.876488
1.820  71.884440
1.819  71.926014
1.818  71.920888
1.817  71.939533
1.816  71.913858
1.815  71.921136
1.814  72.013570
1.813  72.012576
1.812  71.947856
1.811  71.979500
1.810  71.998424
1.809  72.000312
1.808  71.977418
1.807  71.997991
1.806  71.984747
1.805  71.998884
1.804  72.043941
1.803  72.060091
1.802  72.023381
1.801  72.033762
1.800  72.056186
1.799  72.003277
1.798  72.028954
1.797  72.043331
1.796  71.996038
1.795  71.945504
1.794  71.935321
1.793  71.975777
1.792  72.009861
1.791  71.982115
1.790  71.980039
1.789  71.989265
1.788  71.963734
1.787  71.959423
1.786  71.943320
1.785  71.977302
1.784  72.013182
1.783  72.035971
1.782  72.004975
1.781  71.937839
1.780  71.939327
1.779  71.918944
1.778  71.959717
1.777  71.946685
1.776  71.923430
1.775  71.934598
1.774  71.962055
1.773  71.961319
1.772  71.930421
1.771  71.961736
1.770  71.970772
1.769  71.950700
1.768  71.933446
1.767  71.903259
1.766  71.939696
1.765  71.891686
1.764  71.905882
1.763  71.940677
1.762  71.900216
1.761  71.866663
1.760  71.915531
1.759  71.885909
1.758  71.899747
1.757  71.897715
1.756  71.837534
1.755  71.883060
1.754  71.889005
1.753  71.870899
1.752  71.932070
1.751  71.908085
1.750  71.895970
1.749  71.908297
1.748  71.942355
1.747  71.849966
1.746  71.887138
1.745  71.921287
1.744  71.967091
1.743  71.879999
1.742  71.896584
1.741  71.932037
1.740  71.934876
1.739  71.878212
1.738  71.881376
1.737  71.873781
1.736  71.857046
1.735  71.812132
1.734  71.840534
1.733  71.906106
1.732  71.895752
1.731  71.858053
1.730  71.885674
1.729  71.863038
1.728  71.879690
1.727  71.863077
1.726  71.876255
1.725  71.811472
1.724  71.809258
1.723  71.850934
1.722  71.897129
1.721  71.845543
1.720  71.826534
1.719  71.819097
1.718  71.856482
1.717  71.783946
1.716  71.837876
1.715  71.742665
1.714  71.778313
1.713  71.795476
1.712  71.761504
1.711  71.723368
1.710  71.803015
1.709  71.724259
1.708  71.751570
1.707  71.686272
1.706  71.637613
1.705  71.656783
1.704  71.750782
1.703  71.704826
1.702  71.604006
1.701  71.657946
1.700  71.626022
1.699  71.614597
1.698  71.598428
1.697  71.594902
1.696  71.699848
1.695  71.618562
1.694  71.631763
1.693  71.571733
1.692  71.569973
1.691  71.534020
1.690  71.543571
1.689  71.473328
1.688  71.535726
1.687  71.564687
1.686  71.535149
1.685  71.510619
1.684  71.543534
1.683  71.476869
1.682  71.511433
1.681  71.546789
1.680  71.450072
1.679  71.485833
1.678  71.504419
1.677  71.477257
1.676  71.440226
1.675  71.439931
1.674  71.429727
1.673  71.415354
1.672  71.366553
1.671  71.365684
1.670  71.376386
1.669  71.426750
1.668  71.388408
1.667  71.338524
1.666  71.403161
1.665  71.300326
1.664  71.317053
1.663  71.242304
1.662  71.387648
1.661  71.314279
1.660  71.335864
1.659  71.231151
1.658  71.300475
1.657  71.294999
1.656  71.284318
1.655  71.261517
1.654  71.276147
1.653  71.163969
1.652  71.235197
1.651  71.193339
1.650  71.142520
1.649  71.175781
1.648  71.225518
1.647  71.145616
1.646  71.197067
1.645  71.107250
1.644  71.200814
1.643  71.124230
1.642  71.246758
1.641  71.049517
1.640  71.186653
1.639  71.041618
1.638  71.124469
1.637  71.030656
1.636  71.108291
1.635  70.954964
1.634  71.039288
1.633  70.973658
1.632  71.051006
1.631  71.032144
1.630  70.988940
1.629  70.990786
1.628  71.033928
1.627  70.995400
1.626  71.005703
1.625  70.918386
1.624  71.035733
1.623  70.958149
1.622  70.915848
1.621  70.914543
1.620  70.948315
1.619  70.906173
1.618  70.912185
1.617  70.821662
1.616  70.833867
1.615  70.819920
1.614  70.788039
1.613  70.824439
1.612  70.870660
1.611  70.775681
1.610  70.854747
1.609  70.733541
1.608  70.844718
1.607  70.818648
1.606  70.793489
1.605  70.777335
1.604  70.770020
1.603  70.702114
1.602  70.769361
1.601  70.735988
1.600  70.775762
1.599  70.643979
1.598  70.664356
1.597  70.745006
1.596  70.768979
1.595  70.705275
1.594  70.713999
1.593  70.669715
1.592  70.711529
1.591  70.637905
1.590  70.676601
1.589  70.583195
1.588  70.633131
1.587  70.573965
1.586  70.591447
1.585  70.602015
1.584  70.621576
1.583  70.548583
1.582  70.568172
1.581  70.604255
1.580  70.561835
1.579  70.568922
1.578  70.549457
1.577  70.512272
1.576  70.480328
1.575  70.494548
1.574  70.482792
1.573  70.466495
1.572  70.494402
1.571  70.463710
1.570  70.494708
1.569  70.458574
1.568  70.469231
1.567  70.435508
1.566  70.446377
1.565  70.390174
1.564  70.357996
1.563  70.352429
1.562  70.391311
1.561  70.374742
1.560  70.384862
1.559  70.341627
1.558  70.362317
1.557  70.329227
1.556  70.371255
1.555  70.339141
1.554  70.326079
1.553  70.291711
1.552  70.304277
1.551  70.302487
1.550  70.339404
1.549  70.313365
1.548  70.318313
1.547  70.240055
1.546  70.255832
1.545  70.280310
1.544  70.217171
1.543  70.212309
1.542  70.201929
1.541  70.169565
1.540  70.238364
1.539  70.279385
1.538  70.192173
1.537  70.178617
1.536  70.200543
1.535  70.155998
1.534  70.185598
1.533  70.189524
1.532  70.195671
1.531  70.163243
1.530  70.106548
1.529  70.125599
1.528  70.139941
1.527  70.133842
1.526  70.157517
1.525  70.074464
1.524  70.065100
1.523  70.075844
1.522  70.092286
1.521  70.089898
1.520  70.141450
1.519  70.084571
1.518  70.069764
1.517  70.097527
1.516  70.074224
1.515  70.016716
1.514  70.019749
1.513  70.017193
1.512  70.023335
1.511  70.002985
1.510  70.024153
1.509  70.012895
1.508  70.004486
1.507  70.001974
1.506  69.998110
1.505  69.977659
1.504  69.944346
1.503  69.988784
1.502  69.988166
1.501  69.980685
1.500  69.983237
1.499  69.968269
1.498  69.987944
1.497  69.957232
1.496  69.932923
1.495  69.925346
1.494  69.916066
1.493  69.910468
1.492  69.910315
1.491  69.898226
1.490  69.920902
1.489  69.940104
1.488  69.875272
1.487  69.827280
1.486  69.845212
1.485  69.869615
1.484  69.857955
1.483  69.854440
1.482  69.793238
1.481  69.787329
1.480  69.829596
1.479  69.866251
1.478  69.830874
1.477  69.781776
1.476  69.817857
1.475  69.828860
1.474  69.756630
1.473  69.838590
1.472  69.801498
1.471  69.756054
1.470  69.763261
1.469  69.725259
1.468  69.729873
1.467  69.759086
1.466  69.747414
1.465  69.754870
1.464  69.782222
1.463  69.779612
1.462  69.727806
1.461  69.724016
1.460  69.739938
1.459  69.686915
1.458  69.681398
1.457  69.752255
1.456  69.665727
1.455  69.725924
1.454  69.746512
1.453  69.708935
1.452  69.674619
1.451  69.680488
1.450  69.641066
1.449  69.629497
1.448  69.616606
1.447  69.647813
1.446  69.609481
1.445  69.604541
1.444  69.625118
1.443  69.666872
1.442  69.657178
1.441  69.640057
1.440  69.611471
1.439  69.612918
1.438  69.572001
1.437  69.641098
1.436  69.643620
1.435  69.586125
1.434  69.498335
1.433  69.509665
1.432  69.469716
1.431  69.504810
1.430  69.508489
1.429  69.486939
1.428  69.517058
1.427  69.540134
1.426  69.496282
1.425  69.487486
1.424  69.422162
1.423  69.367212
1.422  69.387674
1.421  69.414189
1.420  69.402311
1.419  69.325335
