Name: Aplite
Type: Rock
Class: Igneous
Subclass:  Felsic 
Particle Size: Solid surface
Sample No.: Ward16.txt
Owner: JPL
Wavelength range:  IR 
Origin: Ward's Collection of American Rocks.  Sample locality - Boulder County, Colorado.
Collected by:  Ward's Natural Science
Description: A fine-grained pink rock composed of quartz, glassy feldspar
and biotite.  The hand specimen occasionally has irregular stringers and
patches of coarser grain.
Geologic age - Pre-Cambrian.


Measurement: Hemispherical reflectance
First Column: X
Second Column: Y
X Units: Wavelength (micrometers)
Y Units: Reflectance (percent)
First X Value: 15.3871
Last X Value: 1.9998
Number of X Values: 2257
Additional information: None

15.3871   6.70959
15.3416   6.20549
15.2964   6.03413
15.2514   6.12168
15.2066   5.53143
15.1622   4.65053
15.1180   4.81340
15.0740   4.94411
15.0303   4.45378
14.9869   4.01431
14.9437   3.50701
14.9008   3.63227
14.8581   3.95236
14.8156   4.56611
14.7734   5.40203
14.7314   4.74207
14.6897   3.65734
14.6482   4.40522
14.6069   5.10588
14.5659   4.83494
14.5251   4.88564
14.4845   5.09889
14.4442   5.43118
14.4041   5.25611
14.3642   4.80897
14.3245   4.46122
14.2850   4.31338
14.2458   4.92665
14.2068   6.04863
14.1679   6.08001
14.1293   5.44811
14.0909   5.01280
14.0528   5.06924
14.0148   5.77845
13.9770   6.06353
13.9394   6.13844
13.9021   5.92217
13.8649   5.81159
13.8279   6.17514
13.7911   6.78649
13.7546   6.69591
13.7182   6.21363
13.6820   6.49248
13.6460   7.15210
13.6101   7.07745
13.5745   6.22924
13.5391   5.65438
13.5038   5.77482
13.4687   6.15882
13.4339   6.09320
13.3991   6.54521
13.3646   6.68300
13.3302   6.24766
13.2961   5.92651
13.2621   6.16794
13.2282   6.67849
13.1946   6.94766
13.1611   7.11698
13.1278   7.49747
13.0946   7.81188
13.0616   8.25091
13.0288   8.25332
12.9962   8.17176
12.9637   8.20553
12.9313   8.56305
12.8992   9.35844
12.8672  10.14410
12.8353  10.45540
12.8036  10.51340
12.7721  10.38400
12.7407   9.79630
12.7095   8.43537
12.6784   7.60759
12.6475   7.21977
12.6167   7.13706
12.5861   7.55627
12.5556   8.23155
12.5253   8.73978
12.4951   9.15840
12.4651   8.71406
12.4352   7.94249
12.4054   7.25723
12.3758   5.82203
12.3463   3.94671
12.3170   3.49384
12.2878   3.39450
12.2588   3.13101
12.2299   3.69850
12.2011   4.04196
12.1725   3.77591
12.1439   3.45743
12.1156   3.69771
12.0873   4.50712
12.0592   4.80170
12.0312   4.33968
12.0034   4.40088
11.9757   4.90403
11.9481   5.00277
11.9206   5.25602
11.8933   5.55334
11.8661   5.71837
11.8390   6.04952
11.8120   5.83807
11.7852   5.32436
11.7584   5.52524
11.7318   5.80452
11.7053   5.86272
11.6790   6.09391
11.6527   6.10004
11.6266   6.19407
11.6006   6.53450
11.5747   6.53998
11.5489   6.49655
11.5233   6.51079
11.4977   6.75444
11.4723   6.76399
11.4469   6.58522
11.4217   6.74255
11.3966   7.01323
11.3716   6.89351
11.3468   7.03222
11.3220   7.17492
11.2973   7.49002
11.2728   7.50116
11.2483   7.27947
11.2240   7.58202
11.1997   7.84793
11.1756   7.92690
11.1515   7.90750
11.1276   7.92192
11.1038   7.90441
11.0801   7.84480
11.0564   7.87126
11.0329   8.10010
11.0095   8.36057
10.9862   8.25451
10.9629   8.70905
10.9398   9.03135
10.9168   8.86625
10.8938   8.86006
10.8710   9.17154
10.8483   9.23253
10.8256   9.28043
10.8031   9.41954
10.7806   9.61509
10.7582   9.81484
10.7360   9.88576
10.7138   9.78054
10.6917   9.84388
10.6697   9.80501
10.6478   9.71834
10.6260   9.93602
10.6042  10.53170
10.5826  10.79280
10.5610  10.90880
10.5396  10.82520
10.5182  11.05280
10.4969  11.52360
10.4757  11.96100
10.4546  12.22990
10.4335  12.22930
10.4126  12.20160
10.3917  12.50690
10.3709  12.87610
10.3502  13.05030
10.3296  13.45010
10.3091  14.04560
10.2886  14.17360
10.2683  14.40460
10.2480  14.74300
10.2277  15.24050
10.2076  15.73740
10.1876  16.43550
10.1676  17.02780
10.1477  17.59950
10.1279  18.25140
10.1081  19.03730
10.0885  19.41420
10.0689  19.81590
10.0494  20.43970
10.0299  21.40860
10.0106  22.35780
 9.9913  23.06100
 9.9720  23.64940
 9.9529  23.83520
 9.9338  24.34770
 9.9148  25.11670
 9.8959  25.25670
 9.8771  25.47560
 9.8583  25.70890
 9.8396  25.55610
 9.8210  25.46300
 9.8024  25.76120
 9.7839  25.74750
 9.7655  25.65700
 9.7471  25.74740
 9.7288  25.89490
 9.7106  26.19990
 9.6925  26.60350
 9.6744  26.86840
 9.6564  27.17940
 9.6384  27.50290
 9.6205  28.14460
 9.6027  28.73690
 9.5850  29.01990
 9.5673  29.05020
 9.5497  29.21080
 9.5321  29.46390
 9.5146  30.00160
 9.4972  30.61990
 9.4798  30.78880
 9.4625  30.59810
 9.4453  30.62400
 9.4281  30.82480
 9.4110  31.63970
 9.3940  32.49890
 9.3770  33.28700
 9.3600  34.17680
 9.3432  35.27720
 9.3264  36.11590
 9.3096  37.15170
 9.2930  37.75280
 9.2763  38.13100
 9.2598  38.39930
 9.2432  38.78330
 9.2268  38.78760
 9.2104  38.56240
 9.1941  38.67920
 9.1778  38.67710
 9.1616  38.23590
 9.1454  37.60840
 9.1293  37.29880
 9.1133  36.76880
 9.0973  36.16670
 9.0814  35.75020
 9.0655  35.13670
 9.0497  34.32680
 9.0339  33.94910
 9.0182  34.10880
 9.0025  34.02550
 8.9870  33.91730
 8.9714  34.01380
 8.9559  34.20850
 8.9405  34.57670
 8.9251  35.31570
 8.9097  35.45180
 8.8945  35.39290
 8.8792  35.43770
 8.8641  35.50180
 8.8489  35.63180
 8.8338  35.68580
 8.8188  35.67540
 8.8039  35.67860
 8.7889  35.85170
 8.7741  36.15100
 8.7592  35.99720
 8.7445  35.53520
 8.7297  35.49740
 8.7151  35.37340
 8.7005  34.73260
 8.6859  34.21350
 8.6714  33.50140
 8.6569  32.01650
 8.6425  30.21740
 8.6281  29.51610
 8.6137  30.49250
 8.5994  32.33170
 8.5852  33.76820
 8.5710  34.74470
 8.5569  35.38650
 8.5428  35.36190
 8.5287  35.21300
 8.5147  35.52680
 8.5008  35.65660
 8.4869  35.22520
 8.4730  34.80220
 8.4592  34.80640
 8.4454  34.74050
 8.4316  34.20760
 8.4180  33.77260
 8.4043  33.59170
 8.3907  33.49890
 8.3772  33.21670
 8.3637  32.56220
 8.3502  31.89630
 8.3368  31.36340
 8.3234  30.79880
 8.3100  30.23800
 8.2967  29.34620
 8.2835  28.48840
 8.2703  28.01470
 8.2571  27.30810
 8.2440  26.48110
 8.2309  25.73320
 8.2179  25.05760
 8.2049  24.37690
 8.1919  23.53460
 8.1790  22.77620
 8.1661  21.85860
 8.1532  20.73010
 8.1404  19.28110
 8.1277  17.38660
 8.1150  15.98230
 8.1023  14.57410
 8.0897  13.30900
 8.0770  12.20010
 8.0645  11.07650
 8.0520  10.19390
 8.0395   9.57913
 8.0270   8.75097
 8.0146   7.92417
 8.0023   7.25970
 7.9899   6.68700
 7.9776   6.25801
 7.9654   5.82186
 7.9532   5.11089
 7.9410   4.53171
 7.9288   4.34066
 7.9167   4.22657
 7.9047   4.15140
 7.8926   3.65741
 7.8807   3.05314
 7.8687   2.84213
 7.8568   2.74390
 7.8449   2.60634
 7.8330   2.53478
 7.8212   2.43270
 7.8094   2.24441
 7.7977   2.16565
 7.7860   2.14568
 7.7743   2.01371
 7.7627   1.73012
 7.7511   1.55813
 7.7395   1.66318
 7.7280   1.61681
 7.7165   1.47703
 7.7050   1.51907
 7.6936   1.33730
 7.6822   1.04281
 7.6708   0.95735
 7.6595   0.97164
 7.6482   0.97964
 7.6369   1.07217
 7.6257   1.12127
 7.6145   1.09583
 7.6033   1.03879
 7.5922   1.04799
 7.5811   1.07977
 7.5700   1.13408
 7.5590   1.11183
 7.5480   0.93016
 7.5370   1.10384
 7.5261   1.18632
 7.5152   1.32984
 7.5043   1.29309
 7.4935   0.87204
 7.4826   0.79570
 7.4718   0.82246
 7.4611   0.65266
 7.4504   0.60923
 7.4397   0.93321
 7.4290   1.09922
 7.4184   1.04868
 7.4078   1.26869
 7.3972   1.09397
 7.3867   0.95219
 7.3762   1.01234
 7.3657   0.94810
 7.3553   0.78699
 7.3449   0.86712
 7.3345   1.09457
 7.3241   0.95931
 7.3138   0.93355
 7.3035   1.27052
 7.2932   1.25557
 7.2830   1.01785
 7.2727   0.96982
 7.2626   1.07163
 7.2524   1.16339
 7.2423   1.30545
 7.2322   1.46437
 7.2221   1.29917
 7.2120   1.14879
 7.2020   1.08606
 7.1921   1.01208
 7.1821   0.98171
 7.1722   1.23286
 7.1623   1.36138
 7.1524   1.32261
 7.1425   1.32519
 7.1327   1.68238
 7.1229   1.71094
 7.1131   1.43493
 7.1034   1.35879
 7.0937   1.50593
 7.0840   1.54352
 7.0743   1.30781
 7.0647   1.01077
 7.0551   1.13577
 7.0455   1.53326
 7.0359   1.62260
 7.0264   1.73890
 7.0169   1.76431
 7.0074   1.42802
 6.9979   1.39879
 6.9885   1.32045
 6.9791   1.26477
 6.9697   1.54478
 6.9604   1.68815
 6.9510   1.67142
 6.9417   1.53137
 6.9324   1.46528
 6.9232   1.64975
 6.9140   1.56731
 6.9047   1.38003
 6.8956   1.55780
 6.8864   1.61667
 6.8773   1.54443
 6.8682   1.55829
 6.8591   1.49092
 6.8500   1.41029
 6.8410   1.63249
 6.8320   1.74071
 6.8230   1.76473
 6.8140   1.85125
 6.8051   1.69862
 6.7962   1.67229
 6.7873   1.83654
 6.7784   1.68606
 6.7695   1.58671
 6.7607   1.75557
 6.7519   1.68814
 6.7431   1.75965
 6.7344   1.69577
 6.7256   1.63269
 6.7169   1.83222
 6.7082   1.82869
 6.6996   1.77689
 6.6909   1.87198
 6.6823   1.98169
 6.6737   1.92568
 6.6651   1.79283
 6.6566   1.85935
 6.6480   1.96342
 6.6395   1.98035
 6.6310   1.92754
 6.6226   1.83038
 6.6141   1.77266
 6.6057   1.89948
 6.5973   1.88881
 6.5889   1.86383
 6.5805   2.01842
 6.5722   2.24783
 6.5639   2.04591
 6.5556   1.69649
 6.5473   1.58016
 6.5390   1.68431
 6.5308   1.85793
 6.5226   1.89299
 6.5144   1.99650
 6.5062   2.05699
 6.4981   2.11329
 6.4900   2.17376
 6.4818   2.08037
 6.4737   2.02789
 6.4657   2.23055
 6.4576   2.24902
 6.4496   2.25010
 6.4416   2.33873
 6.4336   2.50594
 6.4256   2.24741
 6.4177   1.80758
 6.4097   1.97385
 6.4018   2.46657
 6.3939   2.50285
 6.3860   2.31275
 6.3782   2.12248
 6.3704   2.23631
 6.3625   2.48965
 6.3547   2.40539
 6.3470   2.11438
 6.3392   2.05422
 6.3315   2.03020
 6.3237   2.23905
 6.3160   2.42245
 6.3083   2.27476
 6.3007   2.31331
 6.2930   2.62474
 6.2854   2.51028
 6.2778   2.18948
 6.2702   2.09564
 6.2626   2.16476
 6.2551   2.19808
 6.2476   2.35679
 6.2400   2.35834
 6.2325   2.21272
 6.2251   2.12211
 6.2176   2.26869
 6.2101   2.44273
 6.2027   2.55227
 6.1953   2.40747
 6.1879   2.36428
 6.1805   2.36710
 6.1732   2.32835
 6.1658   2.37710
 6.1585   2.50168
 6.1512   2.23849
 6.1439   2.06258
 6.1367   2.44743
 6.1294   2.74048
 6.1222   2.45073
 6.1149   2.33186
 6.1077   2.33591
 6.1006   2.49957
 6.0934   2.39759
 6.0862   2.30182
 6.0791   2.37751
 6.0720   2.40707
 6.0649   2.40956
 6.0578   2.26528
 6.0507   2.47008
 6.0437   2.56683
 6.0366   2.47805
 6.0296   2.66040
 6.0226   2.65431
 6.0156   2.54828
 6.0087   2.45667
 6.0017   2.43844
 5.9948   2.47431
 5.9878   2.50148
 5.9809   2.55718
 5.9740   2.66524
 5.9672   2.76554
 5.9603   2.61376
 5.9535   2.46016
 5.9466   2.35483
 5.9398   2.46052
 5.9330   2.62790
 5.9262   2.47005
 5.9195   2.16453
 5.9127   2.42671
 5.9060   2.50547
 5.8993   2.61897
 5.8926   2.87934
 5.8859   2.81794
 5.8792   2.75104
 5.8726   2.78089
 5.8659   2.80529
 5.8593   2.58738
 5.8527   2.38089
 5.8461   2.36905
 5.8395   2.66007
 5.8329   2.74817
 5.8264   2.71341
 5.8198   2.77825
 5.8133   2.74821
 5.8068   2.58259
 5.8003   2.64490
 5.7938   2.78954
 5.7874   2.91849
 5.7809   2.91738
 5.7745   2.75143
 5.7680   2.73811
 5.7616   2.70792
 5.7552   2.82674
 5.7489   2.79648
 5.7425   2.61707
 5.7361   2.67529
 5.7298   2.82013
 5.7235   2.87521
 5.7172   2.90726
 5.7109   2.95141
 5.7046   2.94886
 5.6983   2.84706
 5.6921   2.91808
 5.6858   2.94135
 5.6796   3.05819
 5.6734   2.91726
 5.6672   2.66408
 5.6610   2.65958
 5.6548   2.82677
 5.6487   2.78408
 5.6425   2.66964
 5.6364   2.68020
 5.6303   2.82235
 5.6242   2.85710
 5.6181   2.89434
 5.6120   2.85748
 5.6059   2.80461
 5.5999   2.74807
 5.5938   2.87300
 5.5878   2.99316
 5.5818   2.77122
 5.5758   2.73755
 5.5698   2.69188
 5.5638   2.74591
 5.5578   2.93440
 5.5519   3.11415
 5.5460   2.97009
 5.5400   2.84658
 5.5341   2.94997
 5.5282   2.93014
 5.5223   2.96332
 5.5164   3.13147
 5.5106   3.22620
 5.5047   3.12646
 5.4989   3.04900
 5.4931   2.89090
 5.4873   2.96389
 5.4815   3.15047
 5.4757   3.19732
 5.4699   3.29209
 5.4641   3.36281
 5.4584   3.31704
 5.4527   3.36585
 5.4469   3.30227
 5.4412   3.15729
 5.4355   3.02778
 5.4298   2.99900
 5.4241   3.04306
 5.4185   3.14683
 5.4128   3.20919
 5.4072   3.19060
 5.4015   3.18752
 5.3959   3.22352
 5.3903   3.19238
 5.3847   3.29444
 5.3791   3.34210
 5.3735   3.33501
 5.3680   3.36074
 5.3624   3.32543
 5.3569   3.30084
 5.3514   3.36353
 5.3458   3.34366
 5.3403   3.29522
 5.3348   3.44891
 5.3294   3.52158
 5.3239   3.37544
 5.3184   3.30397
 5.3130   3.40599
 5.3075   3.31192
 5.3021   3.24199
 5.2967   3.37208
 5.2913   3.40845
 5.2859   3.45791
 5.2805   3.45749
 5.2751   3.19722
 5.2698   3.37092
 5.2644   3.62473
 5.2591   3.53439
 5.2538   3.62658
 5.2485   3.51098
 5.2431   3.54087
 5.2378   3.81706
 5.2326   3.82492
 5.2273   3.76684
 5.2220   3.56029
 5.2168   3.70029
 5.2115   3.77907
 5.2063   3.58696
 5.2011   3.66259
 5.1959   3.83935
 5.1907   3.93275
 5.1855   3.83180
 5.1803   3.74235
 5.1751   3.76114
 5.1700   3.78441
 5.1648   3.89645
 5.1597   3.93943
 5.1545   3.88448
 5.1494   3.78971
 5.1443   3.98612
 5.1392   4.11721
 5.1341   4.08030
 5.1291   4.10969
 5.1240   4.17912
 5.1189   4.12864
 5.1139   4.10370
 5.1088   4.15529
 5.1038   4.29790
 5.0988   4.29939
 5.0938   4.24577
 5.0888   4.28981
 5.0838   4.13665
 5.0788   4.31750
 5.0738   4.43372
 5.0689   4.30161
 5.0639   4.34769
 5.0590   4.50055
 5.0541   4.46218
 5.0491   4.24953
 5.0442   4.20275
 5.0393   4.26214
 5.0344   4.33503
 5.0296   4.47530
 5.0247   4.60336
 5.0198   4.70681
 5.0150   4.64434
 5.0101   4.60186
 5.0053   4.50385
 5.0004   4.37916
 4.9956   4.26660
 4.9908   4.40448
 4.9860   4.55968
 4.9812   4.56818
 4.9765   4.57452
 4.9717   4.69417
 4.9669   4.72395
 4.9622   4.74786
 4.9574   4.73998
 4.9527   4.52269
 4.9480   4.59627
 4.9432   4.80252
 4.9385   4.68919
 4.9338   4.81367
 4.9291   4.91092
 4.9245   4.79529
 4.9198   4.81152
 4.9151   4.82263
 4.9105   4.79686
 4.9058   4.99929
 4.9012   5.27923
 4.8966   5.23793
 4.8919   5.01817
 4.8873   5.12700
 4.8827   5.23296
 4.8781   5.19165
 4.8736   5.48857
 4.8690   5.69188
 4.8644   5.40663
 4.8599   5.34865
 4.8553   5.33995
 4.8508   5.46210
 4.8462   5.72765
 4.8417   5.80854
 4.8372   5.80670
 4.8327   6.03273
 4.8282   6.09994
 4.8237   5.90472
 4.8192   5.70557
 4.8147   5.73063
 4.8103   5.74663
 4.8058   5.62975
 4.8014   5.67126
 4.7969   5.98718
 4.7925   5.96390
 4.7881   5.75332
 4.7836   5.83186
 4.7792   5.95166
 4.7748   6.01426
 4.7704   6.30765
 4.7660   6.27911
 4.7617   6.12266
 4.7573   6.14392
 4.7530   6.10756
 4.7486   6.00453
 4.7443   6.00850
 4.7399   6.05193
 4.7356   6.22368
 4.7313   6.34002
 4.7270   6.18733
 4.7226   6.11098
 4.7184   6.19533
 4.7141   6.24098
 4.7098   6.42377
 4.7055   6.41413
 4.7012   6.33540
 4.6970   6.46411
 4.6927   6.23343
 4.6885   6.02365
 4.6842   6.24707
 4.6800   6.58808
 4.6758   6.52690
 4.6716   6.30054
 4.6674   6.35527
 4.6632   6.40671
 4.6590   6.54479
 4.6548   6.50297
 4.6506   6.56700
 4.6465   6.62907
 4.6423   6.63604
 4.6382   6.56691
 4.6340   6.50597
 4.6299   6.65591
 4.6258   6.85729
 4.6216   6.98593
 4.6175   6.94608
 4.6134   6.99160
 4.6093   7.20541
 4.6052   7.12035
 4.6011   7.12712
 4.5971   7.45926
 4.5930   7.43435
 4.5889   7.46218
 4.5849   7.47553
 4.5808   7.50168
 4.5768   7.20668
 4.5727   7.12716
 4.5687   7.44291
 4.5647   7.55018
 4.5607   7.47625
 4.5567   7.70901
 4.5526   7.68215
 4.5487   7.71316
 4.5447   7.77155
 4.5407   7.74011
 4.5367   7.86846
 4.5328   7.93320
 4.5288   7.58187
 4.5248   7.42800
 4.5209   7.64544
 4.5170   7.89188
 4.5130   7.76457
 4.5091   7.79052
 4.5052   7.59810
 4.5013   7.49940
 4.4974   7.66973
 4.4935   7.66361
 4.4896   7.44768
 4.4857   7.32734
 4.4818   7.49716
 4.4779   7.56931
 4.4741   7.67660
 4.4702   7.89516
 4.4664   7.96135
 4.4625   7.85188
 4.4587   7.85203
 4.4549   8.01322
 4.4510   8.12289
 4.4472   7.97211
 4.4434   8.01413
 4.4396   8.44204
 4.4358   8.30976
 4.4320   7.99110
 4.4282   8.04830
 4.4245   8.20792
 4.4207   8.39692
 4.4169   8.56083
 4.4132   8.66819
 4.4094   8.76914
 4.4057   8.88509
 4.4019   9.04430
 4.3982   9.09986
 4.3945   9.14200
 4.3907   9.31861
 4.3870   9.27476
 4.3833   9.16574
 4.3796   9.12456
 4.3759   9.02980
 4.3722   9.17598
 4.3685   9.36664
 4.3649   9.61200
 4.3612   9.83185
 4.3575   9.97753
 4.3539   9.92629
 4.3502  10.01950
 4.3466  10.22200
 4.3429  10.44390
 4.3393  10.39320
 4.3357  10.30230
 4.3320  10.62650
 4.3284  10.85330
 4.3248  10.72820
 4.3212  10.69820
 4.3176  10.74260
 4.3140  10.96180
 4.3105  11.07390
 4.3069  10.91830
 4.3033  10.73310
 4.2997  10.72530
 4.2962  10.95710
 4.2926  11.37790
 4.2890  11.45100
 4.2855  11.29210
 4.2820  11.43110
 4.2784  11.58320
 4.2749  11.61280
 4.2714  11.44090
 4.2679  11.37610
 4.2644  11.25560
 4.2609  11.48740
 4.2574  11.68090
 4.2539  11.93560
 4.2504  12.09560
 4.2469  12.01730
 4.2434  12.22700
 4.2400  12.46840
 4.2365  12.35400
 4.2330  12.38060
 4.2296  12.33580
 4.2261  12.14530
 4.2227  12.20050
 4.2193  12.28370
 4.2158  12.35910
 4.2124  12.60190
 4.2090  12.39520
 4.2056  11.95230
 4.2022  12.06720
 4.1988  12.54330
 4.1954  12.65880
 4.1920  12.42940
 4.1886  12.54200
 4.1852  12.78230
 4.1818  12.70150
 4.1785  12.57260
 4.1751  12.93320
 4.1717  13.06300
 4.1684  13.11660
 4.1650  12.99450
 4.1617  12.98910
 4.1584  13.20400
 4.1550  13.15020
 4.1517  12.95100
 4.1484  12.96630
 4.1451  12.99510
 4.1418  13.27400
 4.1384  13.64320
 4.1351  13.80390
 4.1319  13.97000
 4.1286  13.94970
 4.1253  13.99870
 4.1220  14.03670
 4.1187  13.87050
 4.1155  13.95080
 4.1122  14.15300
 4.1089  14.07120
 4.1057  13.95940
 4.1024  14.09080
 4.0992  13.97560
 4.0959  13.96850
 4.0927  14.15160
 4.0895  14.29210
 4.0863  14.48250
 4.0830  14.69540
 4.0798  14.99780
 4.0766  14.83830
 4.0734  14.65990
 4.0702  14.91380
 4.0670  15.03680
 4.0639  14.89770
 4.0607  14.77700
 4.0575  14.74210
 4.0543  14.61040
 4.0511  14.57940
 4.0480  14.54190
 4.0448  14.84360
 4.0417  15.05510
 4.0385  14.91480
 4.0354  15.01660
 4.0323  15.05490
 4.0291  14.72580
 4.0260  14.59950
 4.0229  14.90370
 4.0197  15.17010
 4.0166  15.16660
 4.0135  15.14840
 4.0104  15.05250
 4.0073  15.03530
 4.0042  15.19610
 4.0011  15.38270
 3.9981  15.54300
 3.9950  15.27250
 3.9919  15.22560
 3.9888  15.23610
 3.9857  15.07920
 3.9827  15.11640
 3.9796  15.14130
 3.9766  15.16570
 3.9735  15.34090
 3.9705  15.30500
 3.9675  15.18760
 3.9644  15.32260
 3.9614  15.30840
 3.9584  15.39330
 3.9554  15.55240
 3.9523  15.45050
 3.9493  15.59060
 3.9463  15.75160
 3.9433  15.62100
 3.9403  15.61300
 3.9373  16.05100
 3.9343  16.18670
 3.9314  15.73470
 3.9284  15.81650
 3.9254  16.26410
 3.9224  16.16690
 3.9195  16.10900
 3.9165  16.42150
 3.9136  16.39170
 3.9106  16.11660
 3.9077  15.98090
 3.9047  15.91620
 3.9018  15.96060
 3.8988  16.25820
 3.8959  16.26370
 3.8930  15.99170
 3.8901  15.87290
 3.8872  15.76240
 3.8842  15.67110
 3.8813  15.87290
 3.8784  16.15070
 3.8755  16.01290
 3.8726  15.89580
 3.8697  15.93770
 3.8669  16.02420
 3.8640  16.05210
 3.8611  16.11700
 3.8582  16.32030
 3.8554  16.41690
 3.8525  16.26560
 3.8496  16.24700
 3.8468  16.33670
 3.8439  16.10890
