Name: Aplite
Type: Rock
Class: Igneous
Subclass:  Felsic 
Particle Size: Solid surface
Sample No.: Ward16.txt
Owner: JPL
Wavelength range:  VNIR SWIR IR 
Origin: Ward's Collection of American Rocks.  Sample locality - Boulder County, Colorado.
Collected by:  Ward's Natural Science
Description: A fine-grained pink rock composed of quartz, glassy feldspar
and biotite.  The hand specimen occasionally has irregular stringers and
patches of coarser grain.
Geologic age - Pre-Cambrian.


Measurement: Hemispherical reflectance
First Column: X
Second Column: Y
X Units: Wavelength (micrometers)
Y Units: Reflectance (percent)
First X Value: 2.500
Last X Value: 0.400
Number of X Values: 2101
Additional information: None

2.500  20.713131
2.499  20.902239
2.498  20.807929
2.497  20.910607
2.496  20.606355
2.495  20.911880
2.494  20.920717
2.493  20.801850
2.492  20.757628
2.491  20.909030
2.490  20.698803
2.489  21.182768
2.488  20.731874
2.487  21.126076
2.486  20.968960
2.485  20.985796
2.484  20.906731
2.483  21.177662
2.482  20.995349
2.481  21.155929
2.480  21.161070
2.479  21.058166
2.478  20.983758
2.477  21.106276
2.476  21.009158
2.475  21.175365
2.474  21.034369
2.473  21.341045
2.472  21.018626
2.471  21.293526
2.470  21.144681
2.469  21.297927
2.468  21.178141
2.467  21.353370
2.466  21.376517
2.465  21.330589
2.464  21.225443
2.463  21.462397
2.462  21.224875
2.461  21.242008
2.460  21.231233
2.459  21.269432
2.458  21.302566
2.457  21.290514
2.456  21.236478
2.455  21.234505
2.454  21.155861
2.453  21.299644
2.452  21.153928
2.451  21.354730
2.450  21.183540
2.449  21.341005
2.448  21.157052
2.447  21.341182
2.446  21.198374
2.445  21.261102
2.444  21.125436
2.443  21.292185
2.442  21.279651
2.441  21.278697
2.440  21.268250
2.439  21.366321
2.438  21.326657
2.437  21.380029
2.436  21.389011
2.435  21.532578
2.434  21.353535
2.433  21.558925
2.432  21.442959
2.431  21.579758
2.430  21.590835
2.429  21.701570
2.428  21.678438
2.427  21.794537
2.426  21.760252
2.425  21.863102
2.424  21.858004
2.423  21.881342
2.422  21.886403
2.421  22.069764
2.420  22.003340
2.419  22.074507
2.418  22.036482
2.417  22.201887
2.416  22.198901
2.415  22.299942
2.414  22.303894
2.413  22.403828
2.412  22.402259
2.411  22.438898
2.410  22.399194
2.409  22.567280
2.408  22.541719
2.407  22.603883
2.406  22.644844
2.405  22.745329
2.404  22.697151
2.403  22.725273
2.402  22.769663
2.401  22.881001
2.400  22.900212
2.399  22.907430
2.398  22.815449
2.397  22.929573
2.396  22.906598
2.395  22.978754
2.394  23.022744
2.393  22.989763
2.392  22.950351
2.391  23.032936
2.390  23.016587
2.389  23.072036
2.388  23.008675
2.387  23.015541
2.386  23.095436
2.385  23.170653
2.384  23.090875
2.383  23.148157
2.382  23.119832
2.381  23.135834
2.380  23.157781
2.379  23.200491
2.378  23.207474
2.377  23.213290
2.376  23.202132
2.375  23.313102
2.374  23.321726
2.373  23.331485
2.372  23.320360
2.371  23.390479
2.370  23.409908
2.369  23.417975
2.368  23.405090
2.367  23.438546
2.366  23.496047
2.365  23.498055
2.364  23.489154
2.363  23.534190
2.362  23.532968
2.361  23.571034
2.360  23.560807
2.359  23.513914
2.358  23.505785
2.357  23.557359
2.356  23.550084
2.355  23.531358
2.354  23.553161
2.353  23.559327
2.352  23.550637
2.351  23.548748
2.350  23.622890
2.349  23.629817
2.348  23.629395
2.347  23.629159
2.346  23.661534
2.345  23.654660
2.344  23.662923
2.343  23.728946
2.342  23.763023
2.341  23.715288
2.340  23.810977
2.339  23.892502
2.338  23.940536
2.337  23.951930
2.336  24.031604
2.335  24.088565
2.334  24.080566
2.333  24.108477
2.332  24.185510
2.331  24.179379
2.330  24.287939
2.329  24.280811
2.328  24.335177
2.327  24.381760
2.326  24.444759
2.325  24.459667
2.324  24.549162
2.323  24.575171
2.322  24.592327
2.321  24.610669
2.320  24.691109
2.319  24.762437
2.318  24.873444
2.317  24.839541
2.316  24.921587
2.315  24.874812
2.314  24.971424
2.313  25.036696
2.312  25.101467
2.311  25.121195
2.310  25.139896
2.309  25.164963
2.308  25.238041
2.307  25.245791
2.306  25.337943
2.305  25.369445
2.304  25.445078
2.303  25.477141
2.302  25.514529
2.301  25.541582
2.300  25.607943
2.299  25.574497
2.298  25.624387
2.297  25.597450
2.296  25.697559
2.295  25.737602
2.294  25.748793
2.293  25.735796
2.292  25.784593
2.291  25.811112
2.290  25.849051
2.289  25.788876
2.288  25.867097
2.287  25.927265
2.286  26.069477
2.285  25.935122
2.284  25.927807
2.283  25.927034
2.282  25.978744
2.281  25.937262
2.280  26.032280
2.279  26.021483
2.278  26.024846
2.277  26.088515
2.276  26.140137
2.275  26.065532
2.274  26.157675
2.273  26.059703
2.272  26.096483
2.271  26.090535
2.270  26.225359
2.269  26.085165
2.268  26.160323
2.267  26.114306
2.266  26.180518
2.265  26.039523
2.264  26.129902
2.263  26.088538
2.262  26.206135
2.261  26.042688
2.260  26.090875
2.259  26.018585
2.258  26.026709
2.257  26.003211
2.256  25.977372
2.255  25.988105
2.254  26.002712
2.253  25.865177
2.252  25.938458
2.251  25.877437
2.250  25.919971
2.249  25.862761
2.248  25.836634
2.247  25.766326
2.246  25.837304
2.245  25.714430
2.244  25.797936
2.243  25.676723
2.242  25.789005
2.241  25.717165
2.240  25.768563
2.239  25.680151
2.238  25.659980
2.237  25.569724
2.236  25.686088
2.235  25.539106
2.234  25.606321
2.233  25.472150
2.232  25.529499
2.231  25.459876
2.230  25.400161
2.229  25.320996
2.228  25.396971
2.227  25.286694
2.226  25.223257
2.225  25.170315
2.224  25.078606
2.223  25.014297
2.222  24.870625
2.221  24.768564
2.220  24.680288
2.219  24.505100
2.218  24.468651
2.217  24.195930
2.216  24.229950
2.215  23.984441
2.214  23.908782
2.213  23.646533
2.212  23.706661
2.211  23.308438
2.210  23.431023
2.209  23.184793
2.208  23.142761
2.207  23.061955
2.206  23.104476
2.205  22.829859
2.204  22.882576
2.203  22.774483
2.202  22.928189
2.201  22.703421
2.200  22.856974
2.199  22.802384
2.198  22.849610
2.197  22.768838
2.196  22.986284
2.195  22.974401
2.194  23.068223
2.193  23.038505
2.192  23.230217
2.191  23.159650
2.190  23.387288
2.189  23.422450
2.188  23.636929
2.187  23.583517
2.186  23.776856
2.185  23.804479
2.184  23.993071
2.183  23.945146
2.182  24.258654
2.181  24.228667
2.180  24.380718
2.179  24.531800
2.178  24.643994
2.177  24.731719
2.176  24.813556
2.175  24.834253
2.174  24.997710
2.173  24.987513
2.172  25.092971
2.171  25.185296
2.170  25.224577
2.169  25.242497
2.168  25.381988
2.167  25.445691
2.166  25.495382
2.165  25.505062
2.164  25.626206
2.163  25.713623
2.162  25.713422
2.161  25.756816
2.160  25.775875
2.159  25.825812
2.158  25.938685
2.157  25.932221
2.156  26.070440
2.155  26.021080
2.154  26.113748
2.153  26.150813
2.152  26.248025
2.151  26.306272
2.150  26.410275
2.149  26.371602
2.148  26.580075
2.147  26.534902
2.146  26.594815
2.145  26.572146
2.144  26.676743
2.143  26.664944
2.142  26.723175
2.141  26.653408
2.140  26.759825
2.139  26.721654
2.138  26.821962
2.137  26.824052
2.136  26.801223
2.135  26.734864
2.134  26.818295
2.133  26.802781
2.132  26.846648
2.131  26.708841
2.130  26.749518
2.129  26.736160
2.128  26.764394
2.127  26.695127
2.126  26.744096
2.125  26.699473
2.124  26.701071
2.123  26.607496
2.122  26.721977
2.121  26.667061
2.120  26.605407
2.119  26.576088
2.118  26.574716
2.117  26.583223
2.116  26.591489
2.115  26.581736
2.114  26.546005
2.113  26.453569
2.112  26.475317
2.111  26.476796
2.110  26.482668
2.109  26.368253
2.108  26.391194
2.107  26.367811
2.106  26.406523
2.105  26.422759
2.104  26.392387
2.103  26.282149
2.102  26.308657
2.101  26.312244
2.100  26.292157
2.099  26.305153
2.098  26.288823
2.097  26.217035
2.096  26.268582
2.095  26.311937
2.094  26.308001
2.093  26.303032
2.092  26.343774
2.091  26.304982
2.090  26.358002
2.089  26.361823
2.088  26.329362
2.087  26.323831
2.086  26.324842
2.085  26.331903
2.084  26.363076
2.083  26.334947
2.082  26.332884
2.081  26.327103
2.080  26.346864
2.079  26.395216
2.078  26.408721
2.077  26.323791
2.076  26.290720
2.075  26.315171
2.074  26.339693
2.073  26.350181
2.072  26.335281
2.071  26.315947
2.070  26.340394
2.069  26.348464
2.068  26.342562
2.067  26.322493
2.066  26.316245
2.065  26.342183
2.064  26.318003
2.063  26.289131
2.062  26.278798
2.061  26.309528
2.060  26.257215
2.059  26.292281
2.058  26.284526
2.057  26.259670
2.056  26.266391
2.055  26.201222
2.054  26.120928
2.053  26.023066
2.052  25.910989
2.051  25.888075
2.050  25.896097
2.049  25.914605
2.048  25.842052
2.047  25.806738
2.046  25.797417
2.045  25.823230
2.044  25.782631
2.043  25.762856
2.042  25.777006
2.041  25.770770
2.040  25.730620
2.039  25.732897
2.038  25.676568
2.037  25.676946
2.036  25.660564
2.035  25.679705
2.034  25.656681
2.033  25.685596
2.032  25.621096
2.031  25.558759
2.030  25.519756
2.029  25.518008
2.028  25.483339
2.027  25.548425
2.026  25.450290
2.025  25.518190
2.024  25.458239
2.023  25.430858
2.022  25.377596
2.021  25.367966
2.020  25.308908
2.019  25.322689
2.018  25.252083
2.017  25.258713
2.016  25.254850
2.015  25.255628
2.014  25.167589
2.013  25.191261
2.012  25.119518
2.011  25.199226
2.010  25.080179
2.009  25.104204
2.008  25.017953
2.007  24.978876
2.006  24.926714
2.005  24.934914
2.004  24.905077
2.003  24.876409
2.002  24.807328
2.001  24.805405
2.000  24.781761
1.999  24.761634
1.998  24.690679
1.997  24.738830
1.996  24.672227
1.995  24.649210
1.994  24.528482
1.993  24.568062
1.992  24.528140
1.991  24.490325
1.990  24.411805
1.989  24.500500
1.988  24.312666
1.987  24.389045
1.986  24.290611
1.985  24.254806
1.984  24.293123
1.983  24.253405
1.982  24.151593
1.981  24.226347
1.980  24.120504
1.979  24.207627
1.978  24.000937
1.977  24.040465
1.976  23.963232
1.975  24.085907
1.974  23.907417
1.973  23.972999
1.972  23.908157
1.971  23.885639
1.970  23.826097
1.969  23.885211
1.968  23.841275
1.967  23.810035
1.966  23.699375
1.965  23.852091
1.964  23.667784
1.963  23.718804
1.962  23.691040
1.961  23.680902
1.960  23.562494
1.959  23.607602
1.958  23.535516
1.957  23.645899
1.956  23.584787
1.955  23.529735
1.954  23.489420
1.953  23.554924
1.952  23.486113
1.951  23.573515
1.950  23.358269
1.949  23.445905
1.948  23.332402
1.947  23.422686
1.946  23.325705
1.945  23.383301
1.944  23.248037
1.943  23.319240
1.942  23.256707
1.941  23.318116
1.940  23.185770
1.939  23.200813
1.938  23.253506
1.937  23.157518
1.936  23.161639
1.935  23.124716
1.934  23.019643
1.933  23.208258
1.932  22.954240
1.931  23.154411
1.930  22.931641
1.929  22.965375
1.928  22.827469
1.927  22.986167
1.926  22.650690
1.925  22.879566
1.924  22.653414
1.923  22.680297
1.922  22.525871
1.921  22.657866
1.920  22.435414
1.919  22.449559
1.918  22.314535
1.917  22.297921
1.916  22.193647
1.915  22.163268
1.914  22.059537
1.913  22.149358
1.912  21.981403
1.911  22.043833
1.910  22.005284
1.909  22.173142
1.908  21.966286
1.907  22.199457
1.906  22.143895
1.905  22.413367
1.904  22.408215
1.903  22.641316
1.902  22.761832
1.901  23.025174
1.900  23.179498
1.899  23.413192
1.898  23.522530
1.897  23.772369
1.896  24.045622
1.895  24.219429
1.894  24.324755
1.893  24.656051
1.892  24.767886
1.891  24.948691
1.890  25.086060
1.889  25.322751
1.888  25.372365
1.887  25.609796
1.886  25.697126
1.885  25.914356
1.884  25.859107
1.883  26.151950
1.882  26.146605
1.881  26.305177
1.880  26.340131
1.879  26.410758
1.878  26.474653
1.877  26.588695
1.876  26.534324
1.875  26.729363
1.874  26.727565
1.873  26.884087
1.872  26.855368
1.871  27.003272
1.870  27.057510
1.869  27.117800
1.868  27.052108
1.867  27.165516
1.866  27.114678
1.865  27.179925
1.864  27.094736
1.863  27.194030
1.862  27.171535
1.861  27.194986
1.860  27.178226
1.859  27.286346
1.858  27.216117
1.857  27.301206
1.856  27.216438
1.855  27.298799
1.854  27.262547
1.853  27.380999
1.852  27.321910
1.851  27.340788
1.850  27.270762
1.849  27.358864
1.848  27.366782
1.847  27.322810
1.846  27.320501
1.845  27.371908
1.844  27.300131
1.843  27.352300
1.842  27.322413
1.841  27.327512
1.840  27.339788
1.839  27.381662
1.838  27.429183
1.837  27.373160
1.836  27.366343
1.835  27.408949
1.834  27.432596
1.833  27.420843
1.832  27.385163
1.831  27.418624
1.830  27.431152
1.829  27.420208
1.828  27.379007
1.827  27.436973
1.826  27.405213
1.825  27.376713
1.824  27.404798
1.823  27.393985
1.822  27.375840
1.821  27.417351
1.820  27.367065
1.819  27.443973
1.818  27.435560
1.817  27.441832
1.816  27.375570
1.815  27.354324
1.814  27.444340
1.813  27.454997
1.812  27.430796
1.811  27.466519
1.810  27.426634
1.809  27.406566
1.808  27.398022
1.807  27.477171
1.806  27.460392
1.805  27.448832
1.804  27.396901
1.803  27.398971
1.802  27.443085
1.801  27.436420
1.800  27.422732
1.799  27.451573
1.798  27.418675
1.797  27.445113
1.796  27.487165
1.795  27.473254
1.794  27.420319
1.793  27.454557
1.792  27.475195
1.791  27.498230
1.790  27.491924
1.789  27.470302
1.788  27.506468
1.787  27.489396
1.786  27.444509
1.785  27.435281
1.784  27.415885
1.783  27.459218
1.782  27.436365
1.781  27.440109
1.780  27.517511
1.779  27.508843
1.778  27.525209
1.777  27.529801
1.776  27.497230
1.775  27.489849
1.774  27.517229
1.773  27.500985
1.772  27.511054
1.771  27.472208
1.770  27.510616
1.769  27.598860
1.768  27.585426
1.767  27.571109
1.766  27.607876
1.765  27.564242
1.764  27.592223
1.763  27.624587
1.762  27.626062
1.761  27.621583
1.760  27.630578
1.759  27.624020
1.758  27.681225
1.757  27.627655
1.756  27.617018
1.755  27.610520
1.754  27.653290
1.753  27.654800
1.752  27.645349
1.751  27.678759
1.750  27.668823
1.749  27.582577
1.748  27.634186
1.747  27.691643
1.746  27.708386
1.745  27.711422
1.744  27.713555
1.743  27.643120
1.742  27.742806
1.741  27.665098
1.740  27.680408
1.739  27.664313
1.738  27.730873
1.737  27.694240
1.736  27.752136
1.735  27.755260
1.734  27.722432
1.733  27.787451
1.732  27.845576
1.731  27.774877
1.730  27.815871
1.729  27.778816
1.728  27.790840
1.727  27.791311
1.726  27.828901
1.725  27.764620
1.724  27.811249
1.723  27.841231
1.722  27.824779
1.721  27.764860
1.720  27.796492
1.719  27.809336
1.718  27.846751
1.717  27.808727
1.716  27.856194
1.715  27.787514
1.714  27.822325
1.713  27.814305
1.712  27.850831
1.711  27.797833
1.710  27.830465
1.709  27.866267
1.708  27.836614
1.707  27.769870
1.706  27.850763
1.705  27.837415
1.704  27.841958
1.703  27.774805
1.702  27.869408
1.701  27.790838
1.700  27.826582
1.699  27.813693
1.698  27.837915
1.697  27.754492
1.696  27.824045
1.695  27.835608
1.694  27.913745
1.693  27.805201
1.692  27.870374
1.691  27.835139
1.690  27.836965
1.689  27.821428
1.688  27.831282
1.687  27.813247
1.686  27.846363
1.685  27.755346
1.684  27.830302
1.683  27.834110
1.682  27.839386
1.681  27.818683
1.680  27.893762
1.679  27.847343
1.678  27.914491
1.677  27.797944
1.676  27.969315
1.675  27.894897
1.674  27.846843
1.673  27.879930
1.672  27.936963
1.671  27.880715
1.670  27.967415
1.669  27.934325
1.668  27.770496
1.667  27.912627
1.666  27.846832
1.665  27.891913
1.664  27.956322
1.663  27.787405
1.662  27.923344
1.661  27.820974
1.660  27.862618
1.659  27.819244
1.658  27.926604
1.657  27.841907
1.656  27.957749
1.655  27.811087
1.654  27.879020
1.653  27.864437
1.652  27.895215
1.651  27.880874
1.650  27.887535
1.649  27.855722
1.648  27.831396
1.647  27.889249
1.646  27.987772
1.645  27.877220
1.644  27.860426
1.643  27.915146
1.642  27.981529
1.641  27.791075
1.640  27.943888
1.639  27.816464
1.638  27.939672
1.637  27.917492
1.636  27.974297
1.635  27.870183
1.634  27.928835
1.633  27.870612
1.632  27.978457
1.631  27.906447
1.630  28.019081
1.629  27.905639
1.628  27.986262
1.627  27.933147
1.626  27.910000
1.625  27.893767
1.624  27.992643
1.623  27.953982
1.622  28.025675
1.621  27.872141
1.620  27.949594
1.619  27.865977
1.618  27.921124
1.617  27.878581
1.616  27.980027
1.615  27.920717
1.614  27.930849
1.613  27.926652
1.612  27.955656
1.611  27.909523
1.610  27.971885
1.609  27.930857
1.608  28.002885
1.607  27.908142
1.606  28.041736
1.605  27.907618
1.604  27.975499
1.603  27.961231
1.602  27.945480
1.601  27.904950
1.600  27.944562
1.599  27.889682
1.598  27.974506
1.597  27.868825
1.596  27.972145
1.595  27.893474
1.594  27.963296
1.593  27.936431
1.592  28.007593
1.591  27.931170
1.590  27.907011
1.589  27.858537
1.588  27.973667
1.587  27.897902
1.586  27.966009
1.585  27.936797
1.584  27.959064
1.583  27.860689
1.582  27.945258
1.581  27.938236
1.580  28.034795
1.579  27.964992
1.578  27.951851
1.577  27.871554
1.576  27.877032
1.575  27.913571
1.574  27.955038
1.573  27.888206
1.572  27.994321
1.571  27.931572
1.570  27.980435
1.569  27.875550
1.568  27.912494
1.567  27.912179
1.566  27.931552
1.565  27.929045
1.564  28.001832
1.563  27.891819
1.562  27.908540
1.561  27.923169
1.560  27.930151
1.559  27.944391
1.558  27.983013
1.557  27.976693
1.556  28.012518
1.555  27.958374
1.554  27.924537
1.553  27.906231
1.552  27.916792
1.551  27.926070
1.550  27.974749
1.549  27.932411
1.548  27.967606
1.547  27.925135
1.546  27.928125
1.545  27.959124
1.544  28.002802
1.543  27.949353
1.542  27.945629
1.541  27.867354
1.540  27.904739
1.539  27.896106
1.538  27.930925
1.537  27.950567
1.536  27.997883
1.535  27.953879
1.534  27.924319
1.533  27.887483
1.532  27.944532
1.531  27.906917
1.530  27.975805
1.529  27.929568
1.528  27.923175
1.527  27.890379
1.526  27.921367
1.525  27.895964
1.524  27.874234
1.523  27.860222
1.522  27.890733
1.521  27.909889
1.520  27.917978
1.519  27.816572
1.518  27.874390
1.517  27.926861
1.516  27.865211
1.515  27.851237
1.514  27.873499
1.513  27.854814
1.512  27.872651
1.511  27.821487
1.510  27.795462
1.509  27.872102
1.508  27.895340
1.507  27.770501
1.506  27.771240
1.505  27.825572
1.504  27.846468
1.503  27.815677
1.502  27.782751
1.501  27.783203
1.500  27.752257
1.499  27.793241
1.498  27.815807
1.497  27.766865
1.496  27.711648
1.495  27.747935
1.494  27.752892
1.493  27.712822
1.492  27.683896
1.491  27.674430
1.490  27.642377
1.489  27.651793
1.488  27.630945
1.487  27.707408
1.486  27.728627
1.485  27.648700
1.484  27.682321
1.483  27.697369
1.482  27.653760
1.481  27.648251
1.480  27.611232
1.479  27.642972
1.478  27.600836
1.477  27.567236
1.476  27.586219
1.475  27.610749
1.474  27.536896
1.473  27.504226
1.472  27.470755
1.471  27.485495
1.470  27.459188
1.469  27.477467
1.468  27.497921
1.467  27.493079
1.466  27.432310
1.465  27.486036
1.464  27.499653
1.463  27.522547
1.462  27.459128
1.461  27.480460
1.460  27.502479
1.459  27.525209
1.458  27.456291
1.457  27.464498
1.456  27.498118
1.455  27.527354
1.454  27.494143
1.453  27.456569
1.452  27.483614
1.451  27.540669
1.450  27.428473
1.449  27.435282
1.448  27.416496
1.447  27.474420
1.446  27.428450
1.445  27.481922
1.444  27.407425
1.443  27.396140
1.442  27.343676
1.441  27.437607
1.440  27.364808
1.439  27.329154
1.438  27.169055
1.437  27.197818
1.436  27.193056
1.435  27.159613
1.434  27.094503
1.433  27.129000
1.432  27.047558
