Name: Diabase
Type: Rock
Class: Igneous
Subclass:  Mafic 
Particle Size: Solid surface
Sample No.: Ward37.txt
Owner: JPL
Wavelength range:  VNIR SWIR IR 
Origin: Ward's Collection of American Rocks.  Sample locality - Somerville, Suffolk County, Massachusetts.
Collected by:  Ward's Natural Science
Description: Coarse grained, greenish-gray rock showing diabase texture.
Composed of labradorite, biotite and pyroxene.
Geologic Age - Triassic.



Measurement: Hemispherical reflectance
First Column: X
Second Column: Y
X Units: Wavelength (micrometers)
Y Units: Reflectance (percent)
First X Value: 2.500
Last X Value: 0.400
Number of X Values: 2101
Additional information: None

2.500  15.232531
2.499  14.669980
2.498  15.004141
2.497  15.071892
2.496  14.568789
2.495  15.037570
2.494  14.942992
2.493  14.650514
2.492  14.921993
2.491  14.799420
2.490  14.773495
2.489  14.837864
2.488  14.972011
2.487  14.707897
2.486  15.047262
2.485  14.873071
2.484  14.946230
2.483  14.902010
2.482  14.922639
2.481  14.810211
2.480  15.119204
2.479  14.939433
2.478  15.014415
2.477  14.915568
2.476  15.149377
2.475  14.981274
2.474  15.071861
2.473  15.036109
2.472  15.108659
2.471  15.039332
2.470  15.223993
2.469  15.050127
2.468  15.329923
2.467  15.021182
2.466  15.342781
2.465  15.135609
2.464  15.450671
2.463  15.132175
2.462  15.308015
2.461  15.169746
2.460  15.409970
2.459  15.249276
2.458  15.322985
2.457  15.395775
2.456  15.471137
2.455  15.421859
2.454  15.471684
2.453  15.301282
2.452  15.478317
2.451  15.335306
2.450  15.465486
2.449  15.359933
2.448  15.576753
2.447  15.478569
2.446  15.526769
2.445  15.548073
2.444  15.569088
2.443  15.549368
2.442  15.657667
2.441  15.659764
2.440  15.610697
2.439  15.557547
2.438  15.602331
2.437  15.607343
2.436  15.664382
2.435  15.604387
2.434  15.743488
2.433  15.697383
2.432  15.717844
2.431  15.693983
2.430  15.705566
2.429  15.587674
2.428  15.722273
2.427  15.758824
2.426  15.795460
2.425  15.728279
2.424  15.756058
2.423  15.714996
2.422  15.720247
2.421  15.693094
2.420  15.737730
2.419  15.722638
2.418  15.826182
2.417  15.733240
2.416  15.713008
2.415  15.705126
2.414  15.766002
2.413  15.754040
2.412  15.770720
2.411  15.727601
2.410  15.770504
2.409  15.760751
2.408  15.801289
2.407  15.748087
2.406  15.754826
2.405  15.729394
2.404  15.792722
2.403  15.763364
2.402  15.788364
2.401  15.709302
2.400  15.752215
2.399  15.710145
2.398  15.720076
2.397  15.771486
2.396  15.749874
2.395  15.666123
2.394  15.730736
2.393  15.677056
2.392  15.729219
2.391  15.718976
2.390  15.727373
2.389  15.751036
2.388  15.781989
2.387  15.714350
2.386  15.694381
2.385  15.657708
2.384  15.691528
2.383  15.722125
2.382  15.710562
2.381  15.665485
2.380  15.672625
2.379  15.652345
2.378  15.645948
2.377  15.652972
2.376  15.593969
2.375  15.548517
2.374  15.555406
2.373  15.530670
2.372  15.548013
2.371  15.547962
2.370  15.513434
2.369  15.485601
2.368  15.425837
2.367  15.424328
2.366  15.439157
2.365  15.360535
2.364  15.274016
2.363  15.203228
2.362  15.161434
2.361  15.124066
2.360  15.120076
2.359  15.102617
2.358  15.037396
2.357  14.990427
2.356  15.023981
2.355  14.990815
2.354  14.951416
2.353  14.946620
2.352  14.980229
2.351  14.969693
2.350  14.952831
2.349  14.938536
2.348  14.917363
2.347  14.961151
2.346  14.973148
2.345  14.931767
2.344  14.945307
2.343  14.992638
2.342  15.014951
2.341  15.002095
2.340  14.988942
2.339  15.078742
2.338  15.111689
2.337  15.104837
2.336  15.092996
2.335  15.148676
2.334  15.175844
2.333  15.272873
2.332  15.278440
2.331  15.315803
2.330  15.359246
2.329  15.418838
2.328  15.450336
2.327  15.551499
2.326  15.627874
2.325  15.695313
2.324  15.742696
2.323  15.844278
2.322  15.915230
2.321  16.047034
2.320  16.123212
2.319  16.241026
2.318  16.298637
2.317  16.490981
2.316  16.569437
2.315  16.626729
2.314  16.679437
2.313  16.783692
2.312  16.854323
2.311  16.920992
2.310  16.926013
2.309  17.054063
2.308  17.134304
2.307  17.217271
2.306  17.207168
2.305  17.317191
2.304  17.325980
2.303  17.445730
2.302  17.463613
2.301  17.562523
2.300  17.543106
2.299  17.577010
2.298  17.571689
2.297  17.665246
2.296  17.732234
2.295  17.730984
2.294  17.742409
2.293  17.821955
2.292  17.876779
2.291  17.866624
2.290  17.847118
2.289  18.025935
2.288  17.996418
2.287  18.017668
2.286  18.039404
2.285  18.075966
2.284  18.083503
2.283  18.185483
2.282  18.155663
2.281  18.244939
2.280  18.210982
2.279  18.293123
2.278  18.336641
2.277  18.311753
2.276  18.320346
2.275  18.506327
2.274  18.380276
2.273  18.437273
2.272  18.471118
2.271  18.508258
2.270  18.474103
2.269  18.575373
2.268  18.511182
2.267  18.593943
2.266  18.594067
2.265  18.643971
2.264  18.627986
2.263  18.633292
2.262  18.630156
2.261  18.626747
2.260  18.675121
2.259  18.731196
2.258  18.721495
2.257  18.709553
2.256  18.679966
2.255  18.750295
2.254  18.705496
2.253  18.770928
2.252  18.869305
2.251  18.860898
2.250  18.800167
2.249  18.968801
2.248  18.875749
2.247  18.967007
2.246  18.914323
2.245  18.956842
2.244  18.996316
2.243  19.100703
2.242  19.005025
2.241  19.164478
2.240  19.190713
2.239  19.163684
2.238  19.191016
2.237  19.357878
2.236  19.232766
2.235  19.366272
2.234  19.227213
2.233  19.427655
2.232  19.397968
2.231  19.397487
2.230  19.427502
2.229  19.438459
2.228  19.511477
2.227  19.528652
2.226  19.424291
2.225  19.564271
2.224  19.584382
2.223  19.584307
2.222  19.486089
2.221  19.633938
2.220  19.462539
2.219  19.603976
2.218  19.520851
2.217  19.566298
2.216  19.532657
2.215  19.575519
2.214  19.474866
2.213  19.515307
2.212  19.518804
2.211  19.445403
2.210  19.553464
2.209  19.515569
2.208  19.494004
2.207  19.529692
2.206  19.536592
2.205  19.456963
2.204  19.493894
2.203  19.586812
2.202  19.526928
2.201  19.620411
2.200  19.584552
2.199  19.709557
2.198  19.662062
2.197  19.732400
2.196  19.765790
2.195  19.771284
2.194  19.830837
2.193  19.936958
2.192  19.959557
2.191  20.021470
2.190  20.098664
2.189  20.153458
2.188  20.310888
2.187  20.432018
2.186  20.418984
2.185  20.569123
2.184  20.563607
2.183  20.741522
2.182  20.763282
2.181  20.943097
2.180  20.942194
2.179  21.133668
2.178  21.179975
2.177  21.301654
2.176  21.296824
2.175  21.400879
2.174  21.466124
2.173  21.546379
2.172  21.620065
2.171  21.700496
2.170  21.652247
2.169  21.827116
2.168  21.861580
2.167  21.980077
2.166  22.007290
2.165  22.027857
2.164  22.000250
2.163  22.115214
2.162  22.072765
2.161  22.205960
2.160  22.189565
2.159  22.182912
2.158  22.245127
2.157  22.360884
2.156  22.314945
2.155  22.388969
2.154  22.366339
2.153  22.481528
2.152  22.408357
2.151  22.536378
2.150  22.546158
2.149  22.563125
2.148  22.575828
2.147  22.610771
2.146  22.598192
2.145  22.720275
2.144  22.649985
2.143  22.741861
2.142  22.623816
2.141  22.748124
2.140  22.727811
2.139  22.723461
2.138  22.712821
2.137  22.790763
2.136  22.757727
2.135  22.801387
2.134  22.747666
2.133  22.819542
2.132  22.789266
2.131  22.824962
2.130  22.852405
2.129  22.812157
2.128  22.786369
2.127  22.853295
2.126  22.838147
2.125  22.843279
2.124  22.800807
2.123  22.822176
2.122  22.826943
2.121  22.875353
2.120  22.834854
2.119  22.903701
2.118  22.851949
2.117  22.880162
2.116  22.904522
2.115  22.831899
2.114  22.872408
2.113  22.907081
2.112  22.866708
2.111  22.919585
2.110  22.935829
2.109  22.889679
2.108  22.846994
2.107  22.876309
2.106  22.881101
2.105  22.861282
2.104  22.965409
2.103  22.962111
2.102  22.942521
2.101  22.948299
2.100  22.937145
2.099  22.976771
2.098  23.025185
2.097  23.068898
2.096  23.068263
2.095  23.029326
2.094  23.017453
2.093  23.071431
2.092  23.112995
2.091  23.105660
2.090  23.126537
2.089  23.119183
2.088  23.119265
2.087  23.156477
2.086  23.180176
2.085  23.201394
2.084  23.166550
2.083  23.184651
2.082  23.188661
2.081  23.207121
2.080  23.242293
2.079  23.234222
2.078  23.227198
2.077  23.220967
2.076  23.234003
2.075  23.258233
2.074  23.256374
2.073  23.234364
2.072  23.234064
2.071  23.271533
2.070  23.222014
2.069  23.243230
2.068  23.324048
2.067  23.266712
2.066  23.235195
2.065  23.253014
2.064  23.278003
2.063  23.301401
2.062  23.328312
2.061  23.329576
2.060  23.297085
2.059  23.281417
2.058  23.251424
2.057  23.248957
2.056  23.262442
2.055  23.258611
2.054  23.260678
2.053  23.230728
2.052  23.270139
2.051  23.243904
2.050  23.261626
2.049  23.245447
2.048  23.297955
2.047  23.268652
2.046  23.228806
2.045  23.241460
2.044  23.270548
2.043  23.249428
2.042  23.247330
2.041  23.194836
2.040  23.246656
2.039  23.230839
2.038  23.215411
2.037  23.200230
2.036  23.227374
2.035  23.210249
2.034  23.197762
2.033  23.175324
2.032  23.147069
2.031  23.150397
2.030  23.158951
2.029  23.093727
2.028  23.112009
2.027  23.076161
2.026  23.138713
2.025  23.063305
2.024  23.118769
2.023  23.098425
2.022  23.109149
2.021  23.046847
2.020  23.078179
2.019  23.075432
2.018  23.021507
2.017  22.927949
2.016  23.026784
2.015  23.024395
2.014  23.006717
2.013  22.958743
2.012  23.022493
2.011  22.997181
2.010  23.034107
2.009  22.936329
2.008  22.949761
2.007  22.966389
2.006  22.971412
2.005  22.942974
2.004  22.954526
2.003  22.823851
2.002  22.964994
2.001  22.947341
2.000  22.862295
1.999  22.856800
1.998  22.870490
1.997  22.841416
1.996  22.838157
1.995  22.819607
1.994  22.866227
1.993  22.798092
1.992  22.841906
1.991  22.801269
1.990  22.796083
1.989  22.718795
1.988  22.768551
1.987  22.743089
1.986  22.781464
1.985  22.762545
1.984  22.819851
1.983  22.719751
1.982  22.702189
1.981  22.654848
1.980  22.809819
1.979  22.693004
1.978  22.709216
1.977  22.733837
1.976  22.772523
1.975  22.628125
1.974  22.664210
1.973  22.620748
1.972  22.670460
1.971  22.737169
1.970  22.683004
1.969  22.682628
1.968  22.703406
1.967  22.612309
1.966  22.651616
1.965  22.574397
1.964  22.566059
1.963  22.654628
1.962  22.672215
1.961  22.534982
1.960  22.603416
1.959  22.548997
1.958  22.550321
1.957  22.518583
1.956  22.613182
1.955  22.454282
1.954  22.477446
1.953  22.518848
1.952  22.463024
1.951  22.467384
1.950  22.469398
1.949  22.429506
1.948  22.497698
1.947  22.318808
1.946  22.414803
1.945  22.357258
1.944  22.446297
1.943  22.305543
1.942  22.383517
1.941  22.279661
1.940  22.414185
1.939  22.285206
1.938  22.409871
1.937  22.279808
1.936  22.382455
1.935  22.289465
1.934  22.374592
1.933  22.329304
1.932  22.317881
1.931  22.275772
1.930  22.377435
1.929  22.267315
1.928  22.379983
1.927  22.476120
1.926  22.250767
1.925  22.365176
1.924  22.422515
1.923  22.272173
1.922  22.339830
1.921  22.290311
1.920  22.424033
1.919  22.306641
1.918  22.410122
1.917  22.346997
1.916  22.452473
1.915  22.405063
1.914  22.447106
1.913  22.490030
1.912  22.501601
1.911  22.481497
1.910  22.569753
1.909  22.547607
1.908  22.657269
1.907  22.655864
1.906  22.769548
1.905  22.725957
1.904  22.874564
1.903  22.854424
1.902  23.106722
1.901  23.017332
1.900  23.238014
1.899  23.163462
1.898  23.317264
1.897  23.401003
1.896  23.491810
1.895  23.510750
1.894  23.609482
1.893  23.688774
1.892  23.798604
1.891  23.784757
1.890  23.958615
1.889  23.961718
1.888  24.054502
1.887  24.009264
1.886  24.128867
1.885  24.137458
1.884  24.252271
1.883  24.243467
1.882  24.254005
1.881  24.166393
1.880  24.312904
1.879  24.263415
1.878  24.378349
1.877  24.307308
1.876  24.337125
1.875  24.373272
1.874  24.489952
1.873  24.477639
1.872  24.588367
1.871  24.550158
1.870  24.600681
1.869  24.619022
1.868  24.635258
1.867  24.681413
1.866  24.738448
1.865  24.686630
1.864  24.739356
1.863  24.659244
1.862  24.756743
1.861  24.666530
1.860  24.707218
1.859  24.682518
1.858  24.701351
1.857  24.708391
1.856  24.809132
1.855  24.693955
1.854  24.714149
1.853  24.814872
1.852  24.803424
1.851  24.732609
1.850  24.751338
1.849  24.716204
1.848  24.816118
1.847  24.733529
1.846  24.799653
1.845  24.822452
1.844  24.806438
1.843  24.800732
1.842  24.834448
1.841  24.752942
1.840  24.764574
1.839  24.781368
1.838  24.771957
1.837  24.870902
1.836  24.849919
1.835  24.771941
1.834  24.823207
1.833  24.795212
1.832  24.849359
1.831  24.839984
1.830  24.814328
1.829  24.758303
1.828  24.832001
1.827  24.800524
1.826  24.817803
1.825  24.721674
1.824  24.765266
1.823  24.806860
1.822  24.848429
1.821  24.783471
1.820  24.824721
1.819  24.802163
1.818  24.849494
1.817  24.791848
1.816  24.777485
1.815  24.769114
1.814  24.746861
1.813  24.802694
1.812  24.828951
1.811  24.769312
1.810  24.808142
1.809  24.834306
1.808  24.760655
1.807  24.773357
1.806  24.827465
1.805  24.790622
1.804  24.780416
1.803  24.794513
1.802  24.799325
1.801  24.757047
1.800  24.768106
1.799  24.764017
1.798  24.804372
1.797  24.805658
1.796  24.783805
1.795  24.752464
1.794  24.740987
1.793  24.743847
1.792  24.740557
1.791  24.754657
1.790  24.804967
1.789  24.792782
1.788  24.733815
1.787  24.685248
1.786  24.685754
1.785  24.730649
1.784  24.700184
1.783  24.698008
1.782  24.726244
1.781  24.709938
1.780  24.735918
1.779  24.738260
1.778  24.724571
1.777  24.711620
1.776  24.633052
1.775  24.660416
1.774  24.721863
1.773  24.711984
1.772  24.637049
1.771  24.677051
1.770  24.728643
1.769  24.735825
1.768  24.702517
1.767  24.681127
1.766  24.652965
1.765  24.672188
1.764  24.663468
1.763  24.624181
1.762  24.622476
1.761  24.640465
1.760  24.592771
1.759  24.573393
1.758  24.564852
1.757  24.656129
1.756  24.647435
1.755  24.584726
1.754  24.555812
1.753  24.631996
1.752  24.612110
1.751  24.578210
1.750  24.572427
1.749  24.591313
1.748  24.564738
1.747  24.604577
1.746  24.572782
1.745  24.563711
1.744  24.574781
1.743  24.612427
1.742  24.600159
1.741  24.593283
1.740  24.554119
1.739  24.574192
1.738  24.534630
1.737  24.535435
1.736  24.526794
1.735  24.564050
1.734  24.489913
1.733  24.547771
1.732  24.490207
1.731  24.482126
1.730  24.482230
1.729  24.527574
1.728  24.500292
1.727  24.557709
1.726  24.496100
1.725  24.515896
1.724  24.480783
1.723  24.477504
1.722  24.453656
1.721  24.429188
1.720  24.371341
1.719  24.415195
1.718  24.437458
1.717  24.448206
1.716  24.503003
1.715  24.458886
1.714  24.413742
1.713  24.349849
1.712  24.378281
1.711  24.437878
1.710  24.392867
1.709  24.344656
1.708  24.333673
1.707  24.369969
1.706  24.347071
1.705  24.352818
1.704  24.296527
1.703  24.349026
1.702  24.287202
1.701  24.289685
1.700  24.280868
1.699  24.305791
1.698  24.231895
1.697  24.237503
1.696  24.218442
1.695  24.276377
1.694  24.176161
1.693  24.179078
1.692  24.215080
1.691  24.202071
1.690  24.185816
1.689  24.236320
1.688  24.090466
1.687  24.200890
1.686  24.113390
1.685  24.173732
1.684  24.165948
1.683  24.127868
1.682  24.114448
1.681  24.108572
1.680  24.055125
1.679  24.151277
1.678  24.046792
1.677  24.063441
1.676  24.050602
1.675  24.027279
1.674  23.981072
1.673  24.014193
1.672  24.018186
1.671  24.012922
1.670  23.994591
1.669  23.940454
1.668  23.814895
1.667  24.001400
1.666  23.938035
1.665  23.941811
1.664  23.961605
1.663  23.933066
1.662  23.846230
1.661  23.960382
1.660  23.802312
1.659  24.028812
1.658  23.882785
1.657  23.896035
1.656  23.785987
1.655  23.831586
1.654  23.757535
1.653  23.799438
1.652  23.747705
1.651  23.817423
1.650  23.760074
1.649  23.756401
1.648  23.720503
1.647  23.754681
1.646  23.630895
1.645  23.784430
1.644  23.709347
1.643  23.692327
1.642  23.812501
1.641  23.605074
1.640  23.710011
1.639  23.630435
1.638  23.648761
1.637  23.702522
1.636  23.692018
1.635  23.569124
1.634  23.584853
1.633  23.649448
1.632  23.564467
1.631  23.595691
1.630  23.558825
1.629  23.618847
1.628  23.491970
1.627  23.507661
1.626  23.495367
1.625  23.593744
1.624  23.458554
1.623  23.440419
1.622  23.415504
1.621  23.513737
1.620  23.437466
1.619  23.438692
1.618  23.469344
1.617  23.436556
1.616  23.437209
1.615  23.328611
1.614  23.496785
1.613  23.452545
1.612  23.397046
1.611  23.387297
1.610  23.299564
1.609  23.296850
1.608  23.292084
1.607  23.384007
1.606  23.271837
1.605  23.376171
1.604  23.364837
1.603  23.361621
1.602  23.188127
1.601  23.297682
1.600  23.299248
1.599  23.241142
1.598  23.228183
1.597  23.245815
1.596  23.169805
1.595  23.173288
1.594  23.067389
1.593  23.156649
1.592  23.097427
1.591  23.157536
1.590  23.119317
1.589  23.132061
1.588  23.072585
1.587  23.122594
1.586  23.087349
1.585  23.022057
1.584  23.113805
1.583  23.036174
1.582  22.997952
1.581  22.978361
1.580  22.921353
1.579  22.988417
1.578  22.943939
1.577  23.006464
1.576  22.935467
1.575  22.981972
1.574  22.947095
1.573  22.900061
1.572  22.948492
1.571  22.909465
1.570  22.880314
1.569  22.864504
1.568  22.816735
1.567  22.844605
1.566  22.797707
1.565  22.844136
1.564  22.776115
1.563  22.803301
1.562  22.709901
1.561  22.751026
1.560  22.743637
1.559  22.731386
1.558  22.718001
1.557  22.662118
1.556  22.631195
1.555  22.646222
1.554  22.647709
1.553  22.641010
1.552  22.619751
1.551  22.628716
1.550  22.592236
1.549  22.576878
1.548  22.578725
1.547  22.626594
1.546  22.587539
1.545  22.578625
1.544  22.512559
1.543  22.530051
1.542  22.468532
1.541  22.481590
1.540  22.430027
1.539  22.470838
1.538  22.455683
1.537  22.408845
1.536  22.404884
1.535  22.460731
1.534  22.396107
1.533  22.379345
1.532  22.370178
1.531  22.415956
1.530  22.375090
1.529  22.294542
1.528  22.259592
1.527  22.336701
1.526  22.352329
1.525  22.346747
1.524  22.281119
1.523  22.185347
1.522  22.167237
1.521  22.200579
1.520  22.203324
1.519  22.155302
1.518  22.158091
1.517  22.165959
1.516  22.135217
1.515  22.157321
1.514  22.101370
1.513  22.089205
1.512  22.045857
1.511  22.022990
1.510  22.067989
1.509  22.082645
1.508  22.066240
1.507  22.028877
1.506  21.997212
1.505  21.989225
1.504  21.956436
1.503  21.954681
1.502  21.913137
1.501  21.892411
1.500  21.882086
1.499  21.878191
1.498  21.906676
1.497  21.874704
1.496  21.801633
1.495  21.734611
1.494  21.701957
1.493  21.688052
1.492  21.696407
1.491  21.659736
1.490  21.556625
1.489  21.472495
1.488  21.459280
1.487  21.392376
1.486  21.319244
1.485  21.315571
1.484  21.293410
1.483  21.151109
1.482  21.106583
1.481  21.064356
1.480  20.943968
1.479  20.903553
1.478  20.924440
1.477  20.861067
1.476  20.896613
1.475  20.929738
1.474  20.949637
1.473  20.946665
1.472  21.062030
1.471  21.131572
1.470  21.188647
1.469  21.246136
1.468  21.252989
1.467  21.247900
1.466  21.239590
1.465  21.223423
1.464  21.297500
1.463  21.261344
1.462  21.276374
1.461  21.236982
1.460  21.211548
1.459  21.201700
1.458  21.238555
1.457  21.159156
1.456  21.193726
1.455  21.165853
1.454  21.175603
1.453  21.076369
1.452  21.025678
1.451  20.996655
1.450  20.996955
1.449  21.002926
1.448  21.036334
1.447  21.017758
1.446  20.968824
1.445  20.946753
1.444  20.931708
1.443  20.916549
1.442  20.927633
1.441  20.902165
1.440  20.886368
1.439  20.841193
1.438  20.847918
1.437  20.804565
1.436  20.823536
1.435  20.832360
1.434  20.808687
1.433  20.806555
1.432  20.743174
1.431  20.658342
1.430  20.708906
