Name: Scorodite Fe^3+AsO_4.2H_2O
Type: Mineral
Class: Arsenates
Subclass: 
Particle Size: 0-45um
Sample No.: A-2A
Owner: JPL
Wavelength range: IR
Origin: USA, Utah, Tooele County, Gold Hill
Collected by Ward's
Description: 





Measurement: Hemispherical reflectance
First Column: X
Second Column: Y
X Units:  Wavelength (micrometers)
Y Units:  Reflectance (percent)
First X Value: 15.3853
Last X Value: 2.00032
Number of X Values: 2256
Additional information: a02aa.txt
 
15.3853	3.19402
15.3397	2.93455
15.2945	2.82173
15.2495	3.05191
15.2048	3.15943
15.1603	3.22009
15.1161	3.24506
15.0722	3.0775
15.0285	3.11693
14.9851	3.18105
14.9419	3.1982
14.8989	3.36275
14.8563	3.5436
14.8138	3.66424
14.7716	3.67774
14.7296	3.78914
14.6879	3.85409
14.6464	3.72144
14.6052	3.60766
14.5641	3.69005
14.5233	3.65639
14.4828	3.57367
14.4424	3.77806
14.4023	3.73888
14.3624	3.64272
14.3227	3.97133
14.2833	3.89174
14.244	3.89428
14.205	3.94228
14.1662	3.79108
14.1276	3.69725
14.0892	3.56057
14.051	3.47252
14.0131	3.42868
13.9753	3.41871
13.9377	3.548
13.9004	3.52083
13.8632	3.36926
13.8262	3.42081
13.7895	3.65975
13.7529	3.63312
13.7165	3.57
13.6803	3.6493
13.6443	3.60428
13.6085	3.69055
13.5729	3.70691
13.5374	3.61451
13.5022	3.77201
13.4671	3.89205
13.4322	3.92692
13.3975	4.03738
13.363	4.06705
13.3286	4.06383
13.2944	4.12789
13.2604	4.25717
13.2266	4.31744
13.193	4.45329
13.1595	4.56048
13.1262	4.64003
13.093	4.58142
13.06	4.6834
13.0272	4.90233
12.9946	4.89729
12.9621	4.87162
12.9298	4.93197
12.8976	5.12301
12.8656	5.21924
12.8337	5.1008
12.8021	5.19663
12.7705	5.54469
12.7391	5.57262
12.7079	5.69341
12.6769	5.98215
12.6459	6.11229
12.6152	6.35721
12.5845	6.69084
12.5541	6.87122
12.5238	7.14648
12.4936	7.51921
12.4635	7.66679
12.4337	7.68998
12.4039	7.78903
12.3743	7.95884
12.3448	7.89794
12.3155	7.6664
12.2863	7.57699
12.2573	7.43247
12.2284	7.26938
12.1996	7.25896
12.171	7.54375
12.1425	7.7685
12.1141	7.88997
12.0859	7.87591
12.0578	7.80907
12.0298	7.81196
12.0019	7.86722
11.9742	7.91785
11.9466	7.88765
11.9192	7.73822
11.8918	7.5214
11.8646	7.31226
11.8375	7.24662
11.8106	7.16742
11.7837	7.00015
11.757	6.78261
11.7304	6.77589
11.7039	6.86473
11.6776	6.76642
11.6513	6.64104
11.6252	6.59124
11.5992	6.39646
11.5733	6.05893
11.5475	5.94142
11.5219	5.76425
11.4963	5.49717
11.4709	5.27274
11.4455	5.08336
11.4203	4.90773
11.3952	4.75323
11.3702	4.55236
11.3454	4.42472
11.3206	4.32688
11.2959	4.08518
11.2714	3.805
11.2469	3.57315
11.2226	3.50783
11.1983	3.63088
11.1742	3.60526
11.1502	3.42768
11.1263	3.34961
11.1024	3.34251
11.0787	3.30186
11.0551	3.26736
11.0316	3.23412
11.0081	3.21834
10.9848	3.1827
10.9616	3.22098
10.9385	3.21715
10.9154	3.21778
10.8925	3.28345
10.8697	3.22219
10.8469	3.11221
10.8243	3.03229
10.8017	2.92382
10.7793	2.82572
10.7569	2.73666
10.7346	2.50357
10.7125	2.29672
10.6904	2.18427
10.6684	2.07172
10.6465	1.97953
10.6247	1.84318
10.6029	1.66749
10.5813	1.5448
10.5597	1.44932
10.5383	1.32857
10.5169	1.27355
10.4956	1.4007
10.4744	1.33635
10.4533	1.22578
10.4323	1.16292
10.4113	1.25263
10.3904	1.29586
10.3697	1.25373
10.349	1.23581
10.3284	1.24187
10.3078	1.11296
10.2874	1.13963
10.267	1.30495
10.2467	1.34754
10.2265	1.39895
10.2064	1.41723
10.1863	1.37369
10.1663	1.4321
10.1464	1.55406
10.1266	1.58277
10.1069	1.63727
10.0872	1.58277
10.0676	1.56883
10.0481	1.6267
10.0287	1.56544
10.0093	1.62485
9.99005	1.71753
9.97084	1.84597
9.95169	1.93828
9.93263	2.0286
9.91364	2.02878
9.89472	2.03391
9.87587	2.11139
9.8571	2.08364
9.83839	2.06893
9.81976	2.21997
9.80119	2.2769
9.78271	2.39804
9.76428	2.54734
9.74592	2.56462
9.72764	2.59431
9.70943	2.62155
9.69128	2.63332
9.6732	2.70188
9.65518	2.78832
9.63724	2.85078
9.61935	2.97218
9.60155	3.03806
9.5838	3.05651
9.56611	3.12041
9.5485	3.09916
9.53094	2.99508
9.51345	3.04145
9.49604	3.20368
9.47867	3.26467
9.46137	3.15416
9.44414	3.05226
9.42697	3.15293
9.40986	3.22934
9.39281	3.27422
9.37583	3.34733
9.35891	3.57721
9.34204	3.72808
9.32524	3.77528
9.3085	3.89757
9.29182	3.94811
9.27519	4.08139
9.25863	4.22715
9.24213	4.32978
9.22568	4.30036
9.2093	4.14055
9.19297	4.3155
9.17669	4.48681
9.16048	4.45865
9.14433	4.48185
9.12823	4.59688
9.11218	4.61631
9.0962	4.73371
9.08027	4.84691
9.06439	4.84102
9.04858	4.86656
9.03281	4.93473
9.0171	4.88586
9.00145	4.68059
8.98585	4.65048
8.9703	4.7676
8.9548	4.80042
8.93937	4.81469
8.92398	4.8344
8.90865	4.88547
8.89337	4.8725
8.87814	5.04449
8.86296	5.15496
8.84784	5.25514
8.83277	5.35553
8.81774	5.44651
8.80277	5.5601
8.78786	5.66396
8.77298	5.76901
8.75816	5.97068
8.7434	6.2476
8.72868	6.39516
8.714	6.30257
8.69938	6.33989
8.68481	6.45595
8.67029	6.53688
8.65581	6.6328
8.64139	6.61833
8.62701	6.56627
8.61268	6.62267
8.5984	6.63896
8.58416	6.71151
8.56997	6.76147
8.55583	6.97889
8.54174	7.20595
8.52769	7.1677
8.51368	7.09097
8.49973	7.01802
8.48582	7.05163
8.47195	7.2191
8.45813	7.29341
8.44436	7.15774
8.43062	7.11323
8.41693	7.114
8.4033	7.04989
8.3897	6.99352
8.37614	7.0127
8.36264	7.10038
8.34917	7.09025
8.33574	6.93682
8.32236	6.75131
8.30903	6.71252
8.29573	6.79891
8.28248	6.87708
8.26927	6.92584
8.2561	7.08173
8.24298	7.21423
8.2299	7.33578
8.21685	7.54633
8.20385	7.69342
8.19089	7.74598
8.17797	7.75417
8.16509	7.69448
8.15225	7.78334
8.13946	7.97864
8.1267	8.08747
8.11398	8.05925
8.10131	8.01142
8.08867	8.03953
8.07606	8.08948
8.0635	8.17734
8.05099	8.22636
8.0385	8.26396
8.02606	8.34925
8.01366	8.39492
8.00129	8.39039
7.98896	8.44957
7.97667	8.4751
7.96442	8.51278
7.9522	8.59388
7.94002	8.65018
7.92788	8.73055
7.91578	8.84422
7.90371	8.93657
7.89168	8.88871
7.87969	8.90045
7.86773	8.9288
7.85581	8.95121
7.84392	8.97855
7.83207	9.01626
7.82026	9.04073
7.80849	9.06524
7.79674	9.11384
7.78503	9.16179
7.77337	9.10134
7.76173	9.05695
7.75012	9.12928
7.73856	9.15145
7.72703	9.20981
7.71553	9.1908
7.70406	9.13729
7.69263	9.2389
7.68123	9.28653
7.66987	9.18044
7.65855	9.20279
7.64725	9.274
7.63598	9.24618
7.62475	9.17709
7.61356	9.17071
7.60239	9.22522
7.59126	9.31647
7.58017	9.37375
7.5691	9.3328
7.55806	9.33622
7.54707	9.43706
7.5361	9.36428
7.52516	9.3054
7.51425	9.33572
7.50338	9.33613
7.49253	9.3179
7.48172	9.37281
7.47094	9.45938
7.46019	9.47123
7.44947	9.39847
7.43879	9.38857
7.42813	9.46906
7.4175	9.55996
7.4069	9.54706
7.39634	9.49129
7.3858	9.52029
7.37529	9.54496
7.36482	9.58447
7.35437	9.59992
7.34396	9.49979
7.33357	9.48699
7.32321	9.46938
7.31288	9.52026
7.30258	9.51603
7.29231	9.44739
7.28207	9.44038
7.27185	9.47089
7.26167	9.3967
7.25152	9.33136
7.24139	9.34747
7.23129	9.31273
7.22122	9.24788
7.21117	9.23825
7.20116	9.22766
7.19117	9.09683
7.18121	8.96862
7.17128	8.95058
7.16137	8.91309
7.1515	8.79735
7.14164	8.70738
7.13182	8.66105
7.12203	8.61621
7.11225	8.61042
7.10251	8.45505
7.0928	8.23487
7.08311	8.14284
7.07344	8.13592
7.06381	8.20044
7.0542	8.28846
7.04461	8.28899
7.03506	8.07576
7.02552	7.96481
7.01601	7.89211
7.00653	7.88558
6.99708	7.93553
6.98765	7.93323
6.97824	7.85377
6.96886	7.92265
6.95951	7.95208
6.95018	7.75938
6.94087	7.72111
6.9316	7.71729
6.92234	7.78979
6.91311	7.85442
6.90391	7.75402
6.89473	7.66637
6.88557	7.71285
6.87644	7.77882
6.86733	7.92635
6.85824	7.77272
6.84918	7.51123
6.84015	7.45726
6.83114	7.47651
6.82215	7.45912
6.81319	7.44103
6.80424	7.47941
6.79532	7.57873
6.78643	7.56499
6.77756	7.33564
6.76871	7.22134
6.75989	7.19697
6.75109	7.14303
6.74231	7.10146
6.73355	7.1499
6.72482	7.20499
6.71611	7.20654
6.70742	7.11068
6.69875	6.98852
6.69011	7.02393
6.68149	7.13325
6.67289	7.07853
6.66431	6.93205
6.65576	6.88697
6.64722	7.04713
6.63871	7.23018
6.63022	7.0911
6.62175	6.96295
6.61331	6.86986
6.60488	6.73067
6.59648	6.70687
6.5881	6.75428
6.57974	6.70645
6.5714	6.71955
6.56308	6.71688
6.55478	6.66406
6.54651	6.55595
6.53825	6.45073
6.53001	6.43491
6.5218	6.47642
6.51361	6.37406
6.50544	6.28936
6.49729	6.41648
6.48915	6.46892
6.48104	6.24199
6.47295	6.06149
6.46488	6.00736
6.45683	5.98128
6.4488	5.92507
6.44079	5.83129
6.4328	5.78298
6.42482	5.81294
6.41687	5.88662
6.40894	5.64036
6.40103	5.40719
6.39314	5.39086
6.38526	5.30857
6.37741	5.19842
6.36957	5.18677
6.36176	5.13946
6.35396	5.13114
6.34618	5.0808
6.33843	4.9508
6.33069	4.86576
6.32297	4.81096
6.31527	4.781
6.30758	4.79616
6.29992	4.72835
6.29227	4.69871
6.28465	4.73315
6.27704	4.65274
6.26945	4.70314
6.26188	4.75842
6.25432	4.71946
6.24679	4.76446
6.23927	4.89805
6.23177	5.03782
6.22429	5.13981
6.21683	5.26927
6.20938	5.42318
6.20195	5.53081
6.19454	5.62584
6.18715	5.9098
6.17978	6.10133
6.17242	6.1691
6.16508	6.36026
6.15776	6.58399
6.15045	6.67027
6.14317	6.8114
6.1359	6.9979
6.12864	7.22971
6.12141	7.59064
6.11419	8.00057
6.10699	7.9864
6.0998	7.90396
6.09263	8.00169
6.08549	8.18736
6.07835	8.47903
6.07123	8.64357
6.06413	8.59699
6.05705	8.87332
6.04998	9.35031
6.04293	9.26731
6.0359	9.02055
6.02888	9.00236
6.02187	9.1503
6.01489	9.36119
6.00792	9.40285
6.00096	9.47897
5.99403	9.76366
5.98711	9.83183
5.9802	9.76716
5.97331	9.90883
5.96644	10.0583
5.95958	10.0207
5.95274	10.0371
5.94591	10.1603
5.9391	10.3655
5.9323	10.2562
5.92552	10.0906
5.91876	10.0998
5.91201	10.063
5.90528	10.1121
5.89856	10.409
5.89186	10.4791
5.88517	10.5327
5.8785	10.6158
5.87184	10.4325
5.8652	10.4937
5.85857	10.5106
5.85196	10.5881
5.84536	10.7338
5.83878	10.8877
5.83221	11.0711
5.82566	11.3679
5.81912	11.5216
5.81259	11.5002
5.80608	11.5716
5.79959	11.6691
5.79311	11.7444
5.78665	11.9573
5.78019	12.1364
5.77376	12.4241
5.76734	12.8022
5.76093	12.7325
5.75453	12.6392
5.74815	12.7393
5.74179	12.8411
5.73543	12.9507
5.7291	13.0732
5.72277	13.3643
5.71646	13.5594
5.71017	13.6712
5.70389	13.6096
5.69762	13.6492
5.69136	13.8898
5.68513	14.0255
5.6789	14.1736
5.67268	14.245
5.66648	14.3222
5.6603	14.5377
5.65413	14.7399
5.64797	14.893
5.64182	15.0699
5.63569	15.0069
5.62957	14.9702
5.62347	15.1424
5.61737	15.3266
5.61129	15.4435
5.60522	15.6075
5.59917	15.7609
5.59313	15.8592
5.5871	16.0328
5.58109	16.345
5.57509	16.4587
5.5691	16.4351
5.56312	16.5916
5.55716	16.808
5.55121	17.018
5.54528	17.0494
5.53935	17.0907
5.53344	17.2009
5.52754	17.3855
5.52166	17.5641
5.51578	17.7037
5.50992	17.8528
5.50407	17.9833
5.49823	18.0879
5.49241	18.2591
5.4866	18.3743
5.4808	18.5744
5.47501	18.7223
5.46923	18.908
5.46347	19.1019
5.45772	19.064
5.45198	19.0629
5.44625	19.1491
5.44054	19.2512
5.43484	19.3234
5.42914	19.5012
5.42347	19.8465
5.4178	19.8084
5.41214	19.6569
5.4065	19.6424
5.40087	19.6853
5.39525	19.7313
5.38964	19.7235
5.38404	19.7466
5.37846	19.8222
5.37288	19.8593
5.36732	19.9195
5.36177	19.9573
5.35623	20.0696
5.35071	20.1894
5.34519	20.1233
5.33968	20.1183
5.33419	20.1178
5.32871	20.1342
5.32324	20.1867
5.31778	20.1531
5.31233	20.1794
5.30689	20.2372
5.30147	20.2819
5.29605	20.3811
5.29065	20.4759
5.28525	20.4561
5.27987	20.4981
5.2745	20.5126
5.26914	20.494
5.26379	20.4526
5.25845	20.5221
5.25312	20.6064
5.24781	20.659
5.2425	20.6887
5.23721	20.7196
5.23192	20.7199
5.22665	20.7031
5.22138	20.7303
5.21613	20.7896
5.21089	20.8019
5.20566	20.7916
5.20044	20.7931
5.19522	20.7234
5.19002	20.6407
5.18483	20.6592
5.17965	20.6665
5.17448	20.5742
5.16933	20.5523
5.16418	20.5483
5.15904	20.5766
5.15391	20.514
5.14879	20.4995
5.14368	20.4484
5.13859	20.3372
5.1335	20.2684
5.12842	20.2054
5.12335	20.1575
5.1183	20.0816
5.11325	20.0306
5.10821	19.9719
5.10318	19.8896
5.09817	19.8011
5.09316	19.7335
5.08816	19.609
5.08317	19.5182
5.07819	19.4768
5.07322	19.443
5.06826	19.3674
5.06331	19.339
5.05837	19.206
5.05344	19.0652
5.04852	19.0061
5.04361	18.945
5.03871	18.8601
5.03382	18.8276
5.02894	18.7919
5.02406	18.7152
5.0192	18.6027
5.01435	18.5178
5.0095	18.4467
5.00467	18.349
4.99984	18.2691
4.99502	18.229
4.99021	18.1727
4.98542	18.1411
4.98063	18.0729
4.97585	17.9608
4.97108	17.8591
4.96632	17.8164
4.96156	17.7909
4.95682	17.7142
4.95209	17.6256
4.94736	17.5337
4.94264	17.4204
4.93794	17.3345
4.93324	17.2295
4.92855	17.1463
4.92387	17.1112
4.9192	17.1394
4.91453	17.0532
4.90988	16.8885
4.90524	16.7715
4.9006	16.7815
4.89597	16.7723
4.89135	16.7272
4.88674	16.6662
4.88214	16.6173
4.87755	16.6214
4.87296	16.5323
4.86839	16.4484
4.86382	16.4109
4.85926	16.3502
4.85471	16.3315
4.85017	16.3074
4.84564	16.3247
4.84111	16.3554
4.8366	16.2962
4.83209	16.2472
4.82759	16.2149
4.8231	16.2282
4.81862	16.3076
4.81415	16.2547
4.80968	16.1588
4.80522	16.1018
4.80077	16.1131
4.79633	16.2012
4.7919	16.2412
4.78747	16.1733
4.78306	16.0864
4.77865	16.0194
4.77425	16.0008
4.76986	15.9962
4.76547	15.9378
4.7611	15.8835
4.75673	15.8937
4.75237	15.9244
4.74802	15.9253
4.74367	15.7881
4.73934	15.6823
4.73501	15.6538
4.73069	15.7185
4.72638	15.7256
4.72207	15.557
4.71777	15.4806
4.71348	15.4881
4.7092	15.4327
4.70493	15.3607
4.70066	15.2998
4.69641	15.2402
4.69216	15.1485
4.68791	15.0764
4.68368	15.0075
4.67945	14.9623
4.67523	14.9434
4.67102	14.896
4.66682	14.7937
4.66262	14.6646
4.65843	14.5909
4.65425	14.5436
4.65007	14.4477
4.64591	14.3178
4.64175	14.2598
4.6376	14.1567
4.63345	14.1282
4.62932	14.0855
4.62519	14.0031
4.62106	13.9045
4.61695	13.7896
4.61284	13.6279
4.60874	13.509
4.60465	13.4449
4.60056	13.4259
4.59648	13.4198
4.59241	13.2743
4.58835	13.1899
4.58429	13.1041
4.58024	12.9105
4.5762	12.7412
4.57216	12.7812
4.56814	12.8182
4.56411	12.7492
4.5601	12.6346
4.55609	12.4899
4.55209	12.386
4.5481	12.3911
4.54411	12.4361
4.54013	12.4442
4.53616	12.3476
4.5322	12.3057
4.52824	12.3124
4.52429	12.2723
4.52034	12.1957
4.51641	12.1265
4.51247	12.1293
4.50855	12.2264
4.50463	12.2491
4.50072	12.1873
4.49682	12.2264
4.49292	12.3102
4.48903	12.3348
4.48515	12.2553
4.48127	12.2659
4.4774	12.3616
4.47354	12.3592
4.46968	12.3148
4.46584	12.3235
4.46199	12.3473
4.45815	12.3421
4.45432	12.3677
4.4505	12.449
4.44668	12.4799
4.44287	12.4818
4.43907	12.4942
4.43527	12.528
4.43148	12.5704
4.4277	12.5884
4.42392	12.5087
4.42015	12.5497
4.41638	12.6318
4.41262	12.6776
4.40887	12.7144
4.40513	12.7179
4.40139	12.6941
4.39765	12.6939
4.39393	12.7721
4.39021	12.7328
4.38649	12.6798
4.38278	12.6855
4.37908	12.7111
4.37539	12.7376
4.3717	12.7242
4.36801	12.708
4.36434	12.7478
4.36067	12.7752
4.357	12.7571
4.35335	12.747
4.34969	12.7288
4.34605	12.732
4.34241	12.7596
4.33877	12.713
4.33514	12.6721
4.33152	12.6345
4.32791	12.6631
4.3243	12.6672
4.32069	12.6796
4.3171	12.7569
4.31351	12.8172
4.30992	12.8339
4.30634	12.8087
4.30277	12.7925
4.2992	12.7465
4.29564	12.7875
4.29208	12.8483
4.28853	12.7837
4.28499	12.7618
4.28145	12.8696
4.27792	12.9729
4.27439	13.0206
4.27087	13.0188
4.26735	12.9283
4.26384	12.8525
4.26034	12.8092
4.25684	12.8092
4.25335	12.7751
4.24986	12.8531
4.24638	13.0257
4.24291	13.0304
4.23944	12.9178
4.23598	12.8971
4.23252	12.9073
4.22906	12.8465
4.22562	12.8048
4.22218	12.8798
4.21874	12.9288
4.21531	12.9785
4.21189	12.9175
4.20847	12.859
4.20506	12.7385
4.20165	12.6853
4.19825	12.668
4.19485	12.694
4.19146	12.6925
4.18807	12.5866
4.18469	12.4614
4.18132	12.4199
4.17795	12.5831
4.17458	12.6768
4.17123	12.6001
4.16787	12.5253
4.16453	12.531
4.16118	12.5586
4.15785	12.5085
4.15451	12.4116
4.15119	12.4281
4.14787	12.474
4.14455	12.4323
4.14124	12.3107
4.13794	12.28
4.13464	12.3268
4.13134	12.3132
4.12805	12.2993
4.12477	12.2796
4.12149	12.2431
4.11822	12.2351
4.11495	12.216
4.11168	12.1847
4.10843	12.0734
4.10517	11.9461
4.10192	11.9578
4.09868	12.0362
4.09545	12.0248
4.09221	11.9884
4.08899	11.9623
4.08576	11.9676
4.08255	11.9863
4.07933	11.9689
4.07613	11.9181
4.07292	11.8312
4.06973	11.7988
4.06654	11.7969
4.06335	11.7765
4.06017	11.715
4.05699	11.6483
4.05382	11.6876
4.05065	11.5747
4.04749	11.5426
4.04433	11.5213
4.04118	11.4734
4.03803	11.407
4.03489	11.3601
4.03175	11.3355
4.02862	11.3404
4.02549	11.327
4.02237	11.2011
4.01925	11.146
4.01614	11.1491
4.01303	11.1533
4.00993	11.1495
4.00683	11.1178
4.00373	11.0774
4.00064	11.0037
3.99756	10.9015
3.99448	10.8199
3.9914	10.8177
3.98833	10.7504
3.98527	10.727
3.98221	10.7807
3.97915	10.7867
3.9761	10.6932
3.97305	10.5405
3.97001	10.49
3.96697	10.4774
3.96394	10.4172
3.96091	10.4393
3.95789	10.4338
3.95487	10.2847
3.95186	10.187
3.94885	10.2129
3.94584	10.1835
3.94284	10.1446
3.93984	10.0793
3.93685	10.0121
3.93386	9.97591
3.93088	9.94824
3.9279	9.89066
3.92493	9.84197
3.92196	9.76285
3.919	9.72915
3.91604	9.72244
3.91308	9.69746
3.91013	9.60308
3.90718	9.54283
3.90424	9.46944
3.9013	9.41667
3.89837	9.48065
3.89544	9.46034
3.89252	9.40387
3.8896	9.3801
3.88668	9.34429
3.88377	9.26271
3.88086	9.23125
3.87796	9.26418
3.87506	9.30192
3.87217	9.18448
3.86928	9.08202
3.86639	9.01658
3.86351	9.03808
3.86064	8.97661
3.85776	8.86534
3.8549	8.87931
3.85203	8.88191
3.84917	8.74386
3.84631	8.70321
3.84346	8.71515
3.84062	8.68332
3.83777	8.75551
3.83494	8.72441
3.8321	8.6327
3.82927	8.58067
3.82644	8.48362
3.82362	8.43478
3.82081	8.32377
3.81799	8.21045
3.81518	8.23139
3.81238	8.20085
3.80958	8.20809
3.80678	8.16095
3.80399	8.14699
3.8012	8.11522
3.79841	8.03423
3.79563	8.05668
3.79286	8.02065
3.79008	7.83767
3.78731	7.77923
3.78455	7.76055
3.78179	7.76964
3.77903	7.72854
3.77628	7.6934
3.77353	7.68502
3.77079	7.57692
3.76805	7.40656
3.76531	7.37305
3.76258	7.45196
3.75985	7.47589
3.75713	7.37294
3.7544	7.29629
3.75169	7.32328
3.74898	7.26266
3.74627	7.19211
3.74356	7.12939
3.74086	6.99917
3.73816	6.93425
3.73547	6.92091
3.73278	6.90378
3.7301	6.86652
3.72741	6.80573
3.72474	6.73918
3.72206	6.66979
3.71939	6.65904
3.71673	6.69319
3.71406	6.63878
3.71141	6.60186
3.70875	6.44188
3.7061	6.34763
3.70345	6.33899
3.70081	6.27709
3.69817	6.2667
3.69553	6.29648
3.6929	6.26783
3.69027	6.16756
3.68765	6.14414
3.68503	6.1983
3.68241	6.22291
3.6798	6.1857
3.67719	6.11974
3.67458	5.98885
3.67198	5.84284
3.66938	5.76001
3.66678	5.76575
3.66419	5.77853
3.66161	5.78155
3.65902	5.81577
3.65644	5.77046
3.65387	5.7593
3.65129	5.75386
3.64872	5.72402
3.64616	5.71024
3.64359	5.65361
3.64103	5.50548
3.63848	5.37671
3.63593	5.36371
3.63338	5.38259
3.63084	5.40707
3.6283	5.44024
3.62576	5.39504
3.62322	5.38493
3.62069	5.26415
3.61817	5.23885
3.61564	5.28155
3.61312	5.26279
3.61061	5.21876
3.6081	5.18735
3.60559	5.17352
3.60308	5.14763
3.60058	5.11586
3.59808	5.08151
3.59558	4.99843
3.59309	5.01273
3.59061	5.05415
3.58812	5.07303
3.58564	5.077
3.58316	4.96014
3.58069	4.89271
3.57822	4.85705
3.57575	4.76647
3.57328	4.70552
3.57082	4.67713
3.56836	4.7073
3.56591	4.7729
3.56346	4.70907
3.56101	4.64958
3.55857	4.65393
3.55613	4.62678
3.55369	4.55378
3.55126	4.49954
3.54883	4.49737
3.5464	4.50122
3.54397	4.49293
3.54155	4.50713
3.53914	4.51053
3.53672	4.51887
3.53431	4.46245
3.5319	4.38721
3.5295	4.38645
3.5271	4.28462
3.5247	4.24743
3.52231	4.2646
3.51991	4.24285
3.51753	4.20297
3.51514	4.22812
3.51276	4.22502
3.51038	4.14541
3.50801	4.12882
3.50563	4.17802
3.50327	4.16498
3.5009	4.09364
3.49854	4.08188
3.49618	4.07628
3.49382	4.0467
3.49147	3.92928
3.48912	3.76736
3.48677	3.7833
3.48443	3.89235
3.48209	3.87308
3.47975	3.8152
3.47742	3.79879
3.47509	3.78265
3.47276	3.81957
3.47044	3.80144
3.46812	3.78186
3.4658	3.72765
