Name: Biotite Gneiss
Type: Rock
Class: Metamorphic
Subclass:  Gneiss 
Particle Size: Solid surface
Sample No.: Ward79.txt
Owner: JPL
Wavelength range:  IR 
Origin: Ward's Collection of American Rocks.  Sample locality - Uxbridge, Worcester County, Massachusetts.  Collected by - JPL.
Collected by:  Ward's Natural Science
Description: A banded rock.  Think bands of black mica alternate with
those of quartz and feldspar.  Geologic age - Pre-Cambrian.




Measurement: Hemispherical reflectance
First Column: X
Second Column: Y
X Units: Wavelength (micrometers)
Y Units: Reflectance (percent)
First X Value: 15.3871
Last X Value: 1.9998
Number of X Values: 2257
Additional information: None

15.3871   5.07036
15.3416   4.73376
15.2964   4.51961
15.2514   4.16984
15.2066   3.63911
15.1622   3.26868
15.1180   3.31225
15.0740   3.15349
15.0303   3.13045
14.9869   3.26615
14.9437   3.28621
14.9008   3.61554
14.8581   3.64158
14.8156   3.47943
14.7734   3.53139
14.7314   3.50232
14.6897   3.54193
14.6482   3.74118
14.6069   3.46607
14.5659   3.46995
14.5251   3.59663
14.4845   3.80311
14.4442   4.04064
14.4041   4.11563
14.3642   3.90477
14.3245   3.65532
14.2850   3.64543
14.2458   3.77920
14.2068   3.93963
14.1679   3.99391
14.1293   3.97362
14.0909   4.01973
14.0528   3.99536
14.0148   4.01625
13.9770   4.10178
13.9394   4.21176
13.9021   4.30431
13.8649   4.23036
13.8279   4.28842
13.7911   4.55124
13.7546   4.47106
13.7182   4.36220
13.6820   4.31936
13.6460   4.43407
13.6101   4.68878
13.5745   4.66204
13.5391   4.62440
13.5038   4.79550
13.4687   4.88808
13.4339   4.82225
13.3991   4.89658
13.3646   5.00194
13.3302   4.85665
13.2961   4.87449
13.2621   4.89797
13.2282   4.81370
13.1946   4.95616
13.1611   5.08612
13.1278   5.04720
13.0946   5.05366
13.0616   5.24253
13.0288   5.18295
12.9962   5.12210
12.9637   5.43933
12.9313   5.74492
12.8992   6.06453
12.8672   6.42177
12.8353   6.53854
12.8036   6.60189
12.7721   6.47931
12.7407   6.33710
12.7095   6.17074
12.6784   5.77771
12.6475   5.44731
12.6167   5.40601
12.5861   5.58448
12.5556   5.90724
12.5253   5.96426
12.4951   5.89730
12.4651   5.96696
12.4352   5.75431
12.4054   5.16150
12.3758   4.66549
12.3463   4.08341
12.3170   3.57868
12.2878   3.58169
12.2588   3.83318
12.2299   3.98220
12.2011   4.11808
12.1725   4.24452
12.1439   4.34627
12.1156   4.60209
12.0873   4.77190
12.0592   4.68071
12.0312   4.73192
12.0034   4.91128
11.9757   5.01574
11.9481   5.17155
11.9206   5.30700
11.8933   5.36995
11.8661   5.49366
11.8390   5.66996
11.8120   5.63332
11.7852   5.61648
11.7584   5.79704
11.7318   5.84634
11.7053   5.85826
11.6790   6.02379
11.6527   6.09380
11.6266   6.11744
11.6006   6.17680
11.5747   6.24574
11.5489   6.29659
11.5233   6.24946
11.4977   6.31815
11.4723   6.33624
11.4469   6.28230
11.4217   6.38692
11.3966   6.59093
11.3716   6.80985
11.3468   6.95058
11.3220   7.00348
11.2973   7.16993
11.2728   7.46063
11.2483   7.61907
11.2240   7.61214
11.1997   7.76478
11.1756   7.99386
11.1515   8.09970
11.1276   8.00657
11.1038   8.05313
11.0801   8.27628
11.0564   8.26604
11.0329   8.33465
11.0095   8.54563
10.9862   8.66258
10.9629   8.61864
10.9398   8.76213
10.9168   8.97260
10.8938   8.95124
10.8710   8.99439
10.8483   9.18959
10.8256   9.36223
10.8031   9.63769
10.7806   9.83015
10.7582   9.92182
10.7360  10.02440
10.7138  10.19800
10.6917  10.35260
10.6697  10.42700
10.6478  10.43460
10.6260  10.49330
10.6042  10.69960
10.5826  10.95050
10.5610  11.14370
10.5396  11.34800
10.5182  11.58530
10.4969  11.75080
10.4757  11.88580
10.4546  11.94830
10.4335  12.02710
10.4126  12.36560
10.3917  12.62580
10.3709  12.71830
10.3502  12.95830
10.3296  13.34280
10.3091  13.55020
10.2886  13.62570
10.2683  13.98370
10.2480  14.32120
10.2277  14.66960
10.2076  14.90100
10.1876  15.06040
10.1676  15.33370
10.1477  15.78940
10.1279  16.18190
10.1081  16.46730
10.0885  16.76730
10.0689  16.99890
10.0494  17.22250
10.0299  17.44550
10.0106  17.71500
 9.9913  17.92350
 9.9720  18.13060
 9.9529  18.40490
 9.9338  18.83780
 9.9148  19.07640
 9.8959  19.08840
 9.8771  19.02350
 9.8583  18.96700
 9.8396  18.96280
 9.8210  19.00180
 9.8024  19.04000
 9.7839  19.07030
 9.7655  18.99030
 9.7471  18.87940
 9.7288  18.92960
 9.7106  19.24500
 9.6925  19.48410
 9.6744  19.52110
 9.6564  19.67010
 9.6384  19.75100
 9.6205  19.73020
 9.6027  19.60580
 9.5850  19.49950
 9.5673  19.36990
 9.5497  19.23190
 9.5321  19.11840
 9.5146  19.00150
 9.4972  19.01370
 9.4798  19.00950
 9.4625  18.95060
 9.4453  19.09590
 9.4281  19.20710
 9.4110  19.30710
 9.3940  19.59870
 9.3770  20.15530
 9.3600  20.55400
 9.3432  20.89720
 9.3264  21.23750
 9.3096  21.47360
 9.2930  21.50860
 9.2763  21.43660
 9.2598  21.50320
 9.2432  21.51560
 9.2268  21.41760
 9.2104  21.32280
 9.1941  21.23690
 9.1778  21.15330
 9.1616  21.08960
 9.1454  21.14580
 9.1293  21.17560
 9.1133  21.03750
 9.0973  21.03610
 9.0814  21.05030
 9.0655  21.07390
 9.0497  21.15710
 9.0339  21.22170
 9.0182  21.20720
 9.0025  21.25480
 8.9870  21.38690
 8.9714  21.48450
 8.9559  21.52670
 8.9405  21.71070
 8.9251  21.87430
 8.9097  22.00730
 8.8945  22.07070
 8.8792  22.12230
 8.8641  22.31820
 8.8489  22.41560
 8.8338  22.36380
 8.8188  22.31040
 8.8039  22.40240
 8.7889  22.47130
 8.7741  22.51620
 8.7592  22.46330
 8.7445  22.44760
 8.7297  22.41480
 8.7151  22.26020
 8.7005  21.93140
 8.6859  21.53610
 8.6714  21.00720
 8.6569  20.22210
 8.6425  19.35690
 8.6281  18.93990
 8.6137  19.33560
 8.5994  20.23220
 8.5852  21.19540
 8.5710  21.80180
 8.5569  22.10000
 8.5428  22.35610
 8.5287  22.40910
 8.5147  22.38360
 8.5008  22.30480
 8.4869  22.26720
 8.4730  22.33000
 8.4592  22.40410
 8.4454  22.35940
 8.4316  22.30930
 8.4180  22.35530
 8.4043  22.35590
 8.3907  22.20070
 8.3772  22.12750
 8.3637  21.90610
 8.3502  21.66780
 8.3368  21.38590
 8.3234  21.14870
 8.3100  20.84600
 8.2967  20.42990
 8.2835  19.89600
 8.2703  19.29010
 8.2571  18.71340
 8.2440  18.11480
 8.2309  17.48980
 8.2179  16.83720
 8.2049  16.03680
 8.1919  15.21190
 8.1790  14.55750
 8.1661  13.74950
 8.1532  12.76360
 8.1404  11.73170
 8.1277  10.93350
 8.1150  10.25070
 8.1023   9.47873
 8.0897   8.69996
 8.0770   8.12195
 8.0645   7.71020
 8.0520   7.19557
 8.0395   6.57320
 8.0270   6.01521
 8.0146   5.59976
 8.0023   5.15124
 7.9899   4.76891
 7.9776   4.50535
 7.9654   4.29116
 7.9532   3.98663
 7.9410   3.65230
 7.9288   3.28582
 7.9167   3.06740
 7.9047   2.93338
 7.8926   2.74376
 7.8807   2.57048
 7.8687   2.46737
 7.8568   2.36319
 7.8449   2.24081
 7.8330   2.15597
 7.8212   2.01393
 7.8094   1.83537
 7.7977   1.79434
 7.7860   1.91730
 7.7743   1.95784
 7.7627   1.84909
 7.7511   1.83152
 7.7395   1.84378
 7.7280   1.80753
 7.7165   1.69910
 7.7050   1.67379
 7.6936   1.60723
 7.6822   1.45113
 7.6708   1.48732
 7.6595   1.58953
 7.6482   1.46753
 7.6369   1.37278
 7.6257   1.39170
 7.6145   1.38412
 7.6033   1.30085
 7.5922   1.27272
 7.5811   1.26396
 7.5700   1.25762
 7.5590   1.24114
 7.5480   1.17045
 7.5370   1.16965
 7.5261   1.32033
 7.5152   1.33383
 7.5043   1.22812
 7.4935   1.24804
 7.4826   1.32904
 7.4718   1.37491
 7.4611   1.39438
 7.4504   1.34186
 7.4397   1.36121
 7.4290   1.35721
 7.4184   1.38575
 7.4078   1.44644
 7.3972   1.43399
 7.3867   1.38884
 7.3762   1.47865
 7.3657   1.43563
 7.3553   1.31050
 7.3449   1.28498
 7.3345   1.41643
 7.3241   1.53112
 7.3138   1.48527
 7.3035   1.47991
 7.2932   1.48048
 7.2830   1.46723
 7.2727   1.47226
 7.2626   1.44523
 7.2524   1.45083
 7.2423   1.46386
 7.2322   1.50571
 7.2221   1.59888
 7.2120   1.55949
 7.2020   1.47081
 7.1921   1.47185
 7.1821   1.44580
 7.1722   1.44338
 7.1623   1.51135
 7.1524   1.54986
 7.1425   1.60010
 7.1327   1.66851
 7.1229   1.67999
 7.1131   1.67417
 7.1034   1.83142
 7.0937   1.86278
 7.0840   1.80206
 7.0743   1.84568
 7.0647   1.82315
 7.0551   1.77320
 7.0455   1.76007
 7.0359   1.73119
 7.0264   1.80313
 7.0169   1.81187
 7.0074   1.74914
 6.9979   1.70969
 6.9885   1.76595
 6.9791   1.88644
 6.9697   1.89063
 6.9604   1.88769
 6.9510   1.90606
 6.9417   1.98056
 6.9324   1.95209
 6.9232   1.83304
 6.9140   1.84191
 6.9047   1.92799
 6.8956   1.96943
 6.8864   1.96675
 6.8773   2.04485
 6.8682   2.07885
 6.8591   2.08031
 6.8500   2.10726
 6.8410   2.11787
 6.8320   2.17994
 6.8230   2.09652
 6.8140   2.06198
 6.8051   2.11294
 6.7962   2.12571
 6.7873   2.14444
 6.7784   2.18123
 6.7695   2.13573
 6.7607   2.16510
 6.7519   2.19139
 6.7431   2.17346
 6.7344   2.13198
 6.7256   2.13777
 6.7169   2.14931
 6.7082   2.20295
 6.6996   2.27555
 6.6909   2.30832
 6.6823   2.29172
 6.6737   2.30208
 6.6651   2.26009
 6.6566   2.23209
 6.6480   2.24097
 6.6395   2.30728
 6.6310   2.38790
 6.6226   2.38670
 6.6141   2.37174
 6.6057   2.39163
 6.5973   2.31396
 6.5889   2.30902
 6.5805   2.42651
 6.5722   2.41653
 6.5639   2.28148
 6.5556   2.24338
 6.5473   2.31643
 6.5390   2.40820
 6.5308   2.42891
 6.5226   2.40401
 6.5144   2.44331
 6.5062   2.43018
 6.4981   2.43874
 6.4900   2.44150
 6.4818   2.35135
 6.4737   2.35282
 6.4657   2.36832
 6.4576   2.36604
 6.4496   2.38533
 6.4416   2.43114
 6.4336   2.44693
 6.4256   2.41142
 6.4177   2.40803
 6.4097   2.46047
 6.4018   2.46083
 6.3939   2.37600
 6.3860   2.33528
 6.3782   2.37148
 6.3704   2.33244
 6.3625   2.25987
 6.3547   2.34978
 6.3470   2.36190
 6.3392   2.30139
 6.3315   2.29648
 6.3237   2.29825
 6.3160   2.25707
 6.3083   2.23028
 6.3007   2.30036
 6.2930   2.32785
 6.2854   2.38740
 6.2778   2.27070
 6.2702   2.20197
 6.2626   2.19776
 6.2551   2.16825
 6.2476   2.22091
 6.2400   2.26892
 6.2325   2.28424
 6.2251   2.30395
 6.2176   2.21507
 6.2101   2.27145
 6.2027   2.28793
 6.1953   2.16823
 6.1879   2.17878
 6.1805   2.24249
 6.1732   2.24019
 6.1658   2.25078
 6.1585   2.27189
 6.1512   2.24422
 6.1439   2.25658
 6.1367   2.20431
 6.1294   2.14016
 6.1222   2.21066
 6.1149   2.33543
 6.1077   2.33022
 6.1006   2.29811
 6.0934   2.41819
 6.0862   2.58253
 6.0791   2.43227
 6.0720   2.36861
 6.0649   2.46383
 6.0578   2.42528
 6.0507   2.36539
 6.0437   2.37037
 6.0366   2.35032
 6.0296   2.35433
 6.0226   2.39144
 6.0156   2.35108
 6.0087   2.35024
 6.0017   2.45842
 5.9948   2.49239
 5.9878   2.49645
 5.9809   2.46376
 5.9740   2.43079
 5.9672   2.39386
 5.9603   2.41330
 5.9535   2.47441
 5.9466   2.53562
 5.9398   2.60322
 5.9330   2.58864
 5.9262   2.45684
 5.9195   2.45446
 5.9127   2.54720
 5.9060   2.57036
 5.8993   2.50745
 5.8926   2.47990
 5.8859   2.57079
 5.8792   2.58801
 5.8726   2.56981
 5.8659   2.66868
 5.8593   2.66429
 5.8527   2.64044
 5.8461   2.70320
 5.8395   2.73279
 5.8329   2.76393
 5.8264   2.75761
 5.8198   2.67018
 5.8133   2.70914
 5.8068   2.80775
 5.8003   2.83233
 5.7938   2.75293
 5.7874   2.74118
 5.7809   2.84698
 5.7745   2.87152
 5.7680   2.86026
 5.7616   2.87313
 5.7552   2.91845
 5.7489   2.97510
 5.7425   2.97749
 5.7361   2.93086
 5.7298   2.90242
 5.7235   2.96993
 5.7172   2.98699
 5.7109   2.94392
 5.7046   2.93821
 5.6983   3.04343
 5.6921   3.10354
 5.6858   3.09696
 5.6796   3.08965
 5.6734   3.10518
 5.6672   3.12313
 5.6610   3.09989
 5.6548   3.07641
 5.6487   3.08174
 5.6425   3.06006
 5.6364   3.01189
 5.6303   3.04342
 5.6242   3.07350
 5.6181   3.09719
 5.6120   3.14467
 5.6059   3.14927
 5.5999   3.15026
 5.5938   3.15125
 5.5878   3.10878
 5.5818   3.06521
 5.5758   3.09173
 5.5698   3.03957
 5.5638   3.02491
 5.5578   3.11602
 5.5519   3.14696
 5.5460   3.13427
 5.5400   3.16785
 5.5341   3.22282
 5.5282   3.27812
 5.5223   3.31300
 5.5164   3.39896
 5.5106   3.45131
 5.5047   3.39512
 5.4989   3.46029
 5.4931   3.55848
 5.4873   3.64317
 5.4815   3.64092
 5.4757   3.66866
 5.4699   3.73717
 5.4641   3.72151
 5.4584   3.66884
 5.4527   3.72693
 5.4469   3.77783
 5.4412   3.78119
 5.4355   3.85302
 5.4298   3.93561
 5.4241   3.93918
 5.4185   4.02160
 5.4128   4.01571
 5.4072   3.94911
 5.4015   3.99153
 5.3959   3.94873
 5.3903   3.92302
 5.3847   3.99260
 5.3791   4.04920
 5.3735   4.02323
 5.3680   3.96456
 5.3624   3.94171
 5.3569   4.04633
 5.3514   4.14399
 5.3458   4.14781
 5.3403   4.12009
 5.3348   4.14813
 5.3294   4.19061
 5.3239   4.15307
 5.3184   4.12171
 5.3130   4.14956
 5.3075   4.19609
 5.3021   4.26591
 5.2967   4.31491
 5.2913   4.31244
 5.2859   4.31563
 5.2805   4.37398
 5.2751   4.44450
 5.2698   4.46682
 5.2644   4.43804
 5.2591   4.44669
 5.2538   4.49193
 5.2485   4.56148
 5.2431   4.61303
 5.2378   4.67780
 5.2326   4.67811
 5.2273   4.62787
 5.2220   4.63976
 5.2168   4.69446
 5.2115   4.75798
 5.2063   4.80997
 5.2011   4.87418
 5.1959   4.92947
 5.1907   5.00092
 5.1855   5.02217
 5.1803   5.01724
 5.1751   5.10598
 5.1700   5.11086
 5.1648   5.09913
 5.1597   5.22932
 5.1545   5.29991
 5.1494   5.25148
 5.1443   5.20711
 5.1392   5.21999
 5.1341   5.22239
 5.1291   5.28193
 5.1240   5.37699
 5.1189   5.43902
 5.1139   5.52977
 5.1088   5.52950
 5.1038   5.47696
 5.0988   5.51679
 5.0938   5.57791
 5.0888   5.55513
 5.0838   5.66847
 5.0788   5.75318
 5.0738   5.72529
 5.0689   5.74887
 5.0639   5.74663
 5.0590   5.80852
 5.0541   5.98763
 5.0491   5.98513
 5.0442   5.86720
 5.0393   5.93266
 5.0344   6.04773
 5.0296   6.07552
 5.0247   6.10011
 5.0198   6.11085
 5.0150   6.15214
 5.0101   6.19222
 5.0053   6.17478
 5.0004   6.17548
 4.9956   6.24260
 4.9908   6.32969
 4.9860   6.47902
 4.9812   6.52811
 4.9765   6.51844
 4.9717   6.54418
 4.9669   6.54966
 4.9622   6.61427
 4.9574   6.68720
 4.9527   6.75985
 4.9480   6.84506
 4.9432   6.86733
 4.9385   6.91439
 4.9338   6.93364
 4.9291   6.98560
 4.9245   7.04122
 4.9198   7.10296
 4.9151   7.19491
 4.9105   7.24100
 4.9058   7.30038
 4.9012   7.39113
 4.8966   7.52441
 4.8919   7.70857
 4.8873   7.84069
 4.8827   7.91645
 4.8781   7.97891
 4.8736   8.16512
 4.8690   8.28000
 4.8644   8.21894
 4.8599   8.23318
 4.8553   8.40657
 4.8508   8.57358
 4.8462   8.59530
 4.8417   8.67485
 4.8372   8.78993
 4.8327   8.86966
 4.8282   8.95877
 4.8237   8.97717
 4.8192   8.94278
 4.8147   9.02133
 4.8103   9.11148
 4.8058   9.15732
 4.8014   9.31825
 4.7969   9.39062
 4.7925   9.42778
 4.7881   9.41258
 4.7836   9.34833
 4.7792   9.49043
 4.7748   9.60417
 4.7704   9.61646
 4.7660   9.66225
 4.7617   9.76169
 4.7573   9.82288
 4.7530   9.86236
 4.7486   9.94118
 4.7443  10.04120
 4.7399  10.14940
 4.7356  10.12780
 4.7313  10.12270
 4.7270  10.21840
 4.7226  10.31470
 4.7184  10.35430
 4.7141  10.36770
 4.7098  10.48120
 4.7055  10.44330
 4.7012  10.34490
 4.6970  10.37470
 4.6927  10.36130
 4.6885  10.27940
 4.6842  10.35200
 4.6800  10.43300
 4.6758  10.52890
 4.6716  10.64950
 4.6674  10.74340
 4.6632  10.76670
 4.6590  10.90550
 4.6548  11.07500
 4.6506  11.23320
 4.6465  11.38880
 4.6423  11.49250
 4.6382  11.68920
 4.6340  11.89080
 4.6299  11.95500
 4.6258  12.03630
 4.6216  12.19730
 4.6175  12.38210
 4.6134  12.54600
 4.6093  12.67390
 4.6052  12.83780
 4.6011  12.93590
 4.5971  12.99130
 4.5930  13.11970
 4.5889  13.22210
 4.5849  13.31860
 4.5808  13.40400
 4.5768  13.46370
 4.5727  13.57780
 4.5687  13.65990
 4.5647  13.76720
 4.5607  13.95460
 4.5567  13.96070
 4.5526  13.97310
 4.5487  14.14250
 4.5447  14.27940
 4.5407  14.27960
 4.5367  14.24460
 4.5328  14.24190
 4.5288  14.29940
 4.5248  14.30990
 4.5209  14.30540
 4.5170  14.42600
 4.5130  14.43660
 4.5091  14.27280
 4.5052  14.28440
 4.5013  14.19810
 4.4974  14.07250
 4.4935  14.17100
 4.4896  14.35880
 4.4857  14.48110
 4.4818  14.44160
 4.4779  14.44830
 4.4741  14.58920
 4.4702  14.65090
 4.4664  14.67270
 4.4625  14.82410
 4.4587  14.99150
 4.4549  15.14400
 4.4510  15.32520
 4.4472  15.46540
 4.4434  15.51770
 4.4396  15.63760
 4.4358  15.79600
 4.4320  15.97270
 4.4282  16.16330
 4.4245  16.28560
 4.4207  16.37580
 4.4169  16.47730
 4.4132  16.57850
 4.4094  16.80620
 4.4057  17.03860
 4.4019  17.15470
 4.3982  17.18930
 4.3945  17.23430
 4.3907  17.56840
 4.3870  17.85450
 4.3833  17.92650
 4.3796  17.96250
 4.3759  18.11500
 4.3722  18.36240
 4.3685  18.59760
 4.3649  18.83990
 4.3612  19.06190
 4.3575  19.27120
 4.3539  19.45200
 4.3502  19.56280
 4.3466  19.72000
 4.3429  19.79960
 4.3393  19.88290
 4.3357  20.05010
 4.3320  20.10190
 4.3284  20.18070
 4.3248  20.35080
 4.3212  20.50740
 4.3176  20.46450
 4.3140  20.37800
 4.3105  20.32850
 4.3069  20.35420
 4.3033  20.41550
 4.2997  20.62150
 4.2962  20.67180
 4.2926  20.57200
 4.2890  20.52990
 4.2855  20.60590
 4.2820  20.68930
 4.2784  20.79580
 4.2749  20.85740
 4.2714  20.93620
 4.2679  21.23360
 4.2644  21.56620
 4.2609  21.90630
 4.2574  22.14810
 4.2539  22.06770
 4.2504  21.89730
 4.2469  21.75290
 4.2434  21.72790
 4.2400  21.67790
 4.2365  21.64280
 4.2330  21.74910
 4.2296  21.85310
 4.2261  21.90580
 4.2227  22.05680
 4.2193  22.25610
 4.2158  22.48150
 4.2124  22.76020
 4.2090  23.01740
 4.2056  23.23640
 4.2022  23.35770
 4.1988  23.50830
 4.1954  23.60950
 4.1920  23.69110
 4.1886  23.84650
 4.1852  23.85020
 4.1818  23.91590
 4.1785  24.07940
 4.1751  24.13230
 4.1717  24.15750
 4.1684  24.22110
 4.1650  24.25810
 4.1617  24.37130
 4.1584  24.46840
 4.1550  24.55110
 4.1517  24.59880
 4.1484  24.60640
 4.1451  24.72820
 4.1418  24.91430
 4.1384  24.97060
 4.1351  24.98640
 4.1319  24.99900
 4.1286  25.06140
 4.1253  25.18740
 4.1220  25.20630
 4.1187  25.12970
 4.1155  25.20470
 4.1122  25.32740
 4.1089  25.34750
 4.1057  25.44960
 4.1024  25.65170
 4.0992  25.66820
 4.0959  25.62620
 4.0927  25.71490
 4.0895  25.88870
 4.0863  25.97790
 4.0830  25.94960
 4.0798  25.93380
 4.0766  26.05300
 4.0734  26.01550
 4.0702  25.98380
 4.0670  25.94000
 4.0639  25.90530
 4.0607  26.00010
 4.0575  26.18030
 4.0543  26.28280
 4.0511  26.27020
 4.0480  26.17030
 4.0448  26.11670
 4.0417  26.13860
 4.0385  26.16510
 4.0354  26.15090
 4.0323  26.10680
 4.0291  26.10410
 4.0260  26.05570
 4.0229  26.09300
 4.0197  26.12990
 4.0166  25.98590
 4.0135  25.97750
 4.0104  25.96370
 4.0073  25.89850
 4.0042  25.75920
 4.0011  25.62640
 3.9981  25.61320
 3.9950  25.79930
 3.9919  25.84980
 3.9888  25.70820
 3.9857  25.66510
 3.9827  25.71570
 3.9796  25.71860
 3.9766  25.76760
 3.9735  25.89320
 3.9705  26.01150
 3.9675  26.08030
 3.9644  26.15650
 3.9614  26.27770
 3.9584  26.43730
 3.9554  26.45920
 3.9523  26.45540
 3.9493  26.52470
 3.9463  26.62460
 3.9433  26.85460
 3.9403  26.86430
 3.9373  26.82440
 3.9343  26.91600
 3.9314  26.99530
 3.9284  27.13520
 3.9254  27.24220
 3.9224  27.23740
 3.9195  27.16090
 3.9165  27.15670
 3.9136  27.17250
 3.9106  27.22770
 3.9077  27.42180
 3.9047  27.55610
 3.9018  27.38040
 3.8988  27.34510
 3.8959  27.44900
 3.8930  27.31860
 3.8901  27.24490
 3.8872  27.37410
 3.8842  27.40390
 3.8813  27.41210
 3.8784  27.38580
 3.8755  27.30180
 3.8726  27.33750
 3.8697  27.32780
 3.8669  27.18990
 3.8640  27.30060
 3.8611  27.33760
 3.8582  27.41030
 3.8554  27.47110
 3.8525  27.38410
 3.8496  27.37990
 3.8468  27.57240
 3.8439  27.56420
 3.8411  27.45190
