Name: Nontronite Na_0.33Fe_2^3+(Si,Al)_4O_10(OH)_2.H_2O
Type: Mineral
Class: Silicates
Subclass: Phyllosilicates
Particle Size: 125-500um
Sample No.: PS-6B
Owner: JPL
Wavelength range: IR
Origin: Germany, Westphalia, Hohen Hagen
Collected by Clay Mineral Society
Description: 





Measurement: Hemispherical reflectance
First Column: X
Second Column: Y
X Units:  Wavelength (micrometers)
Y Units:  Reflectance (percent)
First X Value: 15.3853
Last X Value: 2.00032
Number of X Values: 2256
Additional information: ps06ba.txt
 
15.3853	2.15072
15.3397	2.35116
15.2945	2.41213
15.2495	2.20864
15.2048	2.17396
15.1603	2.14323
15.1161	2.1515
15.0722	2.41154
15.0285	2.62289
14.9851	2.60522
14.9419	2.58381
14.8989	2.54374
14.8563	2.53527
14.8138	2.59128
14.7716	2.62141
14.7296	2.75375
14.6879	2.8118
14.6464	2.8117
14.6052	2.63623
14.5641	2.47824
14.5233	2.4653
14.4828	2.52909
14.4424	2.4163
14.4023	2.33084
14.3624	2.03233
14.3227	1.67134
14.2833	1.6216
14.244	1.93691
14.205	2.27106
14.1662	2.36916
14.1276	2.14192
14.0892	2.11694
14.051	2.24378
14.0131	2.25599
13.9753	2.4068
13.9377	2.52368
13.9004	2.37689
13.8632	2.30389
13.8262	2.44194
13.7895	2.56596
13.7529	2.68291
13.7165	2.70118
13.6803	2.6237
13.6443	2.66043
13.6085	2.70718
13.5729	2.63084
13.5374	2.61466
13.5022	2.71931
13.4671	2.75436
13.4322	2.76847
13.3975	2.90165
13.363	2.9211
13.3286	2.84745
13.2944	2.8034
13.2604	2.87439
13.2266	2.99552
13.193	3.09211
13.1595	3.18292
13.1262	3.34955
13.093	3.43672
13.06	3.38304
13.0272	3.61199
12.9946	3.73252
12.9621	3.89938
12.9298	4.09879
12.8976	4.1758
12.8656	4.32912
12.8337	4.31713
12.8021	4.05645
12.7705	3.81615
12.7391	3.57315
12.7079	3.34403
12.6769	3.28275
12.6459	3.375
12.6152	3.41272
12.5845	3.45538
12.5541	3.58562
12.5238	3.41684
12.4936	3.01409
12.4635	2.62665
12.4337	2.14838
12.4039	1.58571
12.3743	1.11029
12.3448	0.958249
12.3155	0.868649
12.2863	0.932031
12.2573	1.17879
12.2284	1.59744
12.1996	1.70753
12.171	1.61392
12.1425	1.70421
12.1141	1.78907
12.0859	1.83797
12.0578	1.77816
12.0298	1.66015
12.0019	1.66928
11.9742	1.72663
11.9466	1.8347
11.9192	1.95398
11.8918	1.99381
11.8646	2.04765
11.8375	2.06179
11.8106	2.141
11.7837	2.1968
11.757	2.16741
11.7304	2.12381
11.7039	2.14003
11.6776	2.28093
11.6513	2.35304
11.6252	2.32658
11.5992	2.33242
11.5733	2.39945
11.5475	2.35512
11.5219	2.44828
11.4963	2.60951
11.4709	2.56395
11.4455	2.59374
11.4203	2.651
11.3952	2.51642
11.3702	2.50279
11.3454	2.55513
11.3206	2.50618
11.2959	2.58204
11.2714	2.65079
11.2469	2.64151
11.2226	2.69647
11.1983	2.77165
11.1742	2.71447
11.1502	2.79377
11.1263	3.05321
11.1024	3.12921
11.0787	3.16847
11.0551	3.12923
11.0316	2.94143
11.0081	2.98674
10.9848	3.20067
10.9616	3.12517
10.9385	3.08023
10.9154	3.11698
10.8925	3.10466
10.8697	3.12158
10.8469	3.26566
10.8243	3.34046
10.8017	3.40119
10.7793	3.5225
10.7569	3.63789
10.7346	3.74923
10.7125	3.77772
10.6904	3.64756
10.6684	3.65851
10.6465	3.69099
10.6247	3.69349
10.6029	3.78169
10.5813	3.91958
10.5597	3.90501
10.5383	3.99641
10.5169	4.10722
10.4956	4.21216
10.4744	4.27925
10.4533	4.34609
10.4323	4.52083
10.4113	4.57939
10.3904	4.62844
10.3697	4.75393
10.349	4.89983
10.3284	4.95196
10.3078	4.91895
10.2874	4.90737
10.267	5.00251
10.2467	5.11209
10.2265	5.2909
10.2064	5.58512
10.1863	5.76289
10.1663	5.806
10.1464	5.97158
10.1266	6.08351
10.1069	6.1633
10.0872	6.21973
10.0676	6.41921
10.0481	6.68324
10.0287	6.75092
10.0093	6.8462
9.99005	7.08867
9.97084	7.20831
9.95169	7.39884
9.93263	7.633
9.91364	7.717
9.89472	7.81217
9.87587	7.99943
9.8571	8.25075
9.83839	8.39243
9.81976	8.5192
9.80119	8.65922
9.78271	8.78102
9.76428	8.98132
9.74592	9.14283
9.72764	9.24867
9.70943	9.42207
9.69128	9.62173
9.6732	9.79084
9.65518	9.95344
9.63724	10.1927
9.61935	10.4546
9.60155	10.5835
9.5838	10.6474
9.56611	10.8329
9.5485	11.1005
9.53094	11.3739
9.51345	11.6441
9.49604	11.929
9.47867	12.2593
9.46137	12.7869
9.44414	13.4088
9.42697	13.9761
9.40986	14.577
9.39281	15.2965
9.37583	15.962
9.35891	16.4668
9.34204	16.9551
9.32524	17.3719
9.3085	17.6225
9.29182	17.7334
9.27519	17.7803
9.25863	17.7933
9.24213	17.7143
9.22568	17.5993
9.2093	17.4111
9.19297	17.3512
9.17669	17.4328
9.16048	17.4065
9.14433	17.4025
9.12823	17.3566
9.11218	17.3009
9.0962	17.2349
9.08027	17.1827
9.06439	17.1447
9.04858	17.1584
9.03281	17.1758
9.0171	17.164
9.00145	17.0637
8.98585	16.9784
8.9703	16.881
8.9548	16.6639
8.93937	16.6422
8.92398	16.6403
8.90865	16.4437
8.89337	16.2711
8.87814	16.0834
8.86296	15.8943
8.84784	15.7488
8.83277	15.4504
8.81774	15.1811
8.80277	14.9132
8.78786	14.6207
8.77298	14.3514
8.75816	14.216
8.7434	14.0197
8.72868	13.594
8.714	13.0332
8.69938	12.5593
8.68481	12.1037
8.67029	11.5483
8.65581	11.0674
8.64139	10.6967
8.62701	10.6797
8.61268	10.9764
8.5984	11.5508
8.58416	12.0886
8.56997	12.6066
8.55583	12.9324
8.54174	13.177
8.52769	13.4507
8.51368	13.6673
8.49973	13.8597
8.48582	13.9874
8.47195	14.0818
8.45813	14.1179
8.44436	14.228
8.43062	14.431
8.41693	14.5484
8.4033	14.57
8.3897	14.6046
8.37614	14.6682
8.36264	14.6586
8.34917	14.6218
8.33574	14.5774
8.32236	14.5782
8.30903	14.5882
8.29573	14.6556
8.28248	14.701
8.26927	14.8079
8.2561	14.8805
8.24298	14.9208
8.2299	15.0015
8.21685	14.9802
8.20385	15.0795
8.19089	15.1595
8.17797	15.1575
8.16509	15.0889
8.15225	14.9038
8.13946	14.6296
8.1267	14.2526
8.11398	13.8203
8.10131	13.2527
8.08867	12.7018
8.07606	12.0601
8.0635	11.3991
8.05099	10.8595
8.0385	10.3227
8.02606	9.73452
8.01366	9.13482
8.00129	8.54654
7.98896	7.92081
7.97667	7.29673
7.96442	6.76335
7.9522	6.24191
7.94002	5.79615
7.92788	5.33812
7.91578	4.8836
7.90371	4.48888
7.89168	4.13722
7.87969	3.76241
7.86773	3.36442
7.85581	3.08078
7.84392	2.89114
7.83207	2.74049
7.82026	2.601
7.80849	2.4098
7.79674	2.26938
7.78503	2.22603
7.77337	2.14334
7.76173	2.03453
7.75012	1.8847
7.73856	1.74397
7.72703	1.57036
7.71553	1.47284
7.70406	1.41659
7.69263	1.36926
7.68123	1.37105
7.66987	1.26438
7.65855	1.19593
7.64725	1.27779
7.63598	1.22355
7.62475	1.07965
7.61356	0.974624
7.60239	0.947629
7.59126	0.979667
7.58017	0.990549
7.5691	0.986544
7.55806	0.946834
7.54707	0.864925
7.5361	0.838058
7.52516	0.867027
7.51425	0.959767
7.50338	0.986333
7.49253	0.951113
7.48172	0.921029
7.47094	0.838409
7.46019	0.8259
7.44947	0.827086
7.43879	0.804368
7.42813	0.756071
7.4175	0.718431
7.4069	0.751575
7.39634	0.766725
7.3858	0.761949
7.37529	0.777281
7.36482	0.76355
7.35437	0.759613
7.34396	0.768448
7.33357	0.771466
7.32321	0.811351
7.31288	0.773667
7.30258	0.684308
7.29231	0.608999
7.28207	0.633127
7.27185	0.698868
7.26167	0.714762
7.25152	0.74731
7.24139	0.745683
7.23129	0.798884
7.22122	0.799848
7.21117	0.767352
7.20116	0.827772
7.19117	0.841436
7.18121	0.734099
7.17128	0.70474
7.16137	0.813562
7.1515	0.818652
7.14164	0.785141
7.13182	0.759593
7.12203	0.802532
7.11225	0.941098
7.10251	0.941993
7.0928	0.863543
7.08311	0.840871
7.07344	0.883114
7.06381	0.894805
7.0542	0.879443
7.04461	0.893298
7.03506	0.937126
7.02552	0.95684
7.01601	0.963745
7.00653	0.985924
6.99708	0.970849
6.98765	0.97959
6.97824	1.01267
6.96886	1.09591
6.95951	1.04567
6.95018	0.9897
6.94087	1.04809
6.9316	1.07501
6.92234	1.0903
6.91311	1.13105
6.90391	1.13626
6.89473	1.09211
6.88557	1.06063
6.87644	1.04488
6.86733	1.05844
6.85824	1.08325
6.84918	1.08752
6.84015	1.01802
6.83114	0.99018
6.82215	0.988454
6.81319	0.961305
6.80424	0.985967
6.79532	0.929306
6.78643	0.924844
6.77756	0.96572
6.76871	0.905794
6.75989	0.822757
6.75109	0.786383
6.74231	0.83647
6.73355	0.894364
6.72482	0.906064
6.71611	0.889779
6.70742	0.836887
6.69875	0.857157
6.69011	0.88972
6.68149	0.821721
6.67289	0.845073
6.66431	0.893618
6.65576	0.94323
6.64722	0.929745
6.63871	0.917133
6.63022	0.999381
6.62175	0.970648
6.61331	0.93172
6.60488	0.911694
6.59648	0.86682
6.5881	0.872287
6.57974	0.879098
6.5714	0.901192
6.56308	0.868706
6.55478	0.86821
6.54651	0.872982
6.53825	0.801218
6.53001	0.791907
6.5218	0.928614
6.51361	1.01464
6.50544	1.09513
6.49729	1.1912
6.48915	1.25541
6.48104	1.32523
6.47295	1.38033
6.46488	1.45014
6.45683	1.59132
6.4488	1.57462
6.44079	1.4745
6.4328	1.49996
6.42482	1.58375
6.41687	1.57346
6.40894	1.51403
6.40103	1.40307
6.39314	1.34997
6.38526	1.37827
6.37741	1.37883
6.36957	1.21226
6.36176	1.16708
6.35396	1.20976
6.34618	1.11856
6.33843	1.01054
6.33069	0.963495
6.32297	1.00647
6.31527	0.997259
6.30758	0.910136
6.29992	0.85592
6.29227	0.884572
6.28465	0.89446
6.27704	0.906663
6.26945	0.894788
6.26188	0.83134
6.25432	0.816977
6.24679	0.88553
6.23927	0.849735
6.23177	0.837475
6.22429	0.838753
6.21683	0.83164
6.20938	0.843196
6.20195	0.814367
6.19454	0.760846
6.18715	0.767211
6.17978	0.790816
6.17242	0.917263
6.16508	0.928189
6.15776	0.864398
6.15045	0.877072
6.14317	0.921895
6.1359	0.963292
6.12864	0.983185
6.12141	0.913181
6.11419	0.911408
6.10699	0.95189
6.0998	0.929646
6.09263	0.976317
6.08549	1.0181
6.07835	1.0255
6.07123	1.01954
6.06413	1.03496
6.05705	1.02961
6.04998	1.10195
6.04293	1.11214
6.0359	1.12347
6.02888	1.12766
6.02187	1.1048
6.01489	1.07655
6.00792	1.02538
6.00096	0.950786
5.99403	0.933771
5.98711	0.904059
5.9802	0.897567
5.97331	0.934128
5.96644	0.886775
5.95958	0.847801
5.95274	0.88328
5.94591	0.930115
5.9391	1.00278
5.9323	0.993933
5.92552	0.955386
5.91876	0.969961
5.91201	0.969354
5.90528	0.992714
5.89856	1.05332
5.89186	1.13139
5.88517	1.16158
5.8785	1.21426
5.87184	1.3494
5.8652	1.46213
5.85857	1.47095
5.85196	1.39444
5.84536	1.43257
5.83878	1.52886
5.83221	1.60956
5.82566	1.75657
5.81912	1.85411
5.81259	1.92608
5.80608	2.00915
5.79959	2.07762
5.79311	2.22305
5.78665	2.32904
5.78019	2.40267
5.77376	2.5129
5.76734	2.57964
5.76093	2.65375
5.75453	2.75277
5.74815	2.91896
5.74179	2.96542
5.73543	2.90202
5.7291	3.04043
5.72277	3.18381
5.71646	3.19992
5.71017	3.13623
5.70389	3.12036
5.69762	3.11059
5.69136	2.92484
5.68513	2.74303
5.6789	2.62756
5.67268	2.47916
5.66648	2.25956
5.6603	2.0162
5.65413	1.83622
5.64797	1.64983
5.64182	1.46207
5.63569	1.4076
5.62957	1.37002
5.62347	1.29414
5.61737	1.21539
5.61129	1.14992
5.60522	1.14057
5.59917	1.16974
5.59313	1.13954
5.5871	1.18266
5.58109	1.14989
5.57509	1.15179
5.5691	1.16022
5.56312	1.13063
5.55716	1.20663
5.55121	1.28084
5.54528	1.31951
5.53935	1.27125
5.53344	1.28117
5.52754	1.33773
5.52166	1.35572
5.51578	1.47313
5.50992	1.5035
5.50407	1.43345
5.49823	1.47734
5.49241	1.6113
5.4866	1.71658
5.4808	1.7999
5.47501	1.83539
5.46923	1.86638
5.46347	1.88172
5.45772	1.98381
5.45198	2.07317
5.44625	1.99106
5.44054	1.81508
5.43484	1.73198
5.42914	1.61389
5.42347	1.49896
5.4178	1.46756
5.41214	1.39529
5.4065	1.23252
5.40087	1.22911
5.39525	1.21148
5.38964	1.10537
5.38404	1.018
5.37846	1.03171
5.37288	1.05528
5.36732	1.06123
5.36177	1.05676
5.35623	1.07032
5.35071	0.995438
5.34519	0.999923
5.33968	1.04855
5.33419	1.02078
5.32871	1.03206
5.32324	1.03548
5.31778	0.989508
5.31233	0.966469
5.30689	0.978693
5.30147	1.05349
5.29605	1.14774
5.29065	1.12082
5.28525	1.07581
5.27987	1.06668
5.2745	1.059
5.26914	1.10168
5.26379	1.14001
5.25845	1.1678
5.25312	1.23794
5.24781	1.25397
5.2425	1.2964
5.23721	1.38106
5.23192	1.47026
5.22665	1.59793
5.22138	1.70247
5.21613	1.82558
5.21089	1.89229
5.20566	1.91196
5.20044	1.95098
5.19522	1.94769
5.19002	1.99281
5.18483	2.07464
5.17965	2.04895
5.17448	2.04061
5.16933	2.07963
5.16418	2.0314
5.15904	1.92422
5.15391	1.91012
5.14879	1.92358
5.14368	1.84457
5.13859	1.8408
5.1335	1.86052
5.12842	1.82424
5.12335	1.78088
5.1183	1.81598
5.11325	1.77982
5.10821	1.77374
5.10318	1.78427
5.09817	1.77726
5.09316	1.72245
5.08816	1.57649
5.08317	1.57703
5.07819	1.6326
5.07322	1.57858
5.06826	1.48677
5.06331	1.47272
5.05837	1.51426
5.05344	1.57012
5.04852	1.52163
5.04361	1.47634
5.03871	1.50574
5.03382	1.58775
5.02894	1.57705
5.02406	1.5096
5.0192	1.52194
5.01435	1.59858
5.0095	1.62768
5.00467	1.62684
4.99984	1.60628
4.99502	1.58838
4.99021	1.60604
4.98542	1.605
4.98063	1.6459
4.97585	1.76453
4.97108	1.89039
4.96632	2.06049
4.96156	2.19096
4.95682	2.39105
4.95209	2.56649
4.94736	2.67702
4.94264	2.75956
4.93794	2.8178
4.93324	2.96099
4.92855	3.16563
4.92387	3.31577
4.9192	3.54298
4.91453	3.94446
4.90988	4.38335
4.90524	4.91231
4.9006	5.60408
4.89597	6.39366
4.89135	7.24203
4.88674	8.09218
4.88214	8.91593
4.87755	9.69088
4.87296	10.3777
4.86839	11.0171
4.86382	11.6618
4.85926	12.269
4.85471	12.8622
4.85017	13.3719
4.84564	13.8434
4.84111	14.31
4.8366	14.7525
4.83209	15.1588
4.82759	15.5458
4.8231	15.9031
4.81862	16.2806
4.81415	16.6576
4.80968	17.025
4.80522	17.3086
4.80077	17.5199
4.79633	17.743
4.7919	18.0175
4.78747	18.2522
4.78306	18.5471
4.77865	18.8078
4.77425	18.9949
4.76986	19.256
4.76547	19.4553
4.7611	19.6488
4.75673	19.8588
4.75237	20.1369
4.74802	20.2782
4.74367	20.2992
4.73934	20.3228
4.73501	20.3941
4.73069	20.4609
4.72638	20.5539
4.72207	20.5384
4.71777	20.3822
4.71348	20.2387
4.7092	20.0658
4.70493	19.7625
4.70066	19.3288
4.69641	18.873
4.69216	18.4497
4.68791	18.0746
4.68368	17.9009
4.67945	17.9463
4.67523	18.1994
4.67102	18.6449
4.66682	19.1816
4.66262	19.6597
4.65843	20.1469
4.65425	20.6577
4.65007	21.0109
4.64591	21.3381
4.64175	21.8492
4.6376	22.3935
4.63345	22.7971
4.62932	23.1533
4.62519	23.4572
4.62106	23.7441
4.61695	24.0289
4.61284	24.2117
4.60874	24.3348
4.60465	24.4819
4.60056	24.6164
4.59648	24.6711
4.59241	24.676
4.58835	24.7539
4.58429	24.8554
4.58024	24.8495
4.5762	24.8541
4.57216	24.8256
4.56814	24.7664
4.56411	24.6136
4.5601	24.3961
4.55609	24.2306
4.55209	24.0555
4.5481	23.7659
4.54411	23.4251
4.54013	23.0183
4.53616	22.5117
4.5322	21.9935
4.52824	21.5884
4.52429	21.0249
4.52034	20.3262
4.51641	19.7194
4.51247	19.1756
4.50855	18.504
4.50463	17.7706
4.50072	17.2645
4.49682	16.8715
4.49292	16.5417
4.48903	16.3186
4.48515	16.0919
4.48127	15.9282
4.4774	15.7652
4.47354	15.4987
4.46968	15.3276
4.46584	15.3478
4.46199	15.5644
4.45815	15.7724
4.45432	16.0285
4.4505	16.3621
4.44668	16.6601
4.44287	16.9295
4.43907	17.1783
4.43527	17.2763
4.43148	17.4533
4.4277	17.7519
4.42392	17.9954
4.42015	18.188
4.41638	18.4772
4.41262	18.7331
4.40887	19.0103
4.40513	19.3732
4.40139	19.7276
4.39765	20.084
4.39393	20.4449
4.39021	20.7813
4.38649	21.1702
4.38278	21.5634
4.37908	21.9722
4.37539	22.412
4.3717	22.8474
4.36801	23.2724
4.36434	23.6638
4.36067	23.9861
4.357	24.2667
4.35335	24.4782
4.34969	24.7528
4.34605	25.0405
4.34241	25.2206
4.33877	25.383
4.33514	25.5517
4.33152	25.6707
4.32791	25.6811
4.3243	25.7056
4.32069	25.6882
4.3171	25.6321
4.31351	25.6602
4.30992	25.659
4.30634	25.5159
4.30277	25.3019
4.2992	25.2313
4.29564	25.177
4.29208	25.106
4.28853	25.0728
4.28499	25.0188
4.28145	25.0453
4.27792	25.127
4.27439	25.2278
4.27087	25.3686
4.26735	25.5478
4.26384	25.6761
4.26034	25.8499
4.25684	26.0444
4.25335	26.2485
4.24986	26.3591
4.24638	26.3325
4.24291	26.4259
4.23944	26.4698
4.23598	26.471
4.23252	26.5142
4.22906	26.6079
4.22562	26.7574
4.22218	26.8623
4.21874	27.0075
4.21531	27.1551
4.21189	27.2661
4.20847	27.3647
4.20506	27.4923
4.20165	27.6096
4.19825	27.629
4.19485	27.6491
4.19146	27.7772
4.18807	27.8717
4.18469	27.9708
4.18132	28.1852
4.17795	28.3766
4.17458	28.4962
4.17123	28.6763
4.16787	28.7871
4.16453	28.8776
4.16118	29.0196
4.15785	29.1513
4.15451	29.3201
4.15119	29.4537
4.14787	29.5171
4.14455	29.6207
4.14124	29.8112
4.13794	29.9391
4.13464	30.0931
4.13134	30.2085
4.12805	30.3544
4.12477	30.4735
4.12149	30.4773
4.11822	30.6689
4.11495	30.9755
4.11168	31.1543
4.10843	31.3329
4.10517	31.4323
4.10192	31.5419
4.09868	31.7203
4.09545	31.8978
4.09221	31.9553
4.08899	32.0654
4.08576	32.2684
4.08255	32.4853
4.07933	32.6123
4.07613	32.6428
4.07292	32.6948
4.06973	32.7474
4.06654	32.805
4.06335	32.8606
4.06017	32.9209
4.05699	32.9502
4.05382	32.9629
4.05065	32.9994
4.04749	33.0265
4.04433	32.9919
4.04118	33.0136
4.03803	33.0903
4.03489	33.049
4.03175	32.9735
4.02862	32.9646
4.02549	32.9581
4.02237	32.931
4.01925	32.8937
4.01614	32.8968
4.01303	32.9972
4.00993	33.1017
4.00683	33.1089
4.00373	33.0859
4.00064	33.1149
3.99756	33.0765
3.99448	33.0991
3.9914	33.1773
3.98833	33.292
3.98527	33.3679
3.98221	33.3631
3.97915	33.4392
3.9761	33.5022
3.97305	33.5501
3.97001	33.5411
3.96697	33.6039
3.96394	33.7646
3.96091	33.8216
3.95789	33.9127
3.95487	33.9947
3.95186	34.0224
3.94885	34.0825
3.94584	34.1019
3.94284	34.1498
3.93984	34.2148
3.93685	34.2947
3.93386	34.2868
3.93088	34.2527
3.9279	34.2468
3.92493	34.258
3.92196	34.2638
3.919	34.2929
3.91604	34.2441
3.91308	34.1829
3.91013	34.1432
3.90718	34.0937
3.90424	34.0837
3.9013	33.9605
3.89837	33.8139
3.89544	33.7216
3.89252	33.6517
3.8896	33.5941
3.88668	33.4645
3.88377	33.443
3.88086	33.3676
3.87796	33.1596
3.87506	33.0086
3.87217	33.004
3.86928	32.9709
3.86639	32.7839
3.86351	32.755
3.86064	32.7645
3.85776	32.6643
3.8549	32.5654
3.85203	32.3775
3.84917	32.2666
3.84631	32.2676
3.84346	32.3165
3.84062	32.3397
3.83777	32.2889
3.83494	32.2395
3.8321	32.1994
3.82927	32.1799
3.82644	32.1319
3.82362	32.0488
3.82081	32.0798
3.81799	32.0992
3.81518	32.0091
3.81238	31.9452
3.80958	31.9048
3.80678	31.8748
3.80399	31.7916
3.8012	31.6156
3.79841	31.5473
3.79563	31.5473
3.79286	31.4366
3.79008	31.3202
3.78731	31.2329
3.78455	31.1344
3.78179	31.0855
3.77903	31.0194
3.77628	30.8368
3.77353	30.7072
3.77079	30.6021
3.76805	30.4113
3.76531	30.2454
3.76258	30.1197
3.75985	30.0711
3.75713	29.918
3.7544	29.842
3.75169	29.8154
3.74898	29.6213
3.74627	29.4067
3.74356	29.2926
3.74086	29.3061
3.73816	29.3183
3.73547	29.2164
3.73278	29.1078
3.7301	29.0035
3.72741	28.9399
3.72474	28.8765
3.72206	28.8064
3.71939	28.8654
3.71673	28.8529
3.71406	28.7729
3.71141	28.6664
3.70875	28.5859
3.7061	28.5936
3.70345	28.6061
3.70081	28.5564
3.69817	28.5153
3.69553	28.5276
3.6929	28.5371
3.69027	28.4914
3.68765	28.3906
3.68503	28.3717
3.68241	28.4152
3.6798	28.3239
3.67719	28.1591
3.67458	28.1509
3.67198	28.1424
3.66938	28.0795
3.66678	28.0003
3.66419	27.9648
3.66161	27.8996
3.65902	27.7299
3.65644	27.6206
3.65387	27.5552
3.65129	27.4609
3.64872	27.3096
3.64616	27.2071
3.64359	27.0621
3.64103	26.8891
3.63848	26.7782
3.63593	26.7289
3.63338	26.6999
3.63084	26.4789
3.6283	26.2575
3.62576	26.2291
3.62322	26.1783
3.62069	26.0526
3.61817	25.8615
3.61564	25.7403
3.61312	25.709
3.61061	25.6739
3.6081	25.4769
3.60559	25.3397
3.60308	25.2767
3.60058	25.151
3.59808	25.0096
3.59558	24.9492
3.59309	24.8054
3.59061	24.682
3.58812	24.5643
3.58564	24.4599
3.58316	24.4417
3.58069	24.376
3.57822	24.2461
3.57575	24.1534
3.57328	23.9933
3.57082	23.8224
3.56836	23.7779
3.56591	23.683
3.56346	23.4593
3.56101	23.3273
3.55857	23.2745
3.55613	23.2028
3.55369	23.0858
3.55126	22.9534
3.54883	22.8257
3.5464	22.7363
3.54397	22.6456
3.54155	22.5476
3.53914	22.4587
3.53672	22.2799
3.53431	22.1091
3.5319	21.9755
3.5295	21.8463
3.5271	21.829
3.5247	21.7756
3.52231	21.5974
3.51991	21.4583
3.51753	21.2919
3.51514	21.08
3.51276	21.0423
3.51038	21.0254
3.50801	20.861
3.50563	20.6986
3.50327	20.6299
3.5009	20.5172
3.49854	20.36
3.49618	20.2271
3.49382	20.1345
3.49147	19.9679
