Name: Orthoclase (Feldspar) (K,Na)AlSi_3O_8
Type: Mineral
Class: Silicates
Subclass: Tectosilicates
Particle Size: 0-45um
Sample No.: TS-12A
Owner: JPL
Wavelength range: IR
Origin: India
Collected by Burminco
Description:   





Measurement: Hemispherical reflectance
First Column: X
Second Column: Y
X Units:  Wavelength (micrometers)
Y Units:  Reflectance (percent)
First X Value: 15.3853
Last X Value: 2.00032
Number of X Values: 2256
Additional information: ts12aa.txt
 
15.3853	2.13399
15.3397	2.38191
15.2945	2.39576
15.2495	2.13696
15.2048	2.18132
15.1603	2.3253
15.1161	2.52208
15.0722	2.86111
15.0285	2.98
14.9851	3.00922
14.9419	2.97213
14.8989	3.06911
14.8563	3.30029
14.8138	3.64354
14.7716	3.96003
14.7296	3.99681
14.6879	4.08932
14.6464	4.16401
14.6052	4.11688
14.5641	3.979
14.5233	4.08408
14.4828	4.21059
14.4424	4.27875
14.4023	4.24097
14.3624	4.08946
14.3227	3.82426
14.2833	3.51752
14.244	3.33099
14.205	3.29383
14.1662	3.17328
14.1276	3.05842
14.0892	2.9356
14.051	2.86
14.0131	2.77939
13.9753	2.68649
13.9377	2.48905
13.9004	2.43339
13.8632	2.4026
13.8262	2.25128
13.7895	2.26779
13.7529	2.34636
13.7165	2.21882
13.6803	2.11071
13.6443	2.23101
13.6085	2.26938
13.5729	2.17426
13.5374	2.01113
13.5022	1.88209
13.4671	1.98093
13.4322	1.95287
13.3975	2.03039
13.363	2.15742
13.3286	2.13602
13.2944	2.13795
13.2604	2.27387
13.2266	2.30205
13.193	2.25283
13.1595	2.14205
13.1262	2.17725
13.093	2.20435
13.06	2.06245
13.0272	2.02434
12.9946	2.18396
12.9621	2.18672
12.9298	2.21819
12.8976	2.28336
12.8656	2.13146
12.8337	2.04588
12.8021	2.0653
12.7705	2.10028
12.7391	2.11097
12.7079	2.17172
12.6769	2.12826
12.6459	2.07508
12.6152	2.25264
12.5845	2.51418
12.5541	2.7311
12.5238	2.99972
12.4936	3.33511
12.4635	3.87023
12.4337	4.47653
12.4039	5.33058
12.3743	6.25756
12.3448	7.10026
12.3155	7.9925
12.2863	9.03814
12.2573	10.1151
12.2284	11.1311
12.1996	12.0989
12.171	12.7572
12.1425	13.284
12.1141	13.8064
12.0859	14.3982
12.0578	14.9509
12.0298	15.2639
12.0019	15.4087
11.9742	15.4673
11.9466	15.4719
11.9192	15.5452
11.8918	15.6567
11.8646	15.8605
11.8375	15.9333
11.8106	15.9103
11.7837	15.9592
11.757	15.8798
11.7304	15.7439
11.7039	15.7868
11.6776	15.8221
11.6513	15.782
11.6252	15.6469
11.5992	15.5758
11.5733	15.4667
11.5475	15.4089
11.5219	15.3537
11.4963	15.3076
11.4709	15.1684
11.4455	15.034
11.4203	14.9032
11.3952	14.7818
11.3702	14.6058
11.3454	14.4789
11.3206	14.354
11.2959	14.2123
11.2714	13.9524
11.2469	13.7199
11.2226	13.5716
11.1983	13.4332
11.1742	13.2423
11.1502	12.9761
11.1263	12.5869
11.1024	12.2333
11.0787	12.0906
11.0551	11.9582
11.0316	11.6574
11.0081	11.3873
10.9848	11.2205
10.9616	10.8989
10.9385	10.4509
10.9154	10.0583
10.8925	9.71575
10.8697	9.40462
10.8469	9.07591
10.8243	8.74128
10.8017	8.35256
10.7793	7.99061
10.7569	7.81602
10.7346	7.67264
10.7125	7.37782
10.6904	7.02352
10.6684	6.76637
10.6465	6.605
10.6247	6.55568
10.6029	6.46031
10.5813	6.34344
10.5597	6.05393
10.5383	5.82978
10.5169	5.80009
10.4956	5.80426
10.4744	5.68818
10.4533	5.55601
10.4323	5.50138
10.4113	5.36041
10.3904	5.28962
10.3697	5.19664
10.349	5.08047
10.3284	5.13589
10.3078	5.2713
10.2874	5.32152
10.267	5.27813
10.2467	5.25918
10.2265	5.2948
10.2064	5.41231
10.1863	5.3927
10.1663	5.4388
10.1464	5.52574
10.1266	5.58386
10.1069	5.5986
10.0872	5.6516
10.0676	5.58643
10.0481	5.68747
10.0287	5.86298
10.0093	5.97023
9.99005	6.04504
9.97084	6.10435
9.95169	6.15944
9.93263	6.12152
9.91364	6.18452
9.89472	6.27199
9.87587	6.34822
9.8571	6.27848
9.83839	6.3239
9.81976	6.46737
9.80119	6.45607
9.78271	6.34764
9.76428	6.37855
9.74592	6.47965
9.72764	6.47172
9.70943	6.49083
9.69128	6.65788
9.6732	6.79412
9.65518	6.82903
9.63724	6.85634
9.61935	7.02462
9.60155	7.16899
9.5838	7.21745
9.56611	7.04858
9.5485	6.93854
9.53094	6.95614
9.51345	7.00802
9.49604	6.95248
9.47867	6.88657
9.46137	6.80984
9.44414	6.58951
9.42697	6.28061
9.40986	6.18626
9.39281	6.0509
9.37583	5.81162
9.35891	5.64153
9.34204	5.5024
9.32524	5.36773
9.3085	5.20152
9.29182	4.95911
9.27519	4.81653
9.25863	4.86044
9.24213	4.82478
9.22568	4.65546
9.2093	4.56226
9.19297	4.66052
9.17669	4.75861
9.16048	4.68775
9.14433	4.45737
9.12823	4.4019
9.11218	4.45852
9.0962	4.42729
9.08027	4.47022
9.06439	4.47846
9.04858	4.45111
9.03281	4.45623
9.0171	4.45339
9.00145	4.53792
8.98585	4.6156
8.9703	4.6318
8.9548	4.59506
8.93937	4.52829
8.92398	4.47603
8.90865	4.59858
8.89337	4.78379
8.87814	4.76908
8.86296	4.75929
8.84784	4.88193
8.83277	5.10132
8.81774	5.31896
8.80277	5.40494
8.78786	5.50052
8.77298	5.56822
8.75816	5.62999
8.7434	5.68875
8.72868	5.66985
8.714	5.82104
8.69938	5.85634
8.68481	5.7929
8.67029	5.85164
8.65581	5.77041
8.64139	5.82544
8.62701	6.13229
8.61268	6.20292
8.5984	6.14823
8.58416	6.19504
8.56997	6.24272
8.55583	6.29086
8.54174	6.52924
8.52769	6.62166
8.51368	6.6042
8.49973	6.6889
8.48582	6.6813
8.47195	6.55441
8.45813	6.47267
8.44436	6.52109
8.43062	6.54084
8.41693	6.49654
8.4033	6.42131
8.3897	6.27181
8.37614	6.12905
8.36264	6.12543
8.34917	6.03272
8.33574	5.86957
8.32236	5.73646
8.30903	5.52352
8.29573	5.23975
8.28248	4.94957
8.26927	4.59633
8.2561	4.36576
8.24298	4.14403
8.2299	3.80926
8.21685	3.42602
8.20385	3.28606
8.19089	3.23341
8.17797	3.10373
8.16509	2.64572
8.15225	2.28718
8.13946	2.12883
8.1267	2.07423
8.11398	1.93766
8.10131	1.78012
8.08867	1.65062
8.07606	1.45833
8.0635	1.2982
8.05099	1.13599
8.0385	1.00504
8.02606	1.00793
8.01366	0.977325
8.00129	0.994665
7.98896	0.965404
7.97667	0.801189
7.96442	0.65962
7.9522	0.665012
7.94002	0.662689
7.92788	0.529772
7.91578	0.35705
7.90371	0.319559
7.89168	0.350584
7.87969	0.41577
7.86773	0.406559
7.85581	0.479505
7.84392	0.517479
7.83207	0.53077
7.82026	0.550146
7.80849	0.534119
7.79674	0.436067
7.78503	0.384024
7.77337	0.427244
7.76173	0.540046
7.75012	0.658675
7.73856	0.69361
7.72703	0.675823
7.71553	0.68031
7.70406	0.733457
7.69263	0.831367
7.68123	0.87593
7.66987	0.88109
7.65855	1.01499
7.64725	1.06974
7.63598	1.04774
7.62475	1.15728
7.61356	1.24275
7.60239	1.36968
7.59126	1.44714
7.58017	1.4086
7.5691	1.44165
7.55806	1.59313
7.54707	1.70192
7.5361	1.83181
7.52516	1.9003
7.51425	1.96279
7.50338	2.06266
7.49253	2.22896
7.48172	2.34552
7.47094	2.49639
7.46019	2.59727
7.44947	2.71216
7.43879	2.80816
7.42813	2.90716
7.4175	2.94446
7.4069	3.08602
7.39634	3.30745
7.3858	3.50658
7.37529	3.65244
7.36482	3.76126
7.35437	3.84498
7.34396	3.96101
7.33357	4.1473
7.32321	4.23044
7.31288	4.38534
7.30258	4.60294
7.29231	4.7343
7.28207	4.88581
7.27185	5.03353
7.26167	5.2066
7.25152	5.30488
7.24139	5.42515
7.23129	5.57508
7.22122	5.80658
7.21117	6.13495
7.20116	6.34985
7.19117	6.43947
7.18121	6.63727
7.17128	6.96392
7.16137	7.14698
7.1515	7.32614
7.14164	7.50311
7.13182	7.63102
7.12203	7.83125
7.11225	8.02249
7.10251	8.22616
7.0928	8.43308
7.08311	8.5796
7.07344	8.68031
7.06381	8.8964
7.0542	9.30595
7.04461	9.60128
7.03506	9.48714
7.02552	9.50694
7.01601	9.62487
7.00653	9.83731
6.99708	10.0474
6.98765	10.157
6.97824	10.1968
6.96886	10.4746
6.95951	10.7753
6.95018	10.6007
6.94087	10.5602
6.9316	10.696
6.92234	10.8558
6.91311	11.0475
6.90391	11.1777
6.89473	11.182
6.88557	11.2713
6.87644	11.5003
6.86733	12.1369
6.85824	12.262
6.84918	11.9002
6.84015	11.8469
6.83114	12.0028
6.82215	12.06
6.81319	12.0354
6.80424	12.2434
6.79532	12.6708
6.78643	12.8264
6.77756	12.7251
6.76871	12.7541
6.75989	12.7739
6.75109	12.7939
6.74231	12.8356
6.73355	13.0474
6.72482	13.305
6.71611	13.6211
6.70742	13.7774
6.69875	13.6948
6.69011	13.9109
6.68149	14.2112
6.67289	14.1161
6.66431	14.0787
6.65576	14.2791
6.64722	14.808
6.63871	15.5266
6.63022	15.3911
6.62175	14.9426
6.61331	14.8422
6.60488	14.8576
6.59648	15.1735
6.5881	15.413
6.57974	15.666
6.5714	15.906
6.56308	15.624
6.55478	15.6129
6.54651	15.6732
6.53825	15.6253
6.53001	15.7655
6.5218	16.0829
6.51361	15.8643
6.50544	15.9887
6.49729	16.7647
6.48915	16.8383
6.48104	16.4638
6.47295	16.1929
6.46488	15.9198
6.45683	15.91
6.4488	15.9029
6.44079	15.918
6.4328	16.1328
6.42482	16.3975
6.41687	17.0976
6.40894	16.7987
6.40103	15.9122
6.39314	15.6382
6.38526	15.5259
6.37741	15.588
6.36957	15.7016
6.36176	15.3919
6.35396	15.3681
6.34618	15.6893
6.33843	15.4032
6.33069	15.0018
6.32297	14.9244
6.31527	14.8657
6.30758	14.8737
6.29992	14.8539
6.29227	14.8742
6.28465	14.9019
6.27704	14.9726
6.26945	14.973
6.26188	14.9476
6.25432	14.9804
6.24679	15.0238
6.23927	15.0715
6.23177	15.1248
6.22429	15.2599
6.21683	15.3742
6.20938	15.3837
6.20195	15.4038
6.19454	15.5584
6.18715	16.0289
6.17978	16.0423
6.17242	15.8852
6.16508	16.152
6.15776	16.3077
6.15045	16.2305
6.14317	16.3447
6.1359	16.3913
6.12864	16.431
6.12141	16.7912
6.11419	17.3661
6.10699	17.2512
6.0998	16.9769
6.09263	17.0041
6.08549	17.1512
6.07835	17.6717
6.07123	18.1228
6.06413	17.9296
6.05705	18.2631
6.04998	19.3737
6.04293	18.9517
6.0359	18.2453
6.02888	18.1399
6.02187	18.334
6.01489	18.7324
6.00792	18.7437
6.00096	18.7212
5.99403	19.1412
5.98711	19.3232
5.9802	19.0775
5.97331	19.3467
5.96644	19.5484
5.95958	19.2381
5.95274	19.3371
5.94591	19.6502
5.9391	20.3416
5.9323	20.082
5.92552	19.3894
5.91876	19.239
5.91201	19.2061
5.90528	19.4347
5.89856	20.1063
5.89186	20.0425
5.88517	20.2296
5.8785	20.3212
5.87184	19.558
5.8652	19.5517
5.85857	19.3625
5.85196	19.1119
5.84536	19.0057
5.83878	19.071
5.83221	19.2512
5.82566	19.5326
5.81912	19.4661
5.81259	18.8365
5.80608	18.6233
5.79959	18.6469
5.79311	18.5764
5.78665	18.5479
5.78019	18.498
5.77376	18.6662
5.76734	19.1433
5.76093	18.6423
5.75453	18.1983
5.74815	18.2659
5.74179	18.1621
5.73543	18.0764
5.7291	17.954
5.72277	17.9704
5.71646	18.0578
5.71017	18.0503
5.70389	17.7104
5.69762	17.6113
5.69136	17.6525
5.68513	17.4736
5.6789	17.502
5.67268	17.4587
5.66648	17.2785
5.6603	17.3601
5.65413	17.4646
5.64797	17.7191
5.64182	18.0619
5.63569	17.7844
5.62957	17.5426
5.62347	17.6036
5.61737	17.7754
5.61129	17.84
5.60522	17.9496
5.59917	18.0111
5.59313	18.072
5.5871	18.3683
5.58109	18.8138
5.57509	18.9349
5.5691	18.7901
5.56312	18.9711
5.55716	19.351
5.55121	19.6615
5.54528	19.7865
5.53935	20.0566
5.53344	20.3685
5.52754	20.6651
5.52166	20.9979
5.51578	21.2891
5.50992	21.5234
5.50407	21.862
5.49823	22.1505
5.49241	22.4313
5.4866	22.6967
5.4808	23.0495
5.47501	23.2877
5.46923	23.6461
5.46347	24.0025
5.45772	24.0521
5.45198	24.1761
5.44625	24.4846
5.44054	24.7067
5.43484	24.8887
5.42914	25.2775
5.42347	25.9252
5.4178	26.006
5.41214	25.9587
5.4065	26.1009
5.40087	26.2385
5.39525	26.4927
5.38964	26.7721
5.38404	26.9137
5.37846	27.0806
5.37288	27.2724
5.36732	27.4939
5.36177	27.7038
5.35623	27.9798
5.35071	28.3097
5.34519	28.266
5.33968	28.1806
5.33419	28.3012
5.32871	28.5183
5.32324	28.7004
5.31778	28.8471
5.31233	29.0443
5.30689	29.2057
5.30147	29.4216
5.29605	29.7035
5.29065	29.9587
5.28525	30.0762
5.27987	30.2649
5.2745	30.4661
5.26914	30.7251
5.26379	30.9705
5.25845	31.2304
5.25312	31.5317
5.24781	31.8329
5.2425	32.1289
5.23721	32.4916
5.23192	32.8312
5.22665	33.1474
5.22138	33.4879
5.21613	34.0392
5.21089	34.4199
5.20566	34.6882
5.20044	35.1009
5.19522	35.3999
5.19002	35.7369
5.18483	36.1814
5.17965	36.6086
5.17448	36.9913
5.16933	37.3233
5.16418	37.7223
5.15904	38.195
5.15391	38.6867
5.14879	39.2277
5.14368	39.5349
5.13859	39.7886
5.1335	40.1926
5.12842	40.5721
5.12335	40.939
5.1183	41.376
5.11325	41.8687
5.10821	42.3055
5.10318	42.7563
5.09817	43.1912
5.09316	43.6188
5.08816	44.0991
5.08317	44.5307
5.07819	44.8223
5.07322	45.1652
5.06826	45.526
5.06331	45.8187
5.05837	46.085
5.05344	46.4394
5.04852	46.7921
5.04361	47.1165
5.03871	47.3548
5.03382	47.5713
5.02894	47.7951
5.02406	48.0748
5.0192	48.3384
5.01435	48.4657
5.0095	48.5957
5.00467	48.7364
4.99984	48.7716
4.99502	48.8781
4.99021	49.0096
4.98542	49.1727
4.98063	49.304
4.97585	49.4188
4.97108	49.5133
4.96632	49.5579
4.96156	49.5922
4.95682	49.6426
4.95209	49.5077
4.94736	49.431
4.94264	49.4088
4.93794	49.2958
4.93324	49.1768
4.92855	49.1391
4.92387	49.0378
4.9192	48.8727
4.91453	48.7711
4.90988	48.7469
4.90524	48.7084
4.9006	48.7095
4.89597	48.7105
4.89135	48.6782
4.88674	48.6615
4.88214	48.7155
4.87755	48.7221
4.87296	48.708
4.86839	48.7433
4.86382	48.7996
4.85926	48.8551
4.85471	48.9081
4.85017	48.9756
4.84564	49.0452
4.84111	49.0576
4.8366	49.139
4.83209	49.1856
4.82759	49.207
4.8231	49.2433
4.81862	49.1636
4.81415	49.1618
4.80968	49.2322
4.80522	49.2426
4.80077	49.1912
4.79633	49.1434
4.7919	49.1826
4.78747	49.161
4.78306	49.1072
4.77865	49.1254
4.77425	49.2166
4.76986	49.2455
4.76547	49.3374
4.7611	49.4759
4.75673	49.5282
4.75237	49.5848
4.74802	49.6867
4.74367	49.7111
4.73934	49.748
4.73501	49.8366
4.73069	49.9171
4.72638	49.9284
4.72207	49.8896
4.71777	49.8749
4.71348	49.9665
4.7092	50.0233
4.70493	50.0199
4.70066	50.0856
4.69641	50.1956
4.69216	50.2435
4.68791	50.346
4.68368	50.415
4.67945	50.4562
4.67523	50.4914
4.67102	50.5995
4.66682	50.7204
4.66262	50.7906
4.65843	50.8802
4.65425	51.0632
4.65007	51.265
4.64591	51.4221
4.64175	51.5424
4.6376	51.6563
4.63345	51.846
4.62932	52.0843
4.62519	52.2883
4.62106	52.4582
4.61695	52.6179
4.61284	52.8251
4.60874	53.0414
4.60465	53.2723
4.60056	53.5351
4.59648	53.7791
4.59241	53.9991
4.58835	54.2084
4.58429	54.4437
4.58024	54.7148
4.5762	54.9908
4.57216	55.2845
4.56814	55.4963
4.56411	55.734
4.5601	56.0377
4.55609	56.3509
4.55209	56.5748
4.5481	56.828
4.54411	57.1415
4.54013	57.4121
4.53616	57.6588
4.5322	57.9441
4.52824	58.2288
4.52429	58.5418
4.52034	58.8736
4.51641	59.11
4.51247	59.3313
4.50855	59.6008
4.50463	59.8403
4.50072	60.0208
4.49682	60.2865
4.49292	60.6091
4.48903	60.8497
4.48515	61.0566
4.48127	61.3165
4.4774	61.6112
4.47354	61.8625
4.46968	62.0934
4.46584	62.287
4.46199	62.5326
4.45815	62.799
4.45432	63.04
4.4505	63.2281
4.44668	63.4354
4.44287	63.7066
4.43907	63.9372
4.43527	64.1157
4.43148	64.3639
4.4277	64.6124
4.42392	64.7848
4.42015	64.984
4.41638	65.1924
4.41262	65.3721
4.40887	65.6337
4.40513	65.9034
4.40139	66.1392
4.39765	66.3042
4.39393	66.5017
4.39021	66.7164
4.38649	66.9192
4.38278	67.1404
4.37908	67.3534
4.37539	67.5433
4.3717	67.7704
4.36801	67.9746
4.36434	68.1721
4.36067	68.4171
4.357	68.6532
4.35335	68.8938
4.34969	69.1277
4.34605	69.3576
4.34241	69.569
4.33877	69.7613
4.33514	70.0108
4.33152	70.2148
4.32791	70.467
4.3243	70.7262
4.32069	71.02
4.3171	71.2629
4.31351	71.5213
4.30992	71.731
4.30634	71.9766
4.30277	72.2148
4.2992	72.5068
4.29564	72.7382
4.29208	72.9774
4.28853	73.1817
4.28499	73.3381
4.28145	73.5077
4.27792	73.7076
4.27439	73.8374
4.27087	73.9365
4.26735	74.0119
4.26384	74.0776
4.26034	74.0321
4.25684	74.0921
4.25335	74.3745
4.24986	74.6839
4.24638	74.9936
4.24291	75.2798
4.23944	75.4576
4.23598	75.6375
4.23252	75.7619
4.22906	75.8192
4.22562	75.8181
4.22218	75.7565
4.21874	75.7335
4.21531	75.733
4.21189	75.677
4.20847	75.6239
4.20506	75.6117
4.20165	75.6287
4.19825	75.6768
4.19485	75.7234
4.19146	75.7291
4.18807	75.8095
4.18469	75.9048
4.18132	75.9551
4.17795	75.9706
4.17458	76.0026
4.17123	76.101
4.16787	76.1767
4.16453	76.2382
4.16118	76.3152
4.15785	76.348
4.15451	76.3299
4.15119	76.3382
4.14787	76.4111
4.14455	76.4675
4.14124	76.5144
4.13794	76.5329
4.13464	76.5677
4.13134	76.6221
4.12805	76.6969
4.12477	76.7114
4.12149	76.704
4.11822	76.7144
4.11495	76.7499
4.11168	76.7729
4.10843	76.7163
4.10517	76.7642
4.10192	76.8391
4.09868	76.8669
4.09545	76.9538
4.09221	76.9493
4.08899	76.8637
4.08576	76.9024
4.08255	76.9682
4.07933	77.0275
4.07613	77.0742
4.07292	77.0483
4.06973	77.0573
4.06654	77.0761
4.06335	77.0568
4.06017	77.0266
4.05699	77.0259
4.05382	77.0318
4.05065	77.0286
4.04749	77.0121
4.04433	77.0458
4.04118	77.0539
4.03803	77.0165
4.03489	77.0237
4.03175	77.0423
4.02862	76.9955
4.02549	76.9557
4.02237	76.9417
4.01925	76.8848
4.01614	76.7839
4.01303	76.761
4.00993	76.7576
4.00683	76.7793
4.00373	76.6926
4.00064	76.6123
3.99756	76.6025
3.99448	76.5793
3.9914	76.4961
3.98833	76.4176
3.98527	76.3569
3.98221	76.3539
3.97915	76.3375
3.9761	76.3233
3.97305	76.3355
3.97001	76.3784
3.96697	76.3818
3.96394	76.4372
3.96091	76.5155
3.95789	76.6073
3.95487	76.6704
3.95186	76.7405
3.94885	76.7725
3.94584	76.785
3.94284	76.8543
3.93984	76.8981
3.93685	76.9812
3.93386	77.0497
3.93088	77.0643
3.9279	77.1124
3.92493	77.1676
3.92196	77.2248
3.919	77.262
3.91604	77.2332
3.91308	77.2081
3.91013	77.2697
3.90718	77.2779
3.90424	77.3048
3.9013	77.3669
3.89837	77.4259
3.89544	77.4438
3.89252	77.4726
3.8896	77.505
3.88668	77.5267
3.88377	77.4844
3.88086	77.4521
3.87796	77.4647
3.87506	77.5141
3.87217	77.5155
3.86928	77.493
3.86639	77.5544
3.86351	77.6003
3.86064	77.6434
3.85776	77.6399
3.8549	77.5737
3.85203	77.6456
3.84917	77.6683
3.84631	77.6534
3.84346	77.7239
3.84062	77.813
3.83777	77.8543
3.83494	77.8415
3.8321	77.7669
3.82927	77.7829
3.82644	77.8611
3.82362	77.8797
3.82081	77.8547
3.81799	77.8925
3.81518	77.9726
3.81238	78.0097
3.80958	78.0216
3.80678	78.0125
3.80399	77.9664
3.8012	78.04
3.79841	78.097
3.79563	78.0755
3.79286	78.1042
3.79008	78.1559
3.78731	78.1907
3.78455	78.221
3.78179	78.1794
3.77903	78.159
3.77628	78.2124
3.77353	78.2237
3.77079	78.2011
3.76805	78.1846
3.76531	78.2004
3.76258	78.1721
3.75985	78.0881
3.75713	78.0534
3.7544	78.1165
3.75169	78.1743
3.74898	78.1743
3.74627	78.1982
3.74356	78.1987
3.74086	78.1854
3.73816	78.133
3.73547	78.0727
3.73278	78.1033
3.7301	78.0972
3.72741	78.1003
3.72474	78.0643
3.72206	78.0704
3.71939	78.1033
3.71673	78.0625
3.71406	78.0344
3.71141	78.0605
3.70875	78.0745
3.7061	78.0007
3.70345	78.0203
3.70081	78.0015
3.69817	77.9814
3.69553	77.9889
3.6929	77.9905
3.69027	77.9845
3.68765	77.9509
3.68503	77.8996
3.68241	77.8767
3.6798	77.8621
3.67719	77.8718
3.67458	77.8873
3.67198	77.8603
3.66938	77.8251
3.66678	77.8166
3.66419	77.7728
3.66161	77.7582
3.65902	77.7331
3.65644	77.7356
3.65387	77.7758
3.65129	77.7471
3.64872	77.6625
3.64616	77.6139
3.64359	77.6403
3.64103	77.6246
3.63848	77.5572
3.63593	77.499
3.63338	77.4464
3.63084	77.4466
3.6283	77.4828
3.62576	77.5193
3.62322	77.5173
3.62069	77.4377
3.61817	77.3567
3.61564	77.3045
3.61312	77.2455
3.61061	77.1939
3.6081	77.1645
3.60559	77.1386
3.60308	77.1386
3.60058	77.1197
3.59808	77.0825
3.59558	77.0214
3.59309	76.9927
3.59061	77.0261
3.58812	77.0134
3.58564	76.9537
3.58316	76.9204
3.58069	76.8429
3.57822	76.7317
3.57575	76.7106
3.57328	76.6941
3.57082	76.712
3.56836	76.7032
3.56591	76.6331
3.56346	76.538
3.56101	76.4681
3.55857	76.4022
3.55613	76.3536
3.55369	76.2909
3.55126	76.2189
3.54883	76.2009
3.5464	76.2126
3.54397	76.0625
3.54155	75.9265
3.53914	75.9392
3.53672	75.9737
3.53431	75.9233
3.5319	75.7697
3.5295	75.6436
3.5271	75.5542
3.5247	75.381
3.52231	75.2255
3.51991	75.0289
3.51753	74.8545
3.51514	74.6727
3.51276	74.4612
3.51038	74.1897
3.50801	73.8979
3.50563	73.7278
3.50327	73.5768
3.5009	73.4151
3.49854	73.3833
3.49618	73.3577
3.49382	73.4178
3.49147	73.5234
3.48912	73.5155
3.48677	73.4573
3.48443	73.473
3.48209	73.486
3.47975	73.4357
3.47742	73.4096
3.47509	73.3873
3.47276	73.3286
3.47044	73.4124
3.46812	73.4554
3.4658	73.4779
