Name: Beryl Be_3Al_2Si_6O_18
Type: Mineral
Class: Silicates
Subclass: Cyclosilicates
Particle Size: 0-45um
Sample No.: CS-2A
Owner: JPL
Wavelength range: IR
Origin: Brazil, Minas Gerais
Collected by Ward's
Description: 





Measurement: Hemispherical reflectance
First Column: X
Second Column: Y
X Units:  Wavelength (micrometers)
Y Units:  Reflectance (percent)
First X Value: 15.3853
Last X Value: 2.00032
Number of X Values: 2256
Additional information: cs02aa.txt
 
15.3853	4.64411
15.3397	4.53894
15.2945	4.47221
15.2495	4.29203
15.2048	4.50158
15.1603	4.85926
15.1161	5.09975
15.0722	5.22069
15.0285	5.36558
14.9851	5.52393
14.9419	5.78933
14.8989	6.13582
14.8563	6.59756
14.8138	7.03045
14.7716	7.71937
14.7296	8.27631
14.6879	8.6454
14.6464	8.94931
14.6052	9.0373
14.5641	9.20944
14.5233	9.31798
14.4828	9.22027
14.4424	8.95781
14.4023	8.378
14.3624	7.6202
14.3227	7.11844
14.2833	6.63083
14.244	5.63043
14.205	4.62094
14.1662	4.05475
14.1276	3.78303
14.0892	3.59685
14.051	3.50879
14.0131	3.48036
13.9753	3.57967
13.9377	3.762
13.9004	4.03754
13.8632	4.06632
13.8262	4.12074
13.7895	4.33724
13.7529	4.53659
13.7165	4.76272
13.6803	5.14996
13.6443	5.54303
13.6085	5.78061
13.5729	5.8513
13.5374	6.10294
13.5022	6.33766
13.4671	6.57664
13.4322	6.65386
13.3975	6.73497
13.363	6.96792
13.3286	7.08786
13.2944	7.01557
13.2604	6.70921
13.2266	6.55852
13.193	6.52581
13.1595	6.17066
13.1262	5.67904
13.093	5.11044
13.06	4.55735
13.0272	4.05598
12.9946	3.68074
12.9621	3.51186
12.9298	3.39692
12.8976	3.19557
12.8656	3.13809
12.8337	3.24495
12.8021	3.35551
12.7705	3.50532
12.7391	3.70399
12.7079	3.9448
12.6769	4.03277
12.6459	4.26462
12.6152	4.52083
12.5845	4.56912
12.5541	4.52743
12.5238	4.82302
12.4936	5.21695
12.4635	5.43716
12.4337	5.67738
12.4039	5.74958
12.3743	5.82487
12.3448	5.96878
12.3155	6.00437
12.2863	5.86108
12.2573	5.59225
12.2284	5.28669
12.1996	5.14128
12.171	4.87752
12.1425	4.47024
12.1141	4.27728
12.0859	4.07581
12.0578	3.7923
12.0298	3.56165
12.0019	3.35995
11.9742	3.17042
11.9466	3.03892
11.9192	2.90913
11.8918	2.88653
11.8646	2.87199
11.8375	2.9412
11.8106	3.09167
11.7837	3.33204
11.757	3.56541
11.7304	3.68809
11.7039	3.7323
11.6776	3.8629
11.6513	3.98844
11.6252	4.13919
11.5992	4.35063
11.5733	4.57813
11.5475	4.76265
11.5219	4.86225
11.4963	5.05546
11.4709	5.20323
11.4455	5.2476
11.4203	5.30241
11.3952	5.37603
11.3702	5.48046
11.3454	5.54195
11.3206	5.63147
11.2959	5.60052
11.2714	5.5294
11.2469	5.59185
11.2226	5.87021
11.1983	6.09102
11.1742	6.07557
11.1502	6.07489
11.1263	6.18375
11.1024	6.26484
11.0787	6.43106
11.0551	6.64836
11.0316	6.67214
11.0081	6.7855
10.9848	7.03339
10.9616	7.30358
10.9385	7.49741
10.9154	7.63882
10.8925	7.92152
10.8697	8.33708
10.8469	8.65572
10.8243	8.86431
10.8017	9.16589
10.7793	9.45071
10.7569	9.77101
10.7346	10.2269
10.7125	10.4241
10.6904	10.5972
10.6684	10.891
10.6465	11.333
10.6247	11.6526
10.6029	11.9055
10.5813	12.2726
10.5597	12.7869
10.5383	13.1437
10.5169	13.2753
10.4956	13.6336
10.4744	14.1895
10.4533	14.6843
10.4323	14.9475
10.4113	15.1468
10.3904	15.2818
10.3697	15.3041
10.349	15.2489
10.3284	15.2343
10.3078	15.1518
10.2874	14.9679
10.267	14.6658
10.2467	14.4305
10.2265	14.2299
10.2064	14.017
10.1863	13.6229
10.1663	13.1273
10.1464	12.7951
10.1266	12.3965
10.1069	11.8653
10.0872	11.3145
10.0676	10.608
10.0481	9.94917
10.0287	9.33708
10.0093	8.6376
9.99005	7.95893
9.97084	7.67709
9.95169	7.73884
9.93263	7.76979
9.91364	7.76805
9.89472	7.98656
9.87587	8.39656
9.8571	8.79865
9.83839	8.98841
9.81976	9.22697
9.80119	9.51356
9.78271	9.65059
9.76428	9.64779
9.74592	9.54281
9.72764	9.39877
9.70943	9.18903
9.69128	8.73238
9.6732	8.25886
9.65518	8.01483
9.63724	7.85968
9.61935	7.58322
9.60155	7.29716
9.5838	7.21839
9.56611	7.18786
9.5485	7.21805
9.53094	7.31189
9.51345	7.47519
9.49604	7.54906
9.47867	7.5154
9.46137	7.50827
9.44414	7.53995
9.42697	7.6023
9.40986	7.59354
9.39281	7.70771
9.37583	7.80591
9.35891	7.95436
9.34204	7.96796
9.32524	7.9124
9.3085	8.08077
9.29182	8.13865
9.27519	8.14096
9.25863	8.16174
9.24213	8.21088
9.22568	8.23968
9.2093	8.08503
9.19297	7.99391
9.17669	7.96599
9.16048	8.03714
9.14433	8.01973
9.12823	7.82139
9.11218	7.64059
9.0962	7.62031
9.08027	7.54105
9.06439	7.36878
9.04858	7.15793
9.03281	6.93378
9.0171	6.65544
9.00145	6.40753
8.98585	6.23462
8.9703	6.08555
8.9548	6.13793
8.93937	6.10478
8.92398	5.91659
8.90865	5.75272
8.89337	5.62136
8.87814	5.57588
8.86296	5.62634
8.84784	5.51948
8.83277	5.27404
8.81774	5.13899
8.80277	4.92521
8.78786	4.82272
8.77298	4.86302
8.75816	4.76671
8.7434	4.43082
8.72868	4.22301
8.714	4.18117
8.69938	4.22787
8.68481	4.18413
8.67029	4.10129
8.65581	4.19863
8.64139	4.28145
8.62701	4.28563
8.61268	4.37178
8.5984	4.61143
8.58416	4.83013
8.56997	4.86948
8.55583	4.77052
8.54174	4.8937
8.52769	4.88459
8.51368	5.00412
8.49973	5.29986
8.48582	5.5669
8.47195	5.60496
8.45813	5.70947
8.44436	5.91216
8.43062	6.12267
8.41693	6.49908
8.4033	6.98848
8.3897	7.61587
8.37614	8.28689
8.36264	9.13789
8.34917	9.89176
8.33574	10.5245
8.32236	10.9998
8.30903	11.2784
8.29573	11.547
8.28248	11.7117
8.26927	11.7119
8.2561	11.7349
8.24298	11.8907
8.2299	12.0352
8.21685	12.1286
8.20385	12.2145
8.19089	12.3442
8.17797	12.4496
8.16509	12.4494
8.15225	12.5148
8.13946	12.6332
8.1267	12.7218
8.11398	12.8656
8.10131	13.0721
8.08867	13.0769
8.07606	13.0109
8.0635	13.1125
8.05099	13.2786
8.0385	13.3209
8.02606	13.3958
8.01366	13.5606
8.00129	13.7986
7.98896	13.8985
7.97667	13.9368
7.96442	13.9611
7.9522	14.0762
7.94002	14.2281
7.92788	14.3287
7.91578	14.4845
7.90371	14.6212
7.89168	14.6238
7.87969	14.6515
7.86773	14.6645
7.85581	14.6106
7.84392	14.589
7.83207	14.6918
7.82026	14.8573
7.80849	14.9087
7.79674	14.6803
7.78503	14.1738
7.77337	13.4556
7.76173	12.6373
7.75012	11.7546
7.73856	10.8278
7.72703	9.88087
7.71553	9.12113
7.70406	8.41027
7.69263	7.72881
7.68123	7.1359
7.66987	6.61755
7.65855	6.07336
7.64725	5.56491
7.63598	5.14215
7.62475	4.77211
7.61356	4.5071
7.60239	4.22696
7.59126	3.88132
7.58017	3.60419
7.5691	3.30203
7.55806	3.03952
7.54707	2.8409
7.5361	2.65802
7.52516	2.49311
7.51425	2.39819
7.50338	2.38554
7.49253	2.30798
7.48172	2.2178
7.47094	2.1966
7.46019	2.17728
7.44947	2.10691
7.43879	2.03188
7.42813	2.00051
7.4175	1.97412
7.4069	1.99614
7.39634	1.9342
7.3858	1.78548
7.37529	1.75269
7.36482	1.8551
7.35437	1.92226
7.34396	2.02652
7.33357	2.08829
7.32321	1.99404
7.31288	1.9093
7.30258	1.97134
7.29231	2.06828
7.28207	2.0279
7.27185	2.0189
7.26167	2.0933
7.25152	2.13849
7.24139	2.27216
7.23129	2.31594
7.22122	2.19244
7.21117	2.20635
7.20116	2.32125
7.19117	2.31105
7.18121	2.33646
7.17128	2.47562
7.16137	2.57397
7.1515	2.62565
7.14164	2.62904
7.13182	2.56416
7.12203	2.6079
7.11225	2.65448
7.10251	2.72398
7.0928	2.74782
7.08311	2.73851
7.07344	2.82242
7.06381	2.93971
7.0542	3.00105
7.04461	2.98972
7.03506	2.96942
7.02552	3.03018
7.01601	3.13511
7.00653	3.21372
6.99708	3.29429
6.98765	3.31711
6.97824	3.41661
6.96886	3.60681
6.95951	3.73093
6.95018	3.69884
6.94087	3.65391
6.9316	3.57671
6.92234	3.60439
6.91311	3.75363
6.90391	3.80177
6.89473	3.78443
6.88557	3.86555
6.87644	4.02046
6.86733	4.20012
6.85824	4.21166
6.84918	4.11903
6.84015	4.23005
6.83114	4.41433
6.82215	4.47171
6.81319	4.50115
6.80424	4.59838
6.79532	4.87502
6.78643	5.08573
6.77756	5.16218
6.76871	5.27088
6.75989	5.41967
6.75109	5.56033
6.74231	5.68311
6.73355	5.88067
6.72482	6.04898
6.71611	6.25087
6.70742	6.4395
6.69875	6.54623
6.69011	6.76267
6.68149	6.96892
6.67289	6.9928
6.66431	7.10034
6.65576	7.25092
6.64722	7.56926
6.63871	8.04823
6.63022	8.14028
6.62175	8.15943
6.61331	8.3662
6.60488	8.57826
6.59648	9.01744
6.5881	9.36503
6.57974	9.71042
6.5714	10.0878
6.56308	10.0477
6.55478	10.0258
6.54651	9.99278
6.53825	9.80938
6.53001	9.45169
6.5218	9.04024
6.51361	8.44727
6.50544	7.81416
6.49729	7.2592
6.48915	6.55615
6.48104	5.90729
6.47295	5.59815
6.46488	5.52644
6.45683	5.69926
6.4488	6.10321
6.44079	6.56408
6.4328	7.00274
6.42482	7.48471
6.41687	8.26856
6.40894	8.63307
6.40103	8.54541
6.39314	8.69539
6.38526	8.98119
6.37741	9.32399
6.36957	9.61578
6.36176	9.75379
6.35396	10.0354
6.34618	10.4227
6.33843	10.5016
6.33069	10.4712
6.32297	10.5915
6.31527	10.6364
6.30758	10.6459
6.29992	10.6057
6.29227	10.4776
6.28465	10.2274
6.27704	9.78463
6.26945	9.07241
6.26188	8.24837
6.25432	7.78226
6.24679	8.17186
6.23927	9.05046
6.23177	9.89014
6.22429	10.4004
6.21683	10.678
6.20938	10.8623
6.20195	10.9429
6.19454	10.9268
6.18715	10.9767
6.17978	10.3736
6.17242	9.46382
6.16508	8.73895
6.15776	7.89367
6.15045	7.03646
6.14317	6.42492
6.1359	5.91179
6.12864	5.74748
6.12141	6.14892
6.11419	7.05148
6.10699	7.85094
6.0998	8.61509
6.09263	9.28416
6.08549	9.72304
6.07835	10.1843
6.07123	10.4944
6.06413	10.504
6.05705	10.8386
6.04998	11.6949
6.04293	11.7455
6.0359	11.6103
6.02888	12.0083
6.02187	12.616
6.01489	13.4062
6.00792	14.0871
6.00096	14.7284
5.99403	15.6351
5.98711	16.473
5.9802	16.8752
5.97331	17.3521
5.96644	17.6378
5.95958	17.5959
5.95274	17.7756
5.94591	18.18
5.9391	18.8622
5.9323	18.6447
5.92552	18.0907
5.91876	17.8856
5.91201	17.7699
5.90528	17.9324
5.89856	18.3599
5.89186	18.2366
5.88517	18.3843
5.8785	18.3589
5.87184	17.6303
5.8652	17.4767
5.85857	17.3062
5.85196	17.0584
5.84536	16.8528
5.83878	16.8295
5.83221	16.8845
5.82566	17.1222
5.81912	17.0598
5.81259	16.6031
5.80608	16.426
5.79959	16.3972
5.79311	16.3567
5.78665	16.4248
5.78019	16.5937
5.77376	16.9542
5.76734	17.4798
5.76093	17.2636
5.75453	17.0415
5.74815	17.2567
5.74179	17.3552
5.73543	17.4563
5.7291	17.5726
5.72277	17.8035
5.71646	18.0913
5.71017	18.3232
5.70389	18.2197
5.69762	18.2012
5.69136	18.4139
5.68513	18.4908
5.6789	18.5778
5.67268	18.6155
5.66648	18.4512
5.6603	18.5558
5.65413	18.6573
5.64797	18.7689
5.64182	18.8897
5.63569	18.4433
5.62957	18.0368
5.62347	17.8701
5.61737	17.7951
5.61129	17.6122
5.60522	17.4693
5.59917	17.4433
5.59313	17.4745
5.5871	17.7246
5.58109	18.1479
5.57509	18.3185
5.5691	18.251
5.56312	18.3705
5.55716	18.5841
5.55121	18.6793
5.54528	18.5646
5.53935	18.5044
5.53344	18.4318
5.52754	18.3834
5.52166	18.3488
5.51578	18.2366
5.50992	18.1839
5.50407	18.2908
5.49823	18.434
5.49241	18.6413
5.4866	18.9242
5.4808	19.307
5.47501	19.5648
5.46923	19.9537
5.46347	20.336
5.45772	20.5238
5.45198	20.9362
5.44625	21.3808
5.44054	21.7208
5.43484	22.0441
5.42914	22.4054
5.42347	22.8479
5.4178	22.9709
5.41214	23.0171
5.4065	23.1709
5.40087	23.31
5.39525	23.394
5.38964	23.5299
5.38404	23.6922
5.37846	23.8242
5.37288	23.9134
5.36732	23.9506
5.36177	23.8896
5.35623	23.9034
5.35071	23.9523
5.34519	23.7966
5.33968	23.593
5.33419	23.5205
5.32871	23.5227
5.32324	23.4997
5.31778	23.4321
5.31233	23.3782
5.30689	23.2323
5.30147	23.0769
5.29605	23.0293
5.29065	22.8743
5.28525	22.5557
5.27987	22.1722
5.2745	21.7368
5.26914	21.2859
5.26379	20.8595
5.25845	20.3897
5.25312	19.8576
5.24781	19.3118
5.2425	18.8077
5.23721	18.3682
5.23192	17.8069
5.22665	17.1844
5.22138	16.6039
5.21613	16.1709
5.21089	15.7705
5.20566	15.4098
5.20044	15.1445
5.19522	14.8209
5.19002	14.5518
5.18483	14.3352
5.17965	14.1827
5.17448	14.1531
5.16933	14.1727
5.16418	14.1465
5.15904	14.1828
5.15391	14.2607
5.14879	14.2658
5.14368	14.2217
5.13859	14.2106
5.1335	14.3005
5.12842	14.5183
5.12335	14.6862
5.1183	14.8458
5.11325	15.0398
5.10821	15.2816
5.10318	15.551
5.09817	15.9264
5.09316	16.4111
5.08816	16.854
5.08317	17.2334
5.07819	17.6658
5.07322	18.1421
5.06826	18.5924
5.06331	18.9716
5.05837	19.3731
5.05344	19.7271
5.04852	20.1265
5.04361	20.507
5.03871	20.8254
5.03382	21.1653
5.02894	21.4947
5.02406	21.8503
5.0192	22.2085
5.01435	22.4433
5.0095	22.7441
5.00467	23.1165
4.99984	23.4144
4.99502	23.7634
4.99021	24.1544
4.98542	24.4861
4.98063	24.7675
4.97585	25.0684
4.97108	25.4481
4.96632	25.8743
4.96156	26.2514
4.95682	26.5208
4.95209	26.7219
4.94736	26.9734
4.94264	27.1555
4.93794	27.3233
4.93324	27.5854
4.92855	27.7609
4.92387	27.9596
4.9192	28.3005
4.91453	28.6326
4.90988	28.8602
4.90524	29.1028
4.9006	29.4816
4.89597	29.8887
4.89135	30.2757
4.88674	30.6385
4.88214	30.9867
4.87755	31.4676
4.87296	31.9509
4.86839	32.3655
4.86382	32.7722
4.85926	33.1694
4.85471	33.5124
4.85017	33.8032
4.84564	34.1412
4.84111	34.4469
4.8366	34.7533
4.83209	34.999
4.82759	35.1798
4.8231	35.3752
4.81862	35.6115
4.81415	35.8736
4.80968	36.2145
4.80522	36.5842
4.80077	37.0148
4.79633	37.4877
4.7919	37.9352
4.78747	38.3889
4.78306	38.8408
4.77865	39.3619
4.77425	39.8824
4.76986	40.332
4.76547	40.6891
4.7611	40.9808
4.75673	41.3375
4.75237	41.6482
4.74802	41.8886
4.74367	42.0976
4.73934	42.4005
4.73501	42.6756
4.73069	42.9105
4.72638	43.2041
4.72207	43.4511
4.71777	43.6724
4.71348	43.8367
4.7092	43.9619
4.70493	44.1086
4.70066	44.249
4.69641	44.3281
4.69216	44.4478
4.68791	44.5669
4.68368	44.611
4.67945	44.6498
4.67523	44.6431
4.67102	44.6855
4.66682	44.805
4.66262	44.8769
4.65843	44.9781
4.65425	45.0841
4.65007	45.145
4.64591	45.2733
4.64175	45.4141
4.6376	45.5467
4.63345	45.7784
4.62932	46.0074
4.62519	46.2007
4.62106	46.3956
4.61695	46.5643
4.61284	46.733
4.60874	46.9059
4.60465	47.0812
4.60056	47.223
4.59648	47.4168
4.59241	47.6013
4.58835	47.7058
4.58429	47.8359
4.58024	47.9531
4.5762	48.022
4.57216	48.1181
4.56814	48.2661
4.56411	48.4516
4.5601	48.5579
4.55609	48.672
4.55209	48.8316
4.5481	48.9395
4.54411	49.04
4.54013	49.181
4.53616	49.2133
4.5322	49.3273
4.52824	49.4669
4.52429	49.5172
4.52034	49.5326
4.51641	49.5894
4.51247	49.6295
4.50855	49.6503
4.50463	49.6178
4.50072	49.6596
4.49682	49.6133
4.49292	49.5308
4.48903	49.4935
4.48515	49.4665
4.48127	49.4408
4.4774	49.3966
4.47354	49.3913
4.46968	49.3513
4.46584	49.3689
4.46199	49.4251
4.45815	49.428
4.45432	49.4476
4.4505	49.5745
4.44668	49.7459
4.44287	49.8841
4.43907	50.0204
4.43527	50.1845
4.43148	50.3491
4.4277	50.4944
4.42392	50.6875
4.42015	50.8143
4.41638	50.9858
4.41262	51.2027
4.40887	51.3904
4.40513	51.5424
4.40139	51.7227
4.39765	51.9534
4.39393	52.0885
4.39021	52.0756
4.38649	52.188
4.38278	52.3527
4.37908	52.4718
4.37539	52.6567
4.3717	52.7677
4.36801	52.7018
4.36434	52.5188
4.36067	52.4163
4.357	52.5889
4.35335	52.8012
4.34969	52.9549
4.34605	53.0769
4.34241	53.109
4.33877	53.1166
4.33514	53.1408
4.33152	53.1634
4.32791	53.152
4.3243	52.9971
4.32069	52.8668
4.3171	52.7501
4.31351	52.555
4.30992	52.2868
4.30634	51.9493
4.30277	51.4936
4.2992	51.0111
4.29564	50.4585
4.29208	49.8549
4.28853	49.0202
4.28499	47.8668
4.28145	46.6512
4.27792	45.5184
4.27439	44.3364
4.27087	42.956
4.26735	41.5949
4.26384	40.3097
4.26034	39.0791
4.25684	38.1599
4.25335	37.4314
4.24986	36.2902
4.24638	33.7968
4.24291	28.8823
4.23944	23.6334
4.23598	23.4999
4.23252	28.4631
4.22906	33.2317
4.22562	35.5918
4.22218	36.5306
4.21874	36.9922
4.21531	37.5371
4.21189	38.5114
4.20847	40.0672
4.20506	42.1069
4.20165	44.3549
4.19825	46.6773
4.19485	48.9999
4.19146	51.0887
4.18807	52.7394
4.18469	53.9877
4.18132	54.9152
4.17795	55.5196
4.17458	55.9282
4.17123	56.2561
4.16787	56.4737
4.16453	56.5705
4.16118	56.5582
4.15785	56.61
4.15451	56.7623
4.15119	56.845
4.14787	56.8696
4.14455	56.9146
4.14124	56.954
4.13794	57.0232
4.13464	57.0446
4.13134	56.9355
4.12805	56.9325
4.12477	56.9863
4.12149	57.0115
4.11822	57.0268
4.11495	57.0631
4.11168	57.1031
4.10843	57.1565
4.10517	57.1432
4.10192	57.0823
4.09868	57.0634
4.09545	57.0704
4.09221	56.9979
4.08899	57.0176
4.08576	57.0617
4.08255	57.1058
4.07933	57.1165
4.07613	57.0676
4.07292	57.0214
4.06973	57.0691
4.06654	57.1348
4.06335	57.1776
4.06017	57.2472
4.05699	57.2885
4.05382	57.291
4.05065	57.3121
4.04749	57.328
4.04433	57.3073
4.04118	57.2506
4.03803	57.1862
4.03489	57.2359
4.03175	57.314
4.02862	57.3576
4.02549	57.4177
4.02237	57.4404
4.01925	57.5049
4.01614	57.5807
4.01303	57.5862
4.00993	57.6223
4.00683	57.7
4.00373	57.6946
4.00064	57.7193
3.99756	57.776
3.99448	57.8534
3.9914	57.8237
3.98833	57.8002
3.98527	57.877
3.98221	57.9434
3.97915	57.9187
3.9761	57.9363
3.97305	58.0076
3.97001	58.0136
3.96697	58.0319
3.96394	58.0929
3.96091	58.0802
3.95789	58.0895
3.95487	58.0934
3.95186	58.1003
3.94885	58.112
3.94584	58.1698
3.94284	58.1908
3.93984	58.1506
3.93685	58.1273
3.93386	58.1526
3.93088	58.1998
3.9279	58.1804
3.92493	58.1691
3.92196	58.1967
3.919	58.2624
3.91604	58.238
3.91308	58.2563
3.91013	58.3178
3.90718	58.361
3.90424	58.4315
3.9013	58.4562
3.89837	58.3975
3.89544	58.3003
3.89252	58.2749
3.8896	58.3168
3.88668	58.3942
3.88377	58.4329
3.88086	58.4444
3.87796	58.4761
3.87506	58.5034
3.87217	58.4904
3.86928	58.3932
3.86639	58.3744
3.86351	58.4782
3.86064	58.4954
3.85776	58.4822
3.8549	58.5005
3.85203	58.5151
3.84917	58.4745
3.84631	58.4063
3.84346	58.3695
3.84062	58.4247
3.83777	58.53
3.83494	58.607
3.8321	58.5617
3.82927	58.5395
3.82644	58.5578
3.82362	58.5939
3.82081	58.5281
3.81799	58.5841
3.81518	58.6522
3.81238	58.6219
3.80958	58.6351
3.80678	58.6158
3.80399	58.6288
3.8012	58.6528
3.79841	58.5989
3.79563	58.5184
3.79286	58.5167
3.79008	58.5615
3.78731	58.5099
3.78455	58.5095
3.78179	58.5828
3.77903	58.5705
3.77628	58.5667
3.77353	58.6219
3.77079	58.6404
3.76805	58.6069
3.76531	58.579
3.76258	58.5512
3.75985	58.5052
3.75713	58.5637
3.7544	58.6058
3.75169	58.6138
3.74898	58.6706
3.74627	58.7014
3.74356	58.6405
3.74086	58.6066
3.73816	58.6057
3.73547	58.5904
3.73278	58.6359
3.7301	58.6641
3.72741	58.6148
3.72474	58.5486
3.72206	58.4946
3.71939	58.5233
3.71673	58.6206
3.71406	58.6364
3.71141	58.5497
3.70875	58.5347
3.7061	58.6222
3.70345	58.5981
3.70081	58.5902
3.69817	58.5967
3.69553	58.5421
3.6929	58.5114
3.69027	58.5617
3.68765	58.603
3.68503	58.5685
3.68241	58.5451
3.6798	58.4986
3.67719	58.4987
3.67458	58.446
3.67198	58.4108
3.66938	58.4574
3.66678	58.4859
3.66419	58.502
3.66161	58.5411
3.65902	58.4899
3.65644	58.3669
3.65387	58.3586
3.65129	58.368
3.64872	58.3958
3.64616	58.4458
3.64359	58.4095
3.64103	58.3547
3.63848	58.3648
3.63593	58.3987
3.63338	58.4205
3.63084	58.3518
3.6283	58.3434
3.62576	58.3929
3.62322	58.4234
3.62069	58.4038
3.61817	58.431
3.61564	58.4416
3.61312	58.3735
3.61061	58.4404
3.6081	58.4863
3.60559	58.4385
3.60308	58.4015
3.60058	58.4019
3.59808	58.4433
3.59558	58.4729
3.59309	58.4155
3.59061	58.4057
3.58812	58.4123
3.58564	58.3978
3.58316	58.424
3.58069	58.4483
3.57822	58.432
3.57575	58.4056
3.57328	58.3914
3.57082	58.3739
3.56836	58.3496
3.56591	58.3681
3.56346	58.4007
3.56101	58.3846
3.55857	58.3638
3.55613	58.3643
3.55369	58.2873
3.55126	58.2753
3.54883	58.2881
3.5464	58.2813
3.54397	58.2472
3.54155	58.2202
3.53914	58.2601
3.53672	58.316
3.53431	58.2996
3.5319	58.2324
3.5295	58.1927
3.5271	58.1542
3.5247	58.0961
3.52231	58.0779
3.51991	58.054
3.51753	57.9238
3.51514	57.8093
3.51276	57.7622
3.51038	57.657
3.50801	57.5139
3.50563	57.4181
3.50327	57.3444
3.5009	57.3819
3.49854	57.4024
3.49618	57.4563
3.49382	57.5536
3.49147	57.595
3.48912	57.5563
3.48677	57.4542
3.48443	57.4565
3.48209	57.5341
3.47975	57.6036
3.47742	57.6497
3.47509	57.6337
3.47276	57.5241
3.47044	57.4914
3.46812	57.5227
3.4658	57.5847
