Name: Molybdenite MoS_2
Type: Mineral
Class: Sulfides
Subclass: 
Particle Size: 45-125um
Sample No.: S-11A
Owner: JPL
Wavelength range: VNIR-SWIR
Origin: Norway, Arendal, Froland.
Collected by:  JPL
Description: 





Measurement: Hemispherical reflectance
First Column: X
Second Column: Y
X Units: Wavelength (micrometers)
Y Units: Reflectance (percent)
First X Value: 2.500
Last X Value: 0.400
Number of X Values: 2101
Additional information: s11aa.txt

2.500  52.137623
2.499  52.040755
2.498  52.433958
2.497  52.214292
2.496  52.056466
2.495  52.246995
2.494  52.068981
2.493  52.108110
2.492  52.176587
2.491  51.983144
2.490  52.155422
2.489  52.033416
2.488  52.097762
2.487  52.188014
2.486  52.180767
2.485  52.209129
2.484  52.261346
2.483  52.193210
2.482  52.147885
2.481  52.074572
2.480  52.199360
2.479  52.183878
2.478  52.214258
2.477  52.176147
2.476  52.225590
2.475  52.192000
2.474  52.386308
2.473  52.253380
2.472  52.424091
2.471  52.263171
2.470  52.279261
2.469  52.280459
2.468  52.364736
2.467  52.147979
2.466  52.338021
2.465  52.171356
2.464  52.413993
2.463  52.406922
2.462  52.369925
2.461  52.337885
2.460  52.400414
2.459  52.332790
2.458  52.290323
2.457  52.373905
2.456  52.420926
2.455  52.363343
2.454  52.457367
2.453  52.384113
2.452  52.427627
2.451  52.495593
2.450  52.487314
2.449  52.479097
2.448  52.549937
2.447  52.416307
2.446  52.634307
2.445  52.481757
2.444  52.532080
2.443  52.518829
2.442  52.614169
2.441  52.507801
2.440  52.561799
2.439  52.496317
2.438  52.628525
2.437  52.602167
2.436  52.611545
2.435  52.610454
2.434  52.505132
2.433  52.612853
2.432  52.699378
2.431  52.635082
2.430  52.638376
2.429  52.593793
2.428  52.707292
2.427  52.654960
2.426  52.726266
2.425  52.618671
2.424  52.703852
2.423  52.746229
2.422  52.744063
2.421  52.718070
2.420  52.818997
2.419  52.709139
2.418  52.693584
2.417  52.752040
2.416  52.770559
2.415  52.805440
2.414  52.834848
2.413  52.813509
2.412  52.837569
2.411  52.795445
2.410  52.843797
2.409  52.867538
2.408  52.874169
2.407  52.864561
2.406  52.911380
2.405  52.934009
2.404  52.895655
2.403  52.926669
2.402  52.950073
2.401  52.907147
2.400  52.943804
2.399  52.955552
2.398  52.953467
2.397  52.952345
2.396  52.980821
2.395  53.000539
2.394  53.046846
2.393  53.025152
2.392  52.975989
2.391  53.010074
2.390  53.056027
2.389  53.079869
2.388  53.018470
2.387  52.978145
2.386  53.057599
2.385  53.067770
2.384  53.098528
2.383  53.126989
2.382  53.120638
2.381  53.150487
2.380  53.170203
2.379  53.168180
2.378  53.200795
2.377  53.157640
2.376  53.122350
2.375  53.148301
2.374  53.236989
2.373  53.244611
2.372  53.244440
2.371  53.253265
2.370  53.237695
2.369  53.187731
2.368  53.195076
2.367  53.205784
2.366  53.282976
2.365  53.340545
2.364  53.316495
2.363  53.260737
2.362  53.263799
2.361  53.289352
2.360  53.284957
2.359  53.279827
2.358  53.270519
2.357  53.258667
2.356  53.281420
2.355  53.290037
2.354  53.318613
2.353  53.312750
2.352  53.294763
2.351  53.319611
2.350  53.314648
2.349  53.303495
2.348  53.286173
2.347  53.313027
2.346  53.317492
2.345  53.279768
2.344  53.318861
2.343  53.374262
2.342  53.332428
2.341  53.333816
2.340  53.379894
2.339  53.370623
2.338  53.325172
2.337  53.320399
2.336  53.346342
2.335  53.367473
2.334  53.358302
2.333  53.324408
2.332  53.318428
2.331  53.306550
2.330  53.301809
2.329  53.298046
2.328  53.271609
2.327  53.289007
2.326  53.290271
2.325  53.294211
2.324  53.266571
2.323  53.263731
2.322  53.220973
2.321  53.217584
2.320  53.247944
2.319  53.267766
2.318  53.235835
2.317  53.276631
2.316  53.278916
2.315  53.197256
2.314  53.198821
2.313  53.304237
2.312  53.266156
2.311  53.231456
2.310  53.181970
2.309  53.231344
2.308  53.224664
2.307  53.272334
2.306  53.263524
2.305  53.290049
2.304  53.262454
2.303  53.257299
2.302  53.246129
2.301  53.266141
2.300  53.259807
2.299  53.309400
2.298  53.320895
2.297  53.288446
2.296  53.242360
2.295  53.301735
2.294  53.264817
2.293  53.266150
2.292  53.171469
2.291  53.271217
2.290  53.223491
2.289  53.230340
2.288  53.241077
2.287  53.266248
2.286  53.236564
2.285  53.221874
2.284  53.225841
2.283  53.264627
2.282  53.278409
2.281  53.260366
2.280  53.236396
2.279  53.249574
2.278  53.209657
2.277  53.218115
2.276  53.288135
2.275  53.241269
2.274  53.198143
2.273  53.303638
2.272  53.203858
2.271  53.235166
2.270  53.251962
2.269  53.252810
2.268  53.206318
2.267  53.238044
2.266  53.234426
2.265  53.179050
2.264  53.143457
2.263  53.142594
2.262  53.120656
2.261  53.238759
2.260  53.166870
2.259  53.143210
2.258  53.176407
2.257  53.198266
2.256  53.197832
2.255  53.230977
2.254  53.198792
2.253  53.243014
2.252  53.214204
2.251  53.238566
2.250  53.187768
2.249  53.237168
2.248  53.242730
2.247  53.227688
2.246  53.259551
2.245  53.221865
2.244  53.198829
2.243  53.221339
2.242  53.251966
2.241  53.166277
2.240  53.188607
2.239  53.241967
2.238  53.310392
2.237  53.204413
2.236  53.212956
2.235  53.246112
2.234  53.250573
2.233  53.202870
2.232  53.212554
2.231  53.273848
2.230  53.134204
2.229  53.256984
2.228  53.235789
2.227  53.256255
2.226  53.204982
2.225  53.161088
2.224  53.162425
2.223  53.318622
2.222  53.194654
2.221  53.225231
2.220  53.167228
2.219  53.243678
2.218  53.073382
2.217  53.159465
2.216  53.205550
2.215  53.189384
2.214  53.178062
2.213  53.237871
2.212  53.209052
2.211  53.113033
2.210  53.166282
2.209  53.183040
2.208  53.278273
2.207  53.198600
2.206  53.225877
2.205  53.264257
2.204  53.190855
2.203  53.272001
2.202  53.199182
2.201  53.356036
2.200  53.254329
2.199  53.297393
2.198  53.293627
2.197  53.367104
2.196  53.326052
2.195  53.311446
2.194  53.284748
2.193  53.363739
2.192  53.342739
2.191  53.418655
2.190  53.322863
2.189  53.374277
2.188  53.326317
2.187  53.308296
2.186  53.355076
2.185  53.394517
2.184  53.401755
2.183  53.488102
2.182  53.398136
2.181  53.445560
2.180  53.459871
2.179  53.520747
2.178  53.466795
2.177  53.512339
2.176  53.496078
2.175  53.508789
2.174  53.548071
2.173  53.607359
2.172  53.463677
2.171  53.612590
2.170  53.642294
2.169  53.670990
2.168  53.680343
2.167  53.720295
2.166  53.677063
2.165  53.729473
2.164  53.703750
2.163  53.759668
2.162  53.730945
2.161  53.754440
2.160  53.761659
2.159  53.751708
2.158  53.760022
2.157  53.819419
2.156  53.761514
2.155  53.763807
2.154  53.712795
2.153  53.740142
2.152  53.741440
2.151  53.815390
2.150  53.861896
2.149  53.784905
2.148  53.808071
2.147  53.892623
2.146  53.768041
2.145  53.805526
2.144  53.770117
2.143  53.716908
2.142  53.715530
2.141  53.742364
2.140  53.765078
2.139  53.732224
2.138  53.765548
2.137  53.749688
2.136  53.619946
2.135  53.638333
2.134  53.615734
2.133  53.617976
2.132  53.581886
2.131  53.602811
2.130  53.588870
2.129  53.543708
2.128  53.530741
2.127  53.514626
2.126  53.517718
2.125  53.436654
2.124  53.398346
2.123  53.367964
2.122  53.315584
2.121  53.339843
2.120  53.289711
2.119  53.262709
2.118  53.244306
2.117  53.219050
2.116  53.152447
2.115  53.109738
2.114  53.073527
2.113  53.054707
2.112  53.000957
2.111  52.980319
2.110  52.945823
2.109  52.941949
2.108  52.924400
2.107  52.860614
2.106  52.797825
2.105  52.832681
2.104  52.818863
2.103  52.798522
2.102  52.702477
2.101  52.665664
2.100  52.643743
2.099  52.639673
2.098  52.615256
2.097  52.627936
2.096  52.663323
2.095  52.667635
2.094  52.623721
2.093  52.662549
2.092  52.623747
2.091  52.591378
2.090  52.595463
2.089  52.636576
2.088  52.648360
2.087  52.638088
2.086  52.572172
2.085  52.594163
2.084  52.629509
2.083  52.632200
2.082  52.632208
2.081  52.614580
2.080  52.633804
2.079  52.634284
2.078  52.596840
2.077  52.599049
2.076  52.585221
2.075  52.583567
2.074  52.618199
2.073  52.623495
2.072  52.613370
2.071  52.660416
2.070  52.624189
2.069  52.623707
2.068  52.664697
2.067  52.608051
2.066  52.597720
2.065  52.648374
2.064  52.646897
2.063  52.632033
2.062  52.626130
2.061  52.629110
2.060  52.628975
2.059  52.600064
2.058  52.578976
2.057  52.573623
2.056  52.575621
2.055  52.574462
2.054  52.604831
2.053  52.621595
2.052  52.591197
2.051  52.611129
2.050  52.600047
2.049  52.581388
2.048  52.599386
2.047  52.568946
2.046  52.548628
2.045  52.529890
2.044  52.521538
2.043  52.565892
2.042  52.565806
2.041  52.499446
2.040  52.477914
2.039  52.486164
2.038  52.511018
2.037  52.520542
2.036  52.508232
2.035  52.540383
2.034  52.536112
2.033  52.487632
2.032  52.486624
2.031  52.505543
2.030  52.478313
2.029  52.481972
2.028  52.493044
2.027  52.477013
2.026  52.411038
2.025  52.343484
2.024  52.377564
2.023  52.433518
2.022  52.399452
2.021  52.350207
2.020  52.348594
2.019  52.313580
2.018  52.336081
2.017  52.299570
2.016  52.316144
2.015  52.261685
2.014  52.323782
2.013  52.240386
2.012  52.236853
2.011  52.235928
2.010  52.208604
2.009  52.188081
2.008  52.208735
2.007  52.214568
2.006  52.208248
2.005  52.143067
2.004  52.181933
2.003  52.210920
2.002  52.194237
2.001  52.175936
2.000  52.147842
1.999  52.121262
1.998  52.188215
1.997  52.146351
1.996  52.177722
1.995  52.056086
1.994  52.111114
1.993  52.057026
1.992  51.969534
1.991  51.963916
1.990  51.980508
1.989  51.986529
1.988  51.949249
1.987  51.847731
1.986  51.893863
1.985  51.852310
1.984  51.893004
1.983  51.845531
1.982  51.795366
1.981  51.748749
1.980  51.752708
1.979  51.752945
1.978  51.797779
1.977  51.669949
1.976  51.743875
1.975  51.700661
1.974  51.664306
1.973  51.689981
1.972  51.722586
1.971  51.639248
1.970  51.570268
1.969  51.589834
1.968  51.515539
1.967  51.516786
1.966  51.523983
1.965  51.567153
1.964  51.526505
1.963  51.468320
1.962  51.467366
1.961  51.453500
1.960  51.488281
1.959  51.365758
1.958  51.405016
1.957  51.368576
1.956  51.371598
1.955  51.345138
1.954  51.298328
1.953  51.387780
1.952  51.375630
1.951  51.313057
1.950  51.285472
1.949  51.334914
1.948  51.211720
1.947  51.254931
1.946  51.275272
1.945  51.247280
1.944  51.253765
1.943  51.178603
1.942  51.221141
1.941  51.181913
1.940  51.213264
1.939  51.148142
1.938  51.135471
1.937  51.175921
1.936  51.132408
1.935  51.146025
1.934  51.104235
1.933  51.102573
1.932  51.131818
1.931  51.118589
1.930  51.077093
1.929  51.038653
1.928  51.115211
1.927  51.138287
1.926  50.913680
1.925  51.056140
1.924  51.127718
1.923  51.068806
1.922  51.059480
1.921  51.095986
1.920  51.048734
1.919  51.063274
1.918  51.046133
1.917  51.047967
1.916  51.076050
1.915  51.014328
1.914  50.990055
1.913  51.028099
1.912  51.080446
1.911  51.049494
1.910  51.071448
1.909  51.118014
1.908  51.098801
1.907  51.063226
1.906  51.131859
1.905  51.137869
1.904  51.210265
1.903  51.136894
1.902  51.192251
1.901  51.171486
1.900  51.222766
1.899  51.149059
1.898  51.174598
1.897  51.178091
1.896  51.286872
1.895  51.228570
1.894  51.279398
1.893  51.218674
1.892  51.254158
1.891  51.259411
1.890  51.291653
1.889  51.238661
1.888  51.192561
1.887  51.203021
1.886  51.317960
1.885  51.295208
1.884  51.301454
1.883  51.216916
1.882  51.288806
1.881  51.217836
1.880  51.252231
1.879  51.245966
1.878  51.313925
1.877  51.275613
1.876  51.296092
1.875  51.266790
1.874  51.261495
1.873  51.220132
1.872  51.233345
1.871  51.113651
1.870  51.165235
1.869  51.110336
1.868  51.111111
1.867  51.117598
1.866  51.111198
1.865  51.044192
1.864  51.103041
1.863  51.106649
1.862  51.118498
1.861  51.062622
1.860  51.098170
1.859  51.093894
1.858  51.024309
1.857  51.040872
1.856  50.993044
1.855  50.935728
1.854  50.995322
1.853  50.987269
1.852  50.991680
1.851  50.968917
1.850  50.938998
1.849  50.898362
1.848  50.917528
1.847  50.892136
1.846  50.915221
1.845  50.880293
1.844  50.900283
1.843  50.886063
1.842  50.874892
1.841  50.763656
1.840  50.818979
1.839  50.822340
1.838  50.792164
1.837  50.736923
1.836  50.691071
1.835  50.708764
1.834  50.739625
1.833  50.702805
1.832  50.644285
1.831  50.615289
1.830  50.679469
1.829  50.617054
1.828  50.637245
1.827  50.587043
1.826  50.587295
1.825  50.555093
1.824  50.575066
1.823  50.542062
1.822  50.508939
1.821  50.542741
1.820  50.528764
1.819  50.483443
1.818  50.479078
1.817  50.462749
1.816  50.497734
1.815  50.430523
1.814  50.405735
1.813  50.412978
1.812  50.404232
1.811  50.368664
1.810  50.343695
1.809  50.315709
1.808  50.301678
1.807  50.312514
1.806  50.310862
1.805  50.290476
1.804  50.290365
1.803  50.207358
1.802  50.179162
1.801  50.178305
1.800  50.168717
1.799  50.194711
1.798  50.227465
1.797  50.174234
1.796  50.114901
1.795  50.064039
1.794  50.067091
1.793  50.052765
1.792  50.056199
1.791  50.074208
1.790  50.044606
1.789  49.985276
1.788  49.920051
1.787  49.921997
1.786  49.961802
1.785  49.910429
1.784  49.895202
1.783  49.914106
1.782  49.862693
1.781  49.840206
1.780  49.832019
1.779  49.800443
1.778  49.770069
1.777  49.797041
1.776  49.798098
1.775  49.731446
1.774  49.719096
1.773  49.729412
1.772  49.698260
1.771  49.641901
1.770  49.612242
1.769  49.635591
1.768  49.618930
1.767  49.601874
1.766  49.584771
1.765  49.595659
1.764  49.527959
1.763  49.502511
1.762  49.510885
1.761  49.504839
1.760  49.463404
1.759  49.412239
1.758  49.409567
1.757  49.426641
1.756  49.401799
1.755  49.410362
1.754  49.370110
1.753  49.355137
1.752  49.364374
1.751  49.363780
1.750  49.310572
1.749  49.294648
1.748  49.271512
1.747  49.247098
1.746  49.234026
1.745  49.223704
1.744  49.178809
1.743  49.203499
1.742  49.149119
1.741  49.166310
1.740  49.120119
1.739  49.162059
1.738  49.110207
1.737  49.135089
1.736  49.018194
1.735  49.003197
1.734  48.978037
1.733  49.071233
1.732  49.045853
1.731  49.026379
1.730  48.981358
1.729  48.962716
1.728  48.986000
1.727  48.946117
1.726  48.915445
1.725  48.921432
1.724  48.851094
1.723  48.900350
1.722  48.816494
1.721  48.848541
1.720  48.779766
1.719  48.756004
1.718  48.699105
1.717  48.708312
1.716  48.712021
1.715  48.699024
1.714  48.686358
1.713  48.609305
1.712  48.603460
1.711  48.559114
1.710  48.518474
1.709  48.544486
1.708  48.516023
1.707  48.514520
1.706  48.491499
1.705  48.487504
1.704  48.436427
1.703  48.439107
1.702  48.397661
1.701  48.399340
1.700  48.336568
1.699  48.323164
1.698  48.353852
1.697  48.363003
1.696  48.318625
1.695  48.265839
1.694  48.272534
1.693  48.264574
1.692  48.166586
1.691  48.203914
1.690  48.157543
1.689  48.089637
1.688  48.116184
1.687  48.170240
1.686  48.107735
1.685  48.058974
1.684  48.005811
1.683  48.042898
1.682  47.968100
1.681  48.025444
1.680  47.966723
1.679  48.023216
1.678  47.927844
1.677  47.891237
1.676  47.842033
1.675  47.814390
1.674  47.898559
1.673  47.847122
1.672  47.784084
1.671  47.784946
1.670  47.771134
1.669  47.834199
1.668  47.611599
1.667  47.656012
1.666  47.617190
1.665  47.602911
1.664  47.631496
1.663  47.637654
1.662  47.623299
1.661  47.598788
1.660  47.617753
1.659  47.542457
1.658  47.457238
1.657  47.496108
1.656  47.421019
1.655  47.394510
1.654  47.526382
1.653  47.462141
1.652  47.375083
1.651  47.409131
1.650  47.313938
1.649  47.353902
1.648  47.249135
1.647  47.306785
1.646  47.356310
1.645  47.293962
1.644  47.263473
1.643  47.231466
1.642  47.243542
1.641  47.164366
1.640  47.208669
1.639  47.134494
1.638  47.186126
1.637  47.190898
1.636  47.090593
1.635  47.133270
1.634  47.062949
1.633  47.129234
1.632  47.026031
1.631  47.075848
1.630  46.985315
1.629  47.022147
1.628  46.975128
1.627  46.946725
1.626  46.997147
1.625  46.957065
1.624  46.879989
1.623  46.862867
1.622  46.911473
1.621  46.916232
1.620  46.899066
1.619  46.942388
1.618  46.842438
1.617  46.791770
1.616  46.763513
1.615  46.751363
1.614  46.754038
1.613  46.701640
1.612  46.665522
1.611  46.740371
1.610  46.679425
1.609  46.687668
1.608  46.629237
1.607  46.615519
1.606  46.651744
1.605  46.594664
1.604  46.596602
1.603  46.575113
1.602  46.524969
1.601  46.588959
1.600  46.551275
1.599  46.469554
1.598  46.521686
1.597  46.477416
1.596  46.475610
1.595  46.365719
1.594  46.374056
1.593  46.386066
1.592  46.349849
1.591  46.421882
1.590  46.409581
1.589  46.345035
1.588  46.339874
1.587  46.330275
1.586  46.302895
1.585  46.313800
1.584  46.247086
1.583  46.255296
1.582  46.211808
1.581  46.219746
1.580  46.150075
1.579  46.148783
1.578  46.115707
1.577  46.172863
1.576  46.145944
1.575  46.128032
1.574  46.034864
1.573  46.022950
1.572  46.001495
1.571  46.012278
1.570  46.013715
1.569  46.014871
1.568  46.025339
1.567  46.013786
1.566  45.965038
1.565  45.923896
1.564  45.859840
1.563  45.838472
1.562  45.833255
1.561  45.814774
1.560  45.822205
1.559  45.860179
1.558  45.871132
1.557  45.791226
1.556  45.763608
1.555  45.770716
1.554  45.755926
1.553  45.751880
1.552  45.651219
1.551  45.701655
1.550  45.675282
1.549  45.657297
1.548  45.637010
1.547  45.595887
1.546  45.623459
1.545  45.683364
1.544  45.625440
1.543  45.618484
1.542  45.563314
1.541  45.558473
1.540  45.527668
1.539  45.538748
1.538  45.496337
1.537  45.468917
1.536  45.483057
1.535  45.428141
1.534  45.442314
1.533  45.487420
1.532  45.442911
1.531  45.416846
1.530  45.406039
1.529  45.381168
1.528  45.364317
1.527  45.369060
1.526  45.331870
1.525  45.311199
1.524  45.259468
1.523  45.275025
1.522  45.239271
1.521  45.265106
1.520  45.264153
1.519  45.255725
1.518  45.211670
1.517  45.163054
1.516  45.125309
1.515  45.128624
1.514  45.137398
1.513  45.125626
1.512  45.113062
1.511  45.069710
1.510  45.023833
1.509  45.044683
1.508  45.040117
1.507  45.017577
1.506  44.967996
1.505  44.981046
1.504  45.005584
1.503  45.014559
1.502  44.967508
1.501  44.941962
1.500  44.923467
1.499  44.926645
1.498  44.921605
1.497  44.860557
1.496  44.852473
1.495  44.860226
1.494  44.829973
1.493  44.787730
1.492  44.784371
1.491  44.754742
1.490  44.735250
1.489  44.709970
1.488  44.717321
1.487  44.721814
1.486  44.683116
1.485  44.626476
1.484  44.650334
1.483  44.669287
1.482  44.688087
1.481  44.668043
1.480  44.619127
1.479  44.632456
1.478  44.575969
1.477  44.529878
1.476  44.559605
1.475  44.556445
1.474  44.530824
1.473  44.507433
1.472  44.491844
1.471  44.473163
1.470  44.462899
1.469  44.455350
1.468  44.446524
1.467  44.454969
1.466  44.468622
1.465  44.396631
1.464  44.375922
1.463  44.355407
1.462  44.369067
1.461  44.360620
1.460  44.354912
1.459  44.329577
1.458  44.341272
1.457  44.308697
1.456  44.309675
1.455  44.283206
1.454  44.224686
1.453  44.189261
1.452  44.226737
1.451  44.216080
1.450  44.223958
1.449  44.114068
1.448  44.174456
1.447  44.156075
1.446  44.115970
1.445  44.065333
1.444  44.057623
1.443  44.040283
1.442  44.059961
1.441  44.080795
1.440  44.038338
1.439  44.021303
1.438  44.014614
1.437  43.961515
1.436  43.997222
1.435  43.919676
1.434  43.893304
1.433  43.897305
1.432  43.872442
1.431  43.851295
1.430  43.848625
1.429  43.822619
1.428  43.803346
1.427  43.779980
1.426  43.809281
1.425  43.777862
1.424  43.682668
1.423  43.743718
1.422  43.721033
1.421  43.623085
1.420  43.688105
1.419  43.640308
1.418  43.664165
1.417  43.550950
