Name: Quartz SiO_2
Type: Mineral
Class: Silicates
Subclass: Tectosilicates
Particle Size: 45-125um
Sample No.: TS-1B
Owner: JPL
Wavelength range: VNIR-SWIR
Origin: Brazil, Minas Gerais.
Collected by:  Burminco
Description: Smoky quartz





Measurement: Hemispherical reflectance
First Column: X
Second Column: Y
X Units: Wavelength (micrometers)
Y Units: Reflectance (percent)
First X Value: 2.500
Last X Value: 0.400
Number of X Values: 2101
Additional information: ts01ba.txt

2.500  82.946258
2.499  82.806512
2.498  82.916052
2.497  82.729742
2.496  82.729843
2.495  82.831714
2.494  82.949872
2.493  83.035537
2.492  82.667516
2.491  82.883922
2.490  82.922473
2.489  82.710803
2.488  82.801100
2.487  82.844178
2.486  82.959059
2.485  82.984349
2.484  82.907609
2.483  82.860251
2.482  82.975779
2.481  82.934082
2.480  83.035394
2.479  83.063725
2.478  82.931445
2.477  83.061305
2.476  83.037539
2.475  83.129855
2.474  82.961058
2.473  83.040525
2.472  83.053156
2.471  83.080341
2.470  82.996883
2.469  83.022892
2.468  83.182448
2.467  82.880781
2.466  83.001303
2.465  83.205711
2.464  83.060858
2.463  83.079430
2.462  83.154281
2.461  83.282216
2.460  83.305817
2.459  83.123005
2.458  83.137551
2.457  83.176894
2.456  83.269283
2.455  83.211744
2.454  83.161516
2.453  83.080160
2.452  83.241224
2.451  83.320662
2.450  83.131806
2.449  83.184331
2.448  83.326299
2.447  83.252906
2.446  83.232207
2.445  83.161062
2.444  83.173827
2.443  83.170049
2.442  83.195615
2.441  83.318732
2.440  83.388274
2.439  83.313381
2.438  83.363119
2.437  83.331607
2.436  83.334207
2.435  83.471452
2.434  83.361764
2.433  83.342061
2.432  83.336865
2.431  83.390028
2.430  83.546791
2.429  83.506805
2.428  83.496380
2.427  83.442988
2.426  83.547540
2.425  83.561134
2.424  83.437535
2.423  83.641051
2.422  83.515039
2.421  83.549848
2.420  83.642668
2.419  83.648679
2.418  83.696011
2.417  83.598847
2.416  83.638222
2.415  83.574867
2.414  83.608467
2.413  83.663570
2.412  83.697101
2.411  83.660381
2.410  83.673445
2.409  83.649184
2.408  83.690450
2.407  83.736316
2.406  83.700269
2.405  83.729415
2.404  83.725671
2.403  83.749507
2.402  83.823937
2.401  83.740883
2.400  83.780601
2.399  83.869599
2.398  83.714042
2.397  83.712010
2.396  83.840461
2.395  83.931858
2.394  83.941912
2.393  83.838235
2.392  83.848372
2.391  83.951215
2.390  83.968742
2.389  83.892887
2.388  83.939277
2.387  84.019547
2.386  83.984493
2.385  83.920024
2.384  84.012954
2.383  84.101420
2.382  84.073466
2.381  83.984601
2.380  84.073363
2.379  84.101794
2.378  84.021791
2.377  84.117445
2.376  84.185468
2.375  84.130137
2.374  84.105162
2.373  84.159977
2.372  84.196525
2.371  84.230408
2.370  84.238677
2.369  84.232413
2.368  84.245732
2.367  84.265680
2.366  84.263343
2.365  84.320832
2.364  84.375386
2.363  84.297231
2.362  84.252244
2.361  84.275192
2.360  84.372228
2.359  84.397845
2.358  84.365323
2.357  84.339487
2.356  84.339660
2.355  84.391739
2.354  84.419503
2.353  84.358702
2.352  84.398280
2.351  84.439228
2.350  84.439304
2.349  84.431730
2.348  84.420937
2.347  84.440654
2.346  84.461836
2.345  84.459307
2.344  84.427450
2.343  84.423522
2.342  84.489293
2.341  84.527807
2.340  84.482101
2.339  84.508581
2.338  84.489237
2.337  84.418169
2.336  84.444467
2.335  84.422220
2.334  84.478434
2.333  84.482454
2.332  84.444194
2.331  84.435377
2.330  84.474650
2.329  84.455872
2.328  84.419903
2.327  84.465263
2.326  84.424496
2.325  84.381528
2.324  84.388783
2.323  84.380586
2.322  84.381191
2.321  84.393613
2.320  84.411675
2.319  84.468737
2.318  84.439748
2.317  84.412649
2.316  84.406566
2.315  84.425671
2.314  84.348982
2.313  84.340894
2.312  84.390514
2.311  84.334233
2.310  84.385088
2.309  84.404808
2.308  84.336255
2.307  84.367758
2.306  84.401232
2.305  84.312350
2.304  84.329180
2.303  84.265838
2.302  84.253211
2.301  84.317252
2.300  84.345891
2.299  84.331095
2.298  84.390268
2.297  84.356353
2.296  84.305889
2.295  84.361846
2.294  84.312366
2.293  84.291599
2.292  84.311531
2.291  84.312834
2.290  84.338877
2.289  84.311946
2.288  84.218822
2.287  84.255325
2.286  84.317630
2.285  84.318943
2.284  84.244082
2.283  84.216675
2.282  84.304294
2.281  84.320905
2.280  84.332222
2.279  84.298892
2.278  84.280298
2.277  84.271917
2.276  84.300259
2.275  84.223121
2.274  84.258349
2.273  84.276378
2.272  84.303778
2.271  84.277002
2.270  84.259369
2.269  84.289859
2.268  84.294131
2.267  84.199733
2.266  84.294663
2.265  84.264003
2.264  84.251343
2.263  84.259579
2.262  84.227980
2.261  84.234711
2.260  84.261055
2.259  84.305726
2.258  84.278327
2.257  84.319537
2.256  84.265185
2.255  84.240869
2.254  84.285290
2.253  84.235590
2.252  84.233313
2.251  84.215994
2.250  84.321324
2.249  84.355726
2.248  84.372520
2.247  84.229908
2.246  84.159885
2.245  84.312016
2.244  84.248141
2.243  84.342372
2.242  84.267295
2.241  84.289571
2.240  84.263607
2.239  84.341619
2.238  84.301090
2.237  84.253696
2.236  84.260106
2.235  84.271713
2.234  84.273563
2.233  84.311583
2.232  84.303149
2.231  84.345470
2.230  84.440377
2.229  84.366069
2.228  84.280091
2.227  84.442290
2.226  84.380286
2.225  84.397942
2.224  84.519948
2.223  84.427844
2.222  84.364586
2.221  84.385236
2.220  84.353765
2.219  84.488153
2.218  84.455689
2.217  84.550659
2.216  84.563089
2.215  84.525730
2.214  84.516809
2.213  84.513096
2.212  84.566151
2.211  84.553402
2.210  84.481913
2.209  84.584278
2.208  84.619466
2.207  84.670050
2.206  84.605851
2.205  84.703016
2.204  84.734043
2.203  84.670089
2.202  84.746586
2.201  84.823665
2.200  84.737304
2.199  84.933320
2.198  84.757136
2.197  84.832064
2.196  84.870710
2.195  84.799631
2.194  84.824824
2.193  84.910650
2.192  84.838849
2.191  84.868780
2.190  84.892265
2.189  85.001487
2.188  84.902501
2.187  84.914282
2.186  84.966232
2.185  84.924742
2.184  84.899623
2.183  85.008542
2.182  84.983202
2.181  84.998769
2.180  85.072938
2.179  85.096244
2.178  85.134495
2.177  85.188155
2.176  85.188317
2.175  85.190036
2.174  85.223274
2.173  85.228826
2.172  85.332902
2.171  85.286444
2.170  85.364533
2.169  85.343637
2.168  85.363252
2.167  85.362034
2.166  85.428562
2.165  85.462163
2.164  85.413528
2.163  85.467650
2.162  85.517430
2.161  85.545803
2.160  85.545494
2.159  85.537655
2.158  85.700729
2.157  85.602898
2.156  85.633569
2.155  85.665659
2.154  85.727523
2.153  85.724124
2.152  85.685947
2.151  85.692306
2.150  85.662634
2.149  85.683742
2.148  85.724190
2.147  85.771817
2.146  85.785027
2.145  85.777610
2.144  85.756489
2.143  85.715081
2.142  85.645369
2.141  85.698625
2.140  85.765613
2.139  85.751851
2.138  85.762005
2.137  85.760598
2.136  85.723488
2.135  85.690930
2.134  85.671804
2.133  85.635448
2.132  85.637010
2.131  85.601672
2.130  85.481842
2.129  85.477680
2.128  85.452670
2.127  85.449804
2.126  85.434886
2.125  85.423762
2.124  85.330430
2.123  85.292572
2.122  85.260119
2.121  85.185777
2.120  85.174888
2.119  85.120319
2.118  85.107592
2.117  85.027198
2.116  84.959574
2.115  84.982547
2.114  84.901814
2.113  84.767876
2.112  84.709556
2.111  84.678003
2.110  84.677075
2.109  84.637255
2.108  84.609676
2.107  84.520206
2.106  84.518692
2.105  84.463323
2.104  84.369966
2.103  84.364748
2.102  84.356082
2.101  84.337678
2.100  84.294017
2.099  84.317304
2.098  84.280255
2.097  84.266265
2.096  84.322263
2.095  84.370838
2.094  84.360940
2.093  84.341325
2.092  84.326865
2.091  84.390550
2.090  84.410589
2.089  84.430475
2.088  84.430468
2.087  84.403529
2.086  84.442975
2.085  84.469656
2.084  84.438996
2.083  84.404880
2.082  84.455552
2.081  84.471684
2.080  84.472328
2.079  84.487165
2.078  84.534636
2.077  84.561918
2.076  84.595392
2.075  84.598303
2.074  84.562813
2.073  84.560245
2.072  84.558585
2.071  84.541507
2.070  84.581794
2.069  84.668885
2.068  84.683872
2.067  84.643497
2.066  84.631503
2.065  84.602618
2.064  84.613850
2.063  84.700431
2.062  84.680056
2.061  84.695641
2.060  84.747673
2.059  84.723641
2.058  84.724153
2.057  84.751604
2.056  84.735837
2.055  84.778129
2.054  84.872435
2.053  84.832131
2.052  84.729945
2.051  84.773677
2.050  84.845614
2.049  84.840200
2.048  84.824155
2.047  84.787379
2.046  84.862734
2.045  84.851715
2.044  84.892126
2.043  84.884317
2.042  84.877678
2.041  84.895663
2.040  84.925326
2.039  84.955345
2.038  84.957291
2.037  84.993202
2.036  84.978955
2.035  84.951751
2.034  84.938034
2.033  84.906412
2.032  84.972068
2.031  85.010545
2.030  84.982435
2.029  84.904303
2.028  84.974939
2.027  84.988437
2.026  84.968223
2.025  84.951465
2.024  84.975284
2.023  84.959851
2.022  85.000415
2.021  84.911414
2.020  84.968803
2.019  85.066865
2.018  85.001270
2.017  84.954529
2.016  84.961631
2.015  85.009333
2.014  84.997750
2.013  85.026604
2.012  85.004717
2.011  84.981086
2.010  84.960718
2.009  84.953682
2.008  84.876357
2.007  84.896231
2.006  84.923407
2.005  84.939630
2.004  84.930481
2.003  84.984419
2.002  84.945726
2.001  85.060661
2.000  85.013143
1.999  84.918497
1.998  84.881431
1.997  84.912025
1.996  84.905126
1.995  84.917161
1.994  84.915192
1.993  84.955321
1.992  84.916662
1.991  84.898664
1.990  84.864589
1.989  84.887846
1.988  84.852502
1.987  84.769192
1.986  84.786031
1.985  84.773286
1.984  84.795027
1.983  84.811145
1.982  84.757858
1.981  84.739938
1.980  84.766015
1.979  84.759766
1.978  84.723544
1.977  84.666960
1.976  84.721255
1.975  84.642329
1.974  84.641384
1.973  84.685336
1.972  84.703574
1.971  84.697128
1.970  84.665474
1.969  84.732507
1.968  84.674900
1.967  84.633430
1.966  84.642772
1.965  84.598699
1.964  84.608266
1.963  84.600151
1.962  84.621012
1.961  84.614668
1.960  84.574621
1.959  84.565297
1.958  84.600829
1.957  84.586369
1.956  84.565138
1.955  84.552234
1.954  84.577448
1.953  84.620722
1.952  84.610332
1.951  84.501404
1.950  84.620029
1.949  84.584624
1.948  84.590782
1.947  84.566459
1.946  84.525592
1.945  84.501734
1.944  84.667052
1.943  84.585720
1.942  84.597194
1.941  84.566112
1.940  84.724094
1.939  84.680596
1.938  84.630838
1.937  84.589598
1.936  84.610899
1.935  84.673526
1.934  84.650988
1.933  84.673880
1.932  84.696072
1.931  84.594876
1.930  84.624013
1.929  84.681557
1.928  84.591224
1.927  84.756228
1.926  84.596335
1.925  84.666457
1.924  84.650876
1.923  84.703587
1.922  84.643131
1.921  84.720466
1.920  84.709591
1.919  84.688004
1.918  84.739298
1.917  84.763339
1.916  84.819611
1.915  84.705793
1.914  84.816450
1.913  84.781229
1.912  84.854547
1.911  84.899809
1.910  84.898734
1.909  84.913527
1.908  84.901364
1.907  84.849385
1.906  84.896233
1.905  84.927692
1.904  84.908159
1.903  84.833548
1.902  84.879745
1.901  84.801671
1.900  84.971689
1.899  84.891119
1.898  84.951369
1.897  84.925557
1.896  84.976524
1.895  85.070326
1.894  84.984546
1.893  84.999073
1.892  85.115538
1.891  85.153374
1.890  85.109849
1.889  85.109258
1.888  85.089780
1.887  85.085640
1.886  85.089790
1.885  85.061344
1.884  85.120432
1.883  85.135026
1.882  85.129915
1.881  85.084909
1.880  85.177135
1.879  85.086312
1.878  85.209287
1.877  85.107010
1.876  85.131364
1.875  85.131088
1.874  85.189346
1.873  85.244290
1.872  85.178950
1.871  85.211386
1.870  85.134263
1.869  85.179708
1.868  85.204853
1.867  85.218837
1.866  85.144391
1.865  85.202253
1.864  85.202148
1.863  85.192111
1.862  85.281684
1.861  85.242464
1.860  85.189514
1.859  85.206263
1.858  85.291371
1.857  85.286995
1.856  85.279198
1.855  85.207832
1.854  85.244066
1.853  85.250341
1.852  85.226978
1.851  85.242180
1.850  85.312868
1.849  85.258578
1.848  85.308720
1.847  85.256028
1.846  85.225177
1.845  85.280614
1.844  85.299535
1.843  85.286655
1.842  85.263461
1.841  85.283530
1.840  85.289525
1.839  85.309741
1.838  85.294708
1.837  85.229607
1.836  85.234223
1.835  85.233689
1.834  85.253769
1.833  85.260476
1.832  85.235040
1.831  85.226641
1.830  85.215385
1.829  85.253695
1.828  85.213255
1.827  85.248633
1.826  85.237601
1.825  85.259484
1.824  85.332476
1.823  85.310597
1.822  85.262111
1.821  85.316758
1.820  85.284208
1.819  85.236433
1.818  85.253113
1.817  85.302884
1.816  85.294728
1.815  85.282716
1.814  85.292595
1.813  85.228338
1.812  85.301957
1.811  85.341166
1.810  85.268195
1.809  85.238897
1.808  85.342790
1.807  85.339914
1.806  85.300622
1.805  85.324909
1.804  85.309145
1.803  85.302002
1.802  85.308677
1.801  85.232096
1.800  85.268883
1.799  85.293819
1.798  85.274003
1.797  85.309544
1.796  85.319006
1.795  85.272819
1.794  85.280251
1.793  85.319147
1.792  85.337619
1.791  85.297742
1.790  85.270124
1.789  85.260768
1.788  85.221845
1.787  85.188497
1.786  85.233710
1.785  85.279756
1.784  85.245780
1.783  85.219628
1.782  85.203488
1.781  85.245658
1.780  85.295905
1.779  85.277534
1.778  85.238126
1.777  85.211094
1.776  85.200657
1.775  85.213493
1.774  85.168466
1.773  85.184709
1.772  85.221523
1.771  85.207590
1.770  85.232611
1.769  85.180095
1.768  85.183918
1.767  85.206133
1.766  85.196799
1.765  85.253518
1.764  85.225275
1.763  85.150744
1.762  85.126426
1.761  85.131147
1.760  85.133295
1.759  85.160628
1.758  85.174932
1.757  85.177120
1.756  85.160330
1.755  85.160853
1.754  85.248747
1.753  85.287584
1.752  85.247815
1.751  85.197501
1.750  85.172457
1.749  85.205439
1.748  85.221078
1.747  85.201096
1.746  85.193804
1.745  85.230762
1.744  85.236122
1.743  85.261256
1.742  85.236122
1.741  85.232390
1.740  85.242495
1.739  85.216219
1.738  85.258510
1.737  85.264423
1.736  85.272190
1.735  85.261526
1.734  85.324994
1.733  85.313176
1.732  85.248618
1.731  85.282078
1.730  85.307021
1.729  85.260674
1.728  85.313259
1.727  85.320765
1.726  85.306311
1.725  85.322287
1.724  85.305177
1.723  85.313980
1.722  85.269465
1.721  85.252460
1.720  85.267093
1.719  85.288732
1.718  85.275651
1.717  85.230304
1.716  85.318579
1.715  85.342212
1.714  85.244778
1.713  85.244733
1.712  85.303078
1.711  85.281687
1.710  85.183123
1.709  85.154808
1.708  85.161992
1.707  85.142406
1.706  85.222280
1.705  85.248979
1.704  85.222901
1.703  85.188370
1.702  85.245631
1.701  85.216877
1.700  85.166731
1.699  85.224400
1.698  85.214961
1.697  85.193494
1.696  85.200301
1.695  85.170978
1.694  85.146982
1.693  85.201859
1.692  85.242821
1.691  85.193645
1.690  85.212858
1.689  85.153186
1.688  85.204926
1.687  85.218922
1.686  85.227994
1.685  85.138861
1.684  85.103915
1.683  85.136284
1.682  85.129649
1.681  85.223601
1.680  85.135222
1.679  85.185754
1.678  85.119982
1.677  85.209497
1.676  85.107498
1.675  85.172009
1.674  85.100343
1.673  85.136333
1.672  85.149415
1.671  85.163517
1.670  85.206882
1.669  85.090992
1.668  85.159335
1.667  85.231322
1.666  85.223009
1.665  85.090065
1.664  85.103138
1.663  85.177059
1.662  85.172473
1.661  85.175713
1.660  85.180828
1.659  85.183436
1.658  85.026909
1.657  85.144490
1.656  85.135683
1.655  85.204469
1.654  85.124024
1.653  85.124040
1.652  85.062074
1.651  85.018111
1.650  85.259680
1.649  85.047148
1.648  85.114423
1.647  85.018647
1.646  85.158682
1.645  85.085419
1.644  85.155260
1.643  85.117616
1.642  85.155208
1.641  85.188218
1.640  85.167272
1.639  85.095878
1.638  85.068995
1.637  85.137153
1.636  85.137191
1.635  85.131178
1.634  85.171221
1.633  85.198609
1.632  85.109713
1.631  85.184356
1.630  85.093406
1.629  85.045113
1.628  85.047690
1.627  85.149353
1.626  85.076292
1.625  85.072494
1.624  85.084211
1.623  85.173023
1.622  85.118550
1.621  85.077786
1.620  85.122909
1.619  85.050107
1.618  85.055359
1.617  85.050294
1.616  85.164970
1.615  85.023163
1.614  85.159249
1.613  85.179634
1.612  85.072281
1.611  85.095250
1.610  85.084660
1.609  85.122785
1.608  85.116451
1.607  85.098332
1.606  85.045340
1.605  85.038842
1.604  85.078690
1.603  85.057912
1.602  85.096880
1.601  85.123108
1.600  85.056829
1.599  85.051590
1.598  85.109201
1.597  85.102895
1.596  85.106883
1.595  85.117573
1.594  85.086860
1.593  85.164118
1.592  85.099035
1.591  85.145742
1.590  85.089706
1.589  85.091158
1.588  85.180271
1.587  85.130114
1.586  85.020846
1.585  85.064818
1.584  85.113255
1.583  85.109344
1.582  85.065892
1.581  85.098041
1.580  85.100507
1.579  85.037945
1.578  85.041000
1.577  85.061257
1.576  85.038248
1.575  84.999659
1.574  85.069742
1.573  85.050600
1.572  85.036409
1.571  85.024363
1.570  85.078598
1.569  85.006675
1.568  85.107304
1.567  85.084418
1.566  84.973895
1.565  84.943645
1.564  85.004498
1.563  84.994845
1.562  84.930013
1.561  84.948374
1.560  84.933229
1.559  84.973308
1.558  85.019088
1.557  85.077843
1.556  85.085871
1.555  85.080601
1.554  84.985232
1.553  84.994824
1.552  85.007206
1.551  85.005598
1.550  84.961158
1.549  84.969725
1.548  84.942234
1.547  84.958560
1.546  85.035116
1.545  85.066040
1.544  85.004651
1.543  84.949628
1.542  84.905695
1.541  84.967051
1.540  85.011930
1.539  85.007615
1.538  85.032943
1.537  85.013808
1.536  84.951365
1.535  84.941076
1.534  84.961459
1.533  84.984368
1.532  84.977557
1.531  84.961906
1.530  84.980896
1.529  84.905333
1.528  84.941574
1.527  84.974491
1.526  84.996679
1.525  84.958130
1.524  84.912990
1.523  84.953235
1.522  84.920157
1.521  84.934303
1.520  84.944331
1.519  84.910513
1.518  84.958004
1.517  84.960557
1.516  84.957887
1.515  84.925649
1.514  84.900923
1.513  84.936767
1.512  84.926368
1.511  84.910086
1.510  84.905401
1.509  84.877502
1.508  84.857426
1.507  84.829470
1.506  84.814243
1.505  84.846093
1.504  84.861363
1.503  84.884979
1.502  84.876829
1.501  84.828464
1.500  84.875948
1.499  84.895412
1.498  84.832368
1.497  84.847727
1.496  84.898848
1.495  84.879009
1.494  84.899578
1.493  84.842185
1.492  84.824048
1.491  84.889578
1.490  84.838401
1.489  84.791727
1.488  84.793915
1.487  84.814709
1.486  84.868636
1.485  84.854240
1.484  84.846328
1.483  84.849923
1.482  84.852852
1.481  84.851415
1.480  84.843787
1.479  84.889971
1.478  84.915474
1.477  84.854491
1.476  84.836422
1.475  84.793948
1.474  84.781996
1.473  84.824936
1.472  84.819364
1.471  84.828782
1.470  84.855067
1.469  84.797630
1.468  84.784994
1.467  84.769574
1.466  84.768971
1.465  84.805114
1.464  84.844923
1.463  84.857343
1.462  84.802544
1.461  84.740327
1.460  84.748903
1.459  84.733174
1.458  84.775277
1.457  84.790391
1.456  84.796584
1.455  84.758075
1.454  84.710556
1.453  84.736529
1.452  84.724879
1.451  84.744109
1.450  84.768050
1.449  84.779421
1.448  84.805352
1.447  84.738350
1.446  84.765519
1.445  84.744182
1.444  84.753523
1.443  84.799019
1.442  84.838370
1.441  84.749200
1.440  84.714676
1.439  84.698586
1.438  84.740152
1.437  84.750074
1.436  84.752064
1.435  84.714582
1.434  84.699614
1.433  84.747209
1.432  84.721924
1.431  84.800409
1.430  84.784811
1.429  84.748789
1.428  84.737032
1.427  84.750650
1.426  84.778776
1.425  84.786450
1.424  84.676701
1.423  84.754128
1.422  84.727421
1.421  84.739185
1.420  84.721070
1.419  84.660728
1.418  84.676873
