Name: Hornblende Granite
Type: Rock
Class: Igneous
Subclass:  Felsic 
Particle Size: Solid surface
Sample No.: Ward14.txt
Owner: JPL
Wavelength range:  IR  
Origin: Ward's Collection of American Rocks.  Sample locality - Rockport, Essex County, Massachusetts.
Collected by:  Ward's Natural Science
Description: A gray, granular rock consisting of feldspar, quartz and
hornblende.
Geologic age - Carboniferous (probably Mississippian).



Measurement: Hemispherical reflectance
First Column: X
Second Column: Y
X Units: Wavelength (micrometers)
Y Units: Reflectance (percent)
First X Value: 15.3871
Last X Value: 1.9998
Number of X Values: 2257
Additional information: None

15.3871   6.11039
15.3416   6.26876
15.2964   6.45001
15.2514   6.57823
15.2066   6.43514
15.1622   5.89884
15.1180   5.18337
15.0740   4.64263
15.0303   4.09651
14.9869   3.77180
14.9437   3.86153
14.9008   3.85370
14.8581   3.87600
14.8156   4.11743
14.7734   4.26480
14.7314   4.22050
14.6897   4.21768
14.6482   4.48450
14.6069   4.64304
14.5659   4.55862
14.5251   4.54117
14.4845   4.66106
14.4442   4.83264
14.4041   4.92762
14.3642   4.64947
14.3245   4.29999
14.2850   4.41426
14.2458   4.52022
14.2068   4.56100
14.1679   4.70685
14.1293   4.84766
14.0909   5.10539
14.0528   5.36092
14.0148   5.50358
13.9770   5.61718
13.9394   5.57181
13.9021   5.80875
13.8649   6.19682
13.8279   6.32191
13.7911   6.21206
13.7546   6.00352
13.7182   5.88665
13.6820   5.86730
13.6460   5.98471
13.6101   5.83383
13.5745   5.58244
13.5391   5.67659
13.5038   5.99410
13.4687   6.13988
13.4339   5.96180
13.3991   5.71350
13.3646   5.62194
13.3302   5.47426
13.2961   5.47128
13.2621   5.77038
13.2282   6.18911
13.1946   6.44429
13.1611   6.73092
13.1278   7.18018
13.0946   7.29275
13.0616   7.32490
13.0288   7.45788
12.9962   7.65932
12.9637   7.80030
12.9313   7.88415
12.8992   8.13024
12.8672   8.41728
12.8353   8.91425
12.8036   9.36910
12.7721   9.22173
12.7407   8.71670
12.7095   8.07849
12.6784   7.33481
12.6475   6.70260
12.6167   6.59844
12.5861   6.77779
12.5556   7.23386
12.5253   7.81239
12.4951   8.19131
12.4651   7.98607
12.4352   7.37938
12.4054   6.56627
12.3758   5.14687
12.3463   3.89333
12.3170   3.34832
12.2878   3.27570
12.2588   3.33254
12.2299   3.49768
12.2011   3.69929
12.1725   3.80086
12.1439   3.94972
12.1156   4.05812
12.0873   4.04303
12.0592   4.25903
12.0312   4.48189
12.0034   4.53681
11.9757   4.56153
11.9481   4.72390
11.9206   4.96280
11.8933   5.02101
11.8661   5.14822
11.8390   5.18404
11.8120   5.26561
11.7852   5.49586
11.7584   5.58169
11.7318   5.61288
11.7053   5.67349
11.6790   5.76726
11.6527   5.92530
11.6266   6.06425
11.6006   5.99036
11.5747   5.99955
11.5489   6.14525
11.5233   6.19839
11.4977   6.18146
11.4723   6.19509
11.4469   6.30883
11.4217   6.47382
11.3966   6.63617
11.3716   6.69933
11.3468   6.72777
11.3220   6.82655
11.2973   6.87723
11.2728   7.00959
11.2483   7.11372
11.2240   7.09617
11.1997   7.17601
11.1756   7.20452
11.1515   7.21493
11.1276   7.25796
11.1038   7.39646
11.0801   7.56882
11.0564   7.72777
11.0329   7.73305
11.0095   7.79336
10.9862   7.89058
10.9629   8.03338
10.9398   8.13965
10.9168   8.27933
10.8938   8.41174
10.8710   8.48281
10.8483   8.52814
10.8256   8.61912
10.8031   8.70941
10.7806   8.83536
10.7582   9.02134
10.7360   9.19400
10.7138   9.31949
10.6917   9.35619
10.6697   9.42427
10.6478   9.60874
10.6260   9.73611
10.6042   9.91570
10.5826  10.07860
10.5610  10.26230
10.5396  10.45910
10.5182  10.58780
10.4969  10.76860
10.4757  10.93950
10.4546  11.15890
10.4335  11.43830
10.4126  11.67050
10.3917  11.94540
10.3709  12.25440
10.3502  12.68130
10.3296  12.96490
10.3091  13.27990
10.2886  13.81600
10.2683  14.25720
10.2480  14.65480
10.2277  15.17250
10.2076  15.67310
10.1876  16.20980
10.1676  16.71760
10.1477  17.11380
10.1279  17.72940
10.1081  18.46760
10.0885  18.90490
10.0689  19.17700
10.0494  19.41700
10.0299  19.68770
10.0106  20.15080
 9.9913  20.68980
 9.9720  21.30200
 9.9529  21.94270
 9.9338  22.64900
 9.9148  23.15810
 9.8959  23.54670
 9.8771  23.84320
 9.8583  23.93370
 9.8396  23.73100
 9.8210  23.21960
 9.8024  22.76980
 9.7839  22.68160
 9.7655  22.82750
 9.7471  23.11490
 9.7288  23.42120
 9.7106  23.75330
 9.6925  24.23750
 9.6744  24.81300
 9.6564  25.31430
 9.6384  25.79320
 9.6205  26.24530
 9.6027  26.37890
 9.5850  26.50430
 9.5673  26.74430
 9.5497  26.74880
 9.5321  26.56330
 9.5146  26.39760
 9.4972  26.38320
 9.4798  26.75930
 9.4625  27.09220
 9.4453  27.36460
 9.4281  27.68340
 9.4110  27.93380
 9.3940  28.34760
 9.3770  29.05770
 9.3600  29.70410
 9.3432  30.38470
 9.3264  30.90480
 9.3096  31.44530
 9.2930  32.02960
 9.2763  32.61230
 9.2598  33.06210
 9.2432  33.37780
 9.2268  33.48520
 9.2104  33.58240
 9.1941  33.60180
 9.1778  33.56470
 9.1616  33.45850
 9.1454  33.08250
 9.1293  32.63400
 9.1133  32.01090
 9.0973  31.19950
 9.0814  30.72990
 9.0655  30.22490
 9.0497  29.73750
 9.0339  29.49020
 9.0182  29.30460
 9.0025  29.10600
 8.9870  29.01460
 8.9714  29.14500
 8.9559  29.32560
 8.9405  29.52380
 8.9251  29.75010
 8.9097  29.93010
 8.8945  30.23440
 8.8792  30.49760
 8.8641  30.83670
 8.8489  31.26810
 8.8338  31.71950
 8.8188  32.02520
 8.8039  32.18290
 8.7889  32.27460
 8.7741  32.47670
 8.7592  32.63510
 8.7445  32.72590
 8.7297  32.49260
 8.7151  32.27010
 8.7005  31.94370
 8.6859  31.35110
 8.6714  30.49030
 8.6569  29.22830
 8.6425  27.87270
 8.6281  27.33840
 8.6137  28.05230
 8.5994  29.51250
 8.5852  30.93040
 8.5710  31.98650
 8.5569  32.70290
 8.5428  33.08470
 8.5287  33.13740
 8.5147  33.15090
 8.5008  33.15920
 8.4869  33.09610
 8.4730  33.04140
 8.4592  33.01250
 8.4454  32.97150
 8.4316  32.89070
 8.4180  32.59660
 8.4043  32.29780
 8.3907  31.97860
 8.3772  31.78210
 8.3637  31.45640
 8.3502  30.94390
 8.3368  30.52690
 8.3234  30.01200
 8.3100  29.38130
 8.2967  28.79800
 8.2835  28.28840
 8.2703  27.79130
 8.2571  27.21760
 8.2440  26.55350
 8.2309  25.98250
 8.2179  25.43600
 8.2049  24.79740
 8.1919  24.09860
 8.1790  23.15360
 8.1661  22.00970
 8.1532  20.79810
 8.1404  19.66070
 8.1277  18.32790
 8.1150  16.87640
 8.1023  15.63330
 8.0897  14.39340
 8.0770  13.22690
 8.0645  12.23440
 8.0520  11.28770
 8.0395  10.41650
 8.0270   9.61281
 8.0146   8.92032
 8.0023   8.27722
 7.9899   7.56307
 7.9776   6.90211
 7.9654   6.26988
 7.9532   5.81017
 7.9410   5.31171
 7.9288   4.79265
 7.9167   4.43374
 7.9047   4.13354
 7.8926   3.78899
 7.8807   3.47249
 7.8687   3.17828
 7.8568   2.91134
 7.8449   2.62655
 7.8330   2.42989
 7.8212   2.34335
 7.8094   2.26808
 7.7977   2.18981
 7.7860   1.99904
 7.7743   1.89817
 7.7627   1.76867
 7.7511   1.56235
 7.7395   1.60228
 7.7280   1.67332
 7.7165   1.54170
 7.7050   1.37235
 7.6936   1.25681
 7.6822   1.22050
 7.6708   1.17248
 7.6595   1.09903
 7.6482   1.03450
 7.6369   0.95678
 7.6257   0.90799
 7.6145   0.92301
 7.6033   0.85416
 7.5922   0.86472
 7.5811   0.89480
 7.5700   0.86193
 7.5590   0.84694
 7.5480   0.90003
 7.5370   0.83968
 7.5261   0.72537
 7.5152   0.68783
 7.5043   0.71177
 7.4935   0.79456
 7.4826   0.88905
 7.4718   0.92376
 7.4611   0.77233
 7.4504   0.78707
 7.4397   0.99505
 7.4290   0.92439
 7.4184   0.77699
 7.4078   0.66436
 7.3972   0.70129
 7.3867   0.77575
 7.3762   0.83062
 7.3657   0.81892
 7.3553   0.75775
 7.3449   0.79961
 7.3345   0.88249
 7.3241   0.88592
 7.3138   0.87916
 7.3035   0.85564
 7.2932   0.79678
 7.2830   0.69414
 7.2727   0.76763
 7.2626   0.88485
 7.2524   0.92557
 7.2423   0.99627
 7.2322   1.11062
 7.2221   1.02940
 7.2120   0.97823
 7.2020   1.07674
 7.1921   1.08626
 7.1821   1.02238
 7.1722   0.99120
 7.1623   0.95599
 7.1524   0.96430
 7.1425   1.09561
 7.1327   1.12253
 7.1229   1.11042
 7.1131   1.20101
 7.1034   1.27474
 7.0937   1.22073
 7.0840   1.20418
 7.0743   1.21583
 7.0647   1.27769
 7.0551   1.30429
 7.0455   1.19618
 7.0359   1.11199
 7.0264   1.19112
 7.0169   1.25738
 7.0074   1.21217
 6.9979   1.21680
 6.9885   1.30818
 6.9791   1.43417
 6.9697   1.45629
 6.9604   1.43933
 6.9510   1.49482
 6.9417   1.52445
 6.9324   1.40730
 6.9232   1.36463
 6.9140   1.43813
 6.9047   1.51085
 6.8956   1.48451
 6.8864   1.41923
 6.8773   1.38815
 6.8682   1.40754
 6.8591   1.40673
 6.8500   1.46148
 6.8410   1.55881
 6.8320   1.61185
 6.8230   1.47150
 6.8140   1.43816
 6.8051   1.61807
 6.7962   1.68388
 6.7873   1.61809
 6.7784   1.59816
 6.7695   1.65728
 6.7607   1.66331
 6.7519   1.67196
 6.7431   1.63439
 6.7344   1.61759
 6.7256   1.63631
 6.7169   1.59211
 6.7082   1.58946
 6.6996   1.67076
 6.6909   1.70899
 6.6823   1.73303
 6.6737   1.81107
 6.6651   1.83279
 6.6566   1.82456
 6.6480   1.87251
 6.6395   1.96022
 6.6310   1.93918
 6.6226   1.80368
 6.6141   1.72564
 6.6057   1.65357
 6.5973   1.73729
 6.5889   1.88587
 6.5805   1.93602
 6.5722   1.94817
 6.5639   1.88079
 6.5556   1.87068
 6.5473   1.83849
 6.5390   1.84089
 6.5308   1.87532
 6.5226   1.86484
 6.5144   1.87587
 6.5062   1.90202
 6.4981   2.00927
 6.4900   1.96797
 6.4818   1.91427
 6.4737   1.94436
 6.4657   1.89296
 6.4576   2.00053
 6.4496   2.10188
 6.4416   2.03896
 6.4336   2.06018
 6.4256   2.13743
 6.4177   2.22390
 6.4097   2.20369
 6.4018   2.10564
 6.3939   2.05632
 6.3860   2.01001
 6.3782   1.89443
 6.3704   1.94475
 6.3625   2.07664
 6.3547   2.09767
 6.3470   2.05632
 6.3392   2.01600
 6.3315   2.03001
 6.3237   2.02613
 6.3160   2.07257
 6.3083   2.09072
 6.3007   1.98915
 6.2930   1.96925
 6.2854   1.92188
 6.2778   1.91253
 6.2702   1.97661
 6.2626   2.00965
 6.2551   1.97966
 6.2476   1.95360
 6.2400   2.03423
 6.2325   2.05823
 6.2251   1.99320
 6.2176   1.94164
 6.2101   2.00692
 6.2027   1.99387
 6.1953   1.98232
 6.1879   2.03476
 6.1805   1.98934
 6.1732   1.97941
 6.1658   2.03375
 6.1585   2.10121
 6.1512   2.05851
 6.1439   2.02926
 6.1367   1.98604
 6.1294   1.99710
 6.1222   2.11479
 6.1149   2.27891
 6.1077   2.23386
 6.1006   2.18707
 6.0934   2.16033
 6.0862   2.06150
 6.0791   2.09346
 6.0720   2.15094
 6.0649   2.20150
 6.0578   2.26701
 6.0507   2.29627
 6.0437   2.25714
 6.0366   2.24402
 6.0296   2.21674
 6.0226   2.16158
 6.0156   2.12072
 6.0087   2.16784
 6.0017   2.20972
 5.9948   2.21308
 5.9878   2.22892
 5.9809   2.25197
 5.9740   2.19635
 5.9672   2.16542
 5.9603   2.27004
 5.9535   2.22615
 5.9466   2.17882
 5.9398   2.25469
 5.9330   2.28989
 5.9262   2.26582
 5.9195   2.27945
 5.9127   2.36657
 5.9060   2.34824
 5.8993   2.29494
 5.8926   2.23118
 5.8859   2.26469
 5.8792   2.29692
 5.8726   2.29109
 5.8659   2.33940
 5.8593   2.37467
 5.8527   2.39210
 5.8461   2.35614
 5.8395   2.37757
 5.8329   2.36584
 5.8264   2.40122
 5.8198   2.52114
 5.8133   2.54161
 5.8068   2.41895
 5.8003   2.42065
 5.7938   2.57417
 5.7874   2.53687
 5.7809   2.44843
 5.7745   2.39265
 5.7680   2.35250
 5.7616   2.39081
 5.7552   2.45275
 5.7489   2.52237
 5.7425   2.49557
 5.7361   2.49273
 5.7298   2.57718
 5.7235   2.56672
 5.7172   2.54718
 5.7109   2.61509
 5.7046   2.66646
 5.6983   2.64370
 5.6921   2.63920
 5.6858   2.63317
 5.6796   2.60189
 5.6734   2.57868
 5.6672   2.58166
 5.6610   2.61266
 5.6548   2.60523
 5.6487   2.57759
 5.6425   2.61223
 5.6364   2.62870
 5.6303   2.60555
 5.6242   2.56433
 5.6181   2.52144
 5.6120   2.53483
 5.6059   2.58321
 5.5999   2.52141
 5.5938   2.50904
 5.5878   2.63030
 5.5818   2.68274
 5.5758   2.60226
 5.5698   2.61249
 5.5638   2.61738
 5.5578   2.63152
 5.5519   2.66489
 5.5460   2.59782
 5.5400   2.59523
 5.5341   2.62020
 5.5282   2.64942
 5.5223   2.71710
 5.5164   2.77050
 5.5106   2.74850
 5.5047   2.70776
 5.4989   2.75622
 5.4931   2.80599
 5.4873   2.81557
 5.4815   2.80360
 5.4757   2.75043
 5.4699   2.87031
 5.4641   2.96139
 5.4584   2.95009
 5.4527   2.97942
 5.4469   2.96297
 5.4412   3.01943
 5.4355   3.07727
 5.4298   3.02668
 5.4241   2.99898
 5.4185   3.02122
 5.4128   3.09009
 5.4072   3.10777
 5.4015   2.98769
 5.3959   2.92482
 5.3903   2.91437
 5.3847   2.95245
 5.3791   3.00909
 5.3735   3.00182
 5.3680   2.99198
 5.3624   3.03737
 5.3569   3.02193
 5.3514   3.07862
 5.3458   3.12637
 5.3403   3.04637
 5.3348   3.01679
 5.3294   3.07990
 5.3239   3.13082
 5.3184   3.10084
 5.3130   3.07002
 5.3075   2.97839
 5.3021   2.95831
 5.2967   3.08858
 5.2913   3.10728
 5.2859   3.07816
 5.2805   3.09828
 5.2751   3.16631
 5.2698   3.18232
 5.2644   3.15009
 5.2591   3.17749
 5.2538   3.16440
 5.2485   3.17268
 5.2431   3.23302
 5.2378   3.29376
 5.2326   3.27390
 5.2273   3.21599
 5.2220   3.22746
 5.2168   3.28503
 5.2115   3.32606
 5.2063   3.32520
 5.2011   3.31715
 5.1959   3.36738
 5.1907   3.27923
 5.1855   3.27032
 5.1803   3.34973
 5.1751   3.44442
 5.1700   3.48351
 5.1648   3.54629
 5.1597   3.55166
 5.1545   3.43653
 5.1494   3.40894
 5.1443   3.53298
 5.1392   3.58001
 5.1341   3.56625
 5.1291   3.58434
 5.1240   3.60504
 5.1189   3.56502
 5.1139   3.63683
 5.1088   3.70365
 5.1038   3.77406
 5.0988   3.84028
 5.0938   3.89797
 5.0888   3.89081
 5.0838   3.82437
 5.0788   3.84299
 5.0738   3.84398
 5.0689   3.82751
 5.0639   3.82213
 5.0590   3.82478
 5.0541   3.84117
 5.0491   3.83821
 5.0442   3.86971
 5.0393   3.90786
 5.0344   3.91567
 5.0296   3.95671
 5.0247   3.98476
 5.0198   4.00399
 5.0150   3.96910
 5.0101   3.92673
 5.0053   3.90626
 5.0004   3.90677
 4.9956   3.97095
 4.9908   4.07871
 4.9860   4.08487
 4.9812   4.12655
 4.9765   4.20120
 4.9717   4.17215
 4.9669   4.21701
 4.9622   4.32041
 4.9574   4.32878
 4.9527   4.37664
 4.9480   4.40359
 4.9432   4.38572
 4.9385   4.35828
 4.9338   4.31115
 4.9291   4.29839
 4.9245   4.36123
 4.9198   4.33612
 4.9151   4.33596
 4.9105   4.34745
 4.9058   4.34351
 4.9012   4.34262
 4.8966   4.42298
 4.8919   4.52491
 4.8873   4.62539
 4.8827   4.62575
 4.8781   4.64453
 4.8736   4.76969
 4.8690   4.88175
 4.8644   4.89494
 4.8599   4.84140
 4.8553   4.77454
 4.8508   4.91135
 4.8462   5.07798
 4.8417   5.10317
 4.8372   5.04544
 4.8327   4.97251
 4.8282   4.92778
 4.8237   5.01779
 4.8192   5.13292
 4.8147   5.20694
 4.8103   5.31537
 4.8058   5.24959
 4.8014   5.12793
 4.7969   5.08332
 4.7925   5.12535
 4.7881   5.19908
 4.7836   5.19383
 4.7792   5.25025
 4.7748   5.22760
 4.7704   5.17951
 4.7660   5.20870
 4.7617   5.29941
 4.7573   5.30253
 4.7530   5.34964
 4.7486   5.43953
 4.7443   5.49817
 4.7399   5.46903
 4.7356   5.39420
 4.7313   5.45460
 4.7270   5.49289
 4.7226   5.53070
 4.7184   5.48170
 4.7141   5.36494
 4.7098   5.46243
 4.7055   5.50955
 4.7012   5.51720
 4.6970   5.49021
 4.6927   5.39099
 4.6885   5.38349
 4.6842   5.46324
 4.6800   5.48475
 4.6758   5.49737
 4.6716   5.50289
 4.6674   5.42154
 4.6632   5.54541
 4.6590   5.63684
 4.6548   5.57682
 4.6506   5.57500
 4.6465   5.65810
 4.6423   5.81086
 4.6382   5.91961
 4.6340   6.01735
 4.6299   6.14692
 4.6258   6.20129
 4.6216   6.10282
 4.6175   6.10492
 4.6134   6.14888
 4.6093   6.29268
 4.6052   6.39135
 4.6011   6.31507
 4.5971   6.27420
 4.5930   6.43053
 4.5889   6.62427
 4.5849   6.72278
 4.5808   6.71099
 4.5768   6.64964
 4.5727   6.64154
 4.5687   6.66272
 4.5647   6.68265
 4.5607   6.77022
 4.5567   6.76788
 4.5526   6.71647
 4.5487   6.73448
 4.5447   6.81216
 4.5407   6.84672
 4.5367   6.83043
 4.5328   6.81063
 4.5288   6.82688
 4.5248   6.85471
 4.5209   6.88303
 4.5170   6.81676
 4.5130   6.81411
 4.5091   6.85333
 4.5052   6.93738
 4.5013   6.92860
 4.4974   6.88399
 4.4935   6.99039
 4.4896   7.05511
 4.4857   6.93270
 4.4818   6.93830
 4.4779   7.07224
 4.4741   7.13926
 4.4702   7.14676
 4.4664   7.17651
 4.4625   7.26266
 4.4587   7.27279
 4.4549   7.35676
 4.4510   7.57210
 4.4472   7.63687
 4.4434   7.54814
 4.4396   7.46858
 4.4358   7.53206
 4.4320   7.66693
 4.4282   7.75764
 4.4245   7.73080
 4.4207   7.72026
 4.4169   7.78262
 4.4132   7.91906
 4.4094   8.12192
 4.4057   8.11284
 4.4019   8.11663
 4.3982   8.25214
 4.3945   8.34514
 4.3907   8.44756
 4.3870   8.56100
 4.3833   8.59126
 4.3796   8.76261
 4.3759   8.86020
 4.3722   8.93116
 4.3685   9.08974
 4.3649   9.19550
 4.3612   9.17700
 4.3575   9.25312
 4.3539   9.36600
 4.3502   9.42825
 4.3466   9.50976
 4.3429   9.68032
 4.3393   9.89117
 4.3357   9.96715
 4.3320  10.01970
 4.3284  10.12800
 4.3248  10.23910
 4.3212  10.31770
 4.3176  10.32800
 4.3140  10.28150
 4.3105  10.31410
 4.3069  10.41950
 4.3033  10.54800
 4.2997  10.62680
 4.2962  10.59970
 4.2926  10.63250
 4.2890  10.82150
 4.2855  10.90160
 4.2820  10.90870
 4.2784  10.98920
 4.2749  11.11610
 4.2714  11.28310
 4.2679  11.26620
 4.2644  11.30290
 4.2609  11.56380
 4.2574  11.86060
 4.2539  11.95650
 4.2504  11.84850
 4.2469  11.75100
 4.2434  11.73420
 4.2400  11.90430
 4.2365  12.16580
 4.2330  12.16300
 4.2296  12.17180
 4.2261  12.23880
 4.2227  12.32000
 4.2193  12.49310
 4.2158  12.56640
 4.2124  12.58200
 4.2090  12.63790
 4.2056  12.69010
 4.2022  12.77030
 4.1988  12.82300
 4.1954  12.83470
 4.1920  12.97580
 4.1886  13.14910
 4.1852  13.21040
 4.1818  13.24810
 4.1785  13.32820
 4.1751  13.50540
 4.1717  13.61130
 4.1684  13.66180
 4.1650  13.62600
 4.1617  13.68820
 4.1584  13.78220
 4.1550  13.79870
 4.1517  13.86740
 4.1484  13.89990
 4.1451  13.92000
 4.1418  14.06900
 4.1384  14.20920
 4.1351  14.22400
 4.1319  14.16610
 4.1286  14.15430
 4.1253  14.39250
 4.1220  14.52550
 4.1187  14.47100
 4.1155  14.48760
 4.1122  14.52230
 4.1089  14.58010
 4.1057  14.84260
 4.1024  15.02990
 4.0992  15.18440
 4.0959  15.26170
 4.0927  15.22890
 4.0895  15.21940
 4.0863  15.32460
 4.0830  15.44410
 4.0798  15.44570
 4.0766  15.38970
 4.0734  15.43340
 4.0702  15.53300
 4.0670  15.57350
 4.0639  15.53420
 4.0607  15.48400
 4.0575  15.56000
 4.0543  15.65880
 4.0511  15.71870
 4.0480  15.66750
 4.0448  15.60460
 4.0417  15.56850
 4.0385  15.64270
 4.0354  15.75180
 4.0323  15.65320
 4.0291  15.61440
 4.0260  15.57600
 4.0229  15.62130
 4.0197  15.65660
 4.0166  15.67070
 4.0135  15.63070
 4.0104  15.57040
 4.0073  15.60620
 4.0042  15.66660
 4.0011  15.65430
 3.9981  15.58160
 3.9950  15.55670
 3.9919  15.65220
 3.9888  15.77650
 3.9857  15.79140
 3.9827  15.79790
 3.9796  15.78200
 3.9766  15.73030
 3.9735  15.77490
 3.9705  15.85620
 3.9675  16.03760
 3.9644  16.06270
 3.9614  16.09060
 3.9584  16.16920
 3.9554  16.40930
 3.9523  16.56490
 3.9493  16.52380
 3.9463  16.57630
 3.9433  16.72970
 3.9403  16.80750
 3.9373  16.84980
 3.9343  16.99070
 3.9314  17.06310
 3.9284  17.01760
 3.9254  17.05390
 3.9224  17.08180
 3.9195  17.10370
 3.9165  17.18590
 3.9136  17.12650
 3.9106  17.12030
 3.9077  17.24770
 3.9047  17.24640
 3.9018  17.22340
 3.8988  17.24460
 3.8959  17.24110
 3.8930  17.23290
 3.8901  17.14250
 3.8872  17.13030
 3.8842  17.18420
 3.8813  17.09590
 3.8784  16.98040
 3.8755  17.05740
 3.8726  17.20930
 3.8697  17.26530
 3.8669  17.24380
 3.8640  17.27590
 3.8611  17.21770
 3.8582  17.07360
 3.8554  17.15660
 3.8525  17.32380
 3.8496  17.30820
 3.8468  17.39980
 3.8439  17.57220
 3.8411  17.54460
 3.8382  17.55790
