Name: Diorite Porphyry
Type: Rock
Class: Igneous
Subclass:  Intermediate 
Particle Size: Solid surface
Sample No.: Ward32.txt
Owner: JPL
Wavelength range:  VNIR SWIR IR
Origin: Ward's Collection of American Rocks.  Sample locality - Jackson, Washington County, Wyoming.
Collected by:  Ward's Natural Science
Description: A medium grained gray porphyritic rock.  Phenocrysts include
black hornblende and colorless to cream-colored fledspar.  There are
occasional irregular masses of glassy quartz and tiny grains of magnetite.
The rock has numerous small vesicles.


Measurement: Hemispherical reflectance
First Column: X
Second Column: Y
X Units: Wavelength (micrometers)
Y Units: Reflectance (percent)
First X Value: 2.500
Last X Value: 0.400
Number of X Values: 2101
Additional information: None

2.500  16.817275
2.499  16.627639
2.498  16.720231
2.497  16.978871
2.496  16.286677
2.495  17.078756
2.494  16.592593
2.493  16.662452
2.492  16.787465
2.491  16.759394
2.490  16.581601
2.489  16.792389
2.488  16.597820
2.487  16.712516
2.486  16.601062
2.485  16.885692
2.484  16.651415
2.483  16.848758
2.482  16.649360
2.481  16.880253
2.480  16.489071
2.479  16.724694
2.478  16.615762
2.477  16.849434
2.476  16.696588
2.475  16.898230
2.474  16.679225
2.473  16.810406
2.472  16.677264
2.471  16.858536
2.470  16.655453
2.469  16.869512
2.468  16.752334
2.467  16.969036
2.466  16.788420
2.465  16.863510
2.464  16.804429
2.463  16.831996
2.462  16.848011
2.461  16.979025
2.460  17.005511
2.459  16.891497
2.458  16.839430
2.457  16.846406
2.456  16.861607
2.455  16.939647
2.454  16.918511
2.453  17.002541
2.452  16.912147
2.451  17.004699
2.450  17.057857
2.449  17.059920
2.448  16.921948
2.447  17.096149
2.446  17.031629
2.445  17.154952
2.444  16.972318
2.443  17.163548
2.442  17.047080
2.441  17.050084
2.440  16.999068
2.439  17.112912
2.438  17.106353
2.437  17.194912
2.436  17.137893
2.435  17.211951
2.434  17.091750
2.433  17.176977
2.432  17.132337
2.431  17.257035
2.430  17.077189
2.429  17.264317
2.428  17.163869
2.427  17.264861
2.426  17.206276
2.425  17.267458
2.424  17.251371
2.423  17.248503
2.422  17.225208
2.421  17.330589
2.420  17.218605
2.419  17.241947
2.418  17.202571
2.417  17.274114
2.416  17.287324
2.415  17.444448
2.414  17.304613
2.413  17.328532
2.412  17.252282
2.411  17.298597
2.410  17.213060
2.409  17.226676
2.408  17.264735
2.407  17.318671
2.406  17.333526
2.405  17.327576
2.404  17.311396
2.403  17.416831
2.402  17.355532
2.401  17.374460
2.400  17.361825
2.399  17.372674
2.398  17.355141
2.397  17.420544
2.396  17.349171
2.395  17.418296
2.394  17.318174
2.393  17.357179
2.392  17.353572
2.391  17.488117
2.390  17.486855
2.389  17.489897
2.388  17.459558
2.387  17.505753
2.386  17.482700
2.385  17.537795
2.384  17.523803
2.383  17.562478
2.382  17.483636
2.381  17.530232
2.380  17.527486
2.379  17.545542
2.378  17.527188
2.377  17.567073
2.376  17.594822
2.375  17.615619
2.374  17.619846
2.373  17.679947
2.372  17.674047
2.371  17.608384
2.370  17.597050
2.369  17.653685
2.368  17.698683
2.367  17.681384
2.366  17.651583
2.365  17.716994
2.364  17.723205
2.363  17.777219
2.362  17.811722
2.361  17.763747
2.360  17.751527
2.359  17.752640
2.358  17.771344
2.357  17.788130
2.356  17.798376
2.355  17.780141
2.354  17.797314
2.353  17.769457
2.352  17.743995
2.351  17.754400
2.350  17.767277
2.349  17.804383
2.348  17.812048
2.347  17.820633
2.346  17.831791
2.345  17.797999
2.344  17.777678
2.343  17.814975
2.342  17.865660
2.341  17.869900
2.340  17.921089
2.339  17.865010
2.338  17.896359
2.337  17.916621
2.336  17.861747
2.335  17.894949
2.334  17.957735
2.333  17.934435
2.332  17.961805
2.331  17.888489
2.330  17.919776
2.329  17.939980
2.328  17.950014
2.327  17.918222
2.326  17.918987
2.325  17.869999
2.324  17.924024
2.323  17.953817
2.322  17.948051
2.321  17.950619
2.320  17.995069
2.319  17.934671
2.318  18.038650
2.317  17.995490
2.316  17.959604
2.315  17.957739
2.314  17.930379
2.313  17.938375
2.312  18.015477
2.311  18.007045
2.310  17.956474
2.309  17.993818
2.308  18.073296
2.307  17.997740
2.306  18.045021
2.305  18.004449
2.304  18.039504
2.303  18.017305
2.302  18.042003
2.301  18.015725
2.300  18.057428
2.299  18.004153
2.298  18.063880
2.297  18.048685
2.296  18.062668
2.295  18.018552
2.294  18.061983
2.293  18.035496
2.292  18.130433
2.291  18.054353
2.290  18.120974
2.289  18.078803
2.288  18.084932
2.287  18.081443
2.286  18.144376
2.285  18.055821
2.284  18.123713
2.283  18.073580
2.282  18.123832
2.281  18.082341
2.280  18.162569
2.279  18.110538
2.278  18.159231
2.277  18.102699
2.276  18.191070
2.275  18.112323
2.274  18.197478
2.273  18.111460
2.272  18.158107
2.271  18.148354
2.270  18.203480
2.269  18.127298
2.268  18.175383
2.267  18.124264
2.266  18.165569
2.265  18.116620
2.264  18.218824
2.263  18.116501
2.262  18.161045
2.261  18.144186
2.260  18.186723
2.259  18.127766
2.258  18.236007
2.257  18.065068
2.256  18.185423
2.255  18.099121
2.254  18.161049
2.253  18.047903
2.252  18.186102
2.251  18.133421
2.250  18.151656
2.249  18.095765
2.248  18.173185
2.247  18.105060
2.246  18.218125
2.245  18.073284
2.244  18.131393
2.243  18.039819
2.242  18.158955
2.241  18.082673
2.240  18.179407
2.239  18.066043
2.238  18.179239
2.237  18.112442
2.236  18.169555
2.235  18.099055
2.234  18.178389
2.233  18.093448
2.232  18.225059
2.231  18.057221
2.230  18.152233
2.229  18.088520
2.228  18.211263
2.227  18.113998
2.226  18.242626
2.225  18.108783
2.224  18.154029
2.223  18.136823
2.222  18.240243
2.221  18.100177
2.220  18.185661
2.219  18.082478
2.218  18.122719
2.217  18.121046
2.216  18.158376
2.215  18.087599
2.214  18.177185
2.213  18.045756
2.212  18.276071
2.211  18.003644
2.210  18.297172
2.209  18.135913
2.208  18.119944
2.207  18.148907
2.206  18.256702
2.205  18.185898
2.204  18.252047
2.203  18.192457
2.202  18.241260
2.201  18.233240
2.200  18.292082
2.199  18.153972
2.198  18.224242
2.197  18.280411
2.196  18.309126
2.195  18.282327
2.194  18.342359
2.193  18.233656
2.192  18.312669
2.191  18.249926
2.190  18.423730
2.189  18.212697
2.188  18.291074
2.187  18.306022
2.186  18.370787
2.185  18.310664
2.184  18.417324
2.183  18.291185
2.182  18.429155
2.181  18.335875
2.180  18.420955
2.179  18.392067
2.178  18.409396
2.177  18.340198
2.176  18.459671
2.175  18.333899
2.174  18.464394
2.173  18.395381
2.172  18.518990
2.171  18.434500
2.170  18.435771
2.169  18.407493
2.168  18.570729
2.167  18.422164
2.166  18.527270
2.165  18.480050
2.164  18.568611
2.163  18.526298
2.162  18.573067
2.161  18.515704
2.160  18.544295
2.159  18.536871
2.158  18.630106
2.157  18.593658
2.156  18.680849
2.155  18.578488
2.154  18.635770
2.153  18.533285
2.152  18.682246
2.151  18.615337
2.150  18.658304
2.149  18.620405
2.148  18.690602
2.147  18.622530
2.146  18.718701
2.145  18.634202
2.144  18.689929
2.143  18.651050
2.142  18.683576
2.141  18.659083
2.140  18.778296
2.139  18.727776
2.138  18.673190
2.137  18.649184
2.136  18.650829
2.135  18.618560
2.134  18.654027
2.133  18.580945
2.132  18.605176
2.131  18.580280
2.130  18.571655
2.129  18.503006
2.128  18.606627
2.127  18.557690
2.126  18.520071
2.125  18.455101
2.124  18.521562
2.123  18.503315
2.122  18.485169
2.121  18.419159
2.120  18.447603
2.119  18.443330
2.118  18.446946
2.117  18.395551
2.116  18.425790
2.115  18.338720
2.114  18.373993
2.113  18.380960
2.112  18.366900
2.111  18.305559
2.110  18.311751
2.109  18.272585
2.108  18.282920
2.107  18.180443
2.106  18.187240
2.105  18.182889
2.104  18.222155
2.103  18.149778
2.102  18.146264
2.101  18.112597
2.100  18.145062
2.099  18.141482
2.098  18.133185
2.097  18.111837
2.096  18.123126
2.095  18.098660
2.094  18.131123
2.093  18.062281
2.092  18.070136
2.091  18.052084
2.090  18.082656
2.089  18.112287
2.088  18.110381
2.087  18.102498
2.086  18.118004
2.085  18.098958
2.084  18.098104
2.083  18.083039
2.082  18.084037
2.081  18.069019
2.080  18.103519
2.079  18.127941
2.078  18.153871
2.077  18.080218
2.076  18.042681
2.075  18.122253
2.074  18.094418
2.073  18.078182
2.072  18.060336
2.071  18.051065
2.070  18.093870
2.069  18.076562
2.068  18.078711
2.067  18.100006
2.066  18.065406
2.065  18.084492
2.064  18.090574
2.063  18.104425
2.062  18.099883
2.061  18.090939
2.060  18.076852
2.059  18.087220
2.058  18.050954
2.057  18.074963
2.056  18.082395
2.055  18.036037
2.054  18.081537
2.053  18.124969
2.052  18.093577
2.051  18.090480
2.050  18.090083
2.049  18.146170
2.048  18.091164
2.047  18.107347
2.046  18.114757
2.045  18.124661
2.044  18.099624
2.043  18.122654
2.042  18.112283
2.041  18.151982
2.040  18.127512
2.039  18.090114
2.038  18.050061
2.037  18.108910
2.036  18.039636
2.035  18.054145
2.034  18.113301
2.033  18.150840
2.032  18.089413
2.031  18.101559
2.030  18.059952
2.029  18.093274
2.028  18.081493
2.027  18.131429
2.026  18.086273
2.025  18.085488
2.024  18.051936
2.023  18.072249
2.022  18.031089
2.021  18.093391
2.020  18.071827
2.019  17.939003
2.018  17.977297
2.017  18.102715
2.016  18.026464
2.015  18.095847
2.014  18.056375
2.013  18.110379
2.012  18.013329
2.011  18.038738
2.010  17.997921
2.009  18.102241
2.008  18.053373
2.007  18.087665
2.006  18.024613
2.005  18.098298
2.004  17.970887
2.003  18.073038
2.002  18.003209
2.001  18.022812
2.000  18.005265
1.999  18.092059
1.998  17.998963
1.997  18.036793
1.996  18.027403
1.995  18.016158
1.994  17.991801
1.993  18.039038
1.992  17.998256
1.991  18.059209
1.990  18.008117
1.989  18.053276
1.988  17.977655
1.987  18.061286
1.986  18.007524
1.985  17.990751
1.984  17.945072
1.983  18.027820
1.982  17.980363
1.981  18.058773
1.980  17.938938
1.979  18.058161
1.978  17.920136
1.977  17.967962
1.976  17.916225
1.975  18.041493
1.974  17.943775
1.973  18.020823
1.972  18.038785
1.971  18.101809
1.970  17.922536
1.969  17.980346
1.968  17.978630
1.967  18.012483
1.966  18.079545
1.965  18.119934
1.964  18.017868
1.963  18.121014
1.962  18.035227
1.961  18.023764
1.960  17.994120
1.959  18.124844
1.958  18.003885
1.957  18.067182
1.956  18.107242
1.955  18.115444
1.954  18.000615
1.953  18.164036
1.952  18.087113
1.951  18.100967
1.950  18.025121
1.949  18.174582
1.948  18.059380
1.947  18.172838
1.946  18.111790
1.945  18.150692
1.944  18.107235
1.943  18.151465
1.942  18.121645
1.941  18.215267
1.940  18.153054
1.939  18.197694
1.938  18.052920
1.937  18.258216
1.936  18.071506
1.935  18.201137
1.934  18.155882
1.933  18.252235
1.932  18.076123
1.931  18.218983
1.930  18.143748
1.929  18.204854
1.928  18.112790
1.927  18.251218
1.926  17.971948
1.925  18.264615
1.924  18.125318
1.923  18.213786
1.922  18.024760
1.921  18.229197
1.920  18.035935
1.919  18.102604
1.918  18.113730
1.917  18.077324
1.916  18.015847
1.915  18.079452
1.914  17.949020
1.913  17.938085
1.912  17.929499
1.911  18.024677
1.910  17.973233
1.909  17.979193
1.908  17.875458
1.907  17.974584
1.906  17.954337
1.905  18.025522
1.904  18.036182
1.903  18.100206
1.902  18.072276
1.901  18.276563
1.900  18.182609
1.899  18.355181
1.898  18.297745
1.897  18.335038
1.896  18.305852
1.895  18.439755
1.894  18.355784
1.893  18.412392
1.892  18.439015
1.891  18.488222
1.890  18.537046
1.889  18.595967
1.888  18.543475
1.887  18.560690
1.886  18.555229
1.885  18.644806
1.884  18.534927
1.883  18.629624
1.882  18.543226
1.881  18.713704
1.880  18.620719
1.879  18.687322
1.878  18.626971
1.877  18.678651
1.876  18.606790
1.875  18.774907
1.874  18.701452
1.873  18.838654
1.872  18.799732
1.871  18.868326
1.870  18.871180
1.869  18.929031
1.868  18.858998
1.867  18.838142
1.866  18.799729
1.865  18.779142
1.864  18.762268
1.863  18.827697
1.862  18.716104
1.861  18.704054
1.860  18.752741
1.859  18.789293
1.858  18.712655
1.857  18.834861
1.856  18.684083
1.855  18.772720
1.854  18.691998
1.853  18.753529
1.852  18.795304
1.851  18.761719
1.850  18.754353
1.849  18.774792
1.848  18.721884
1.847  18.789842
1.846  18.788406
1.845  18.872716
1.844  18.782462
1.843  18.796267
1.842  18.681020
1.841  18.712267
1.840  18.754568
1.839  18.753784
1.838  18.757094
1.837  18.892015
1.836  18.811571
1.835  18.816137
1.834  18.717906
1.833  18.791963
1.832  18.707356
1.831  18.730828
1.830  18.740537
1.829  18.787123
1.828  18.695340
1.827  18.725279
1.826  18.700362
1.825  18.777834
1.824  18.705101
1.823  18.757944
1.822  18.719239
1.821  18.733880
1.820  18.718255
1.819  18.753649
1.818  18.684436
1.817  18.695787
1.816  18.719957
1.815  18.720096
1.814  18.691450
1.813  18.727856
1.812  18.684814
1.811  18.654020
1.810  18.686242
1.809  18.713103
1.808  18.649988
1.807  18.688148
1.806  18.724620
1.805  18.702392
1.804  18.676766
1.803  18.710843
1.802  18.731088
1.801  18.702756
1.800  18.743889
1.799  18.746640
1.798  18.696607
1.797  18.747521
1.796  18.693982
1.795  18.749074
1.794  18.773508
1.793  18.711232
1.792  18.713175
1.791  18.723543
1.790  18.697213
1.789  18.708783
1.788  18.708689
1.787  18.742164
1.786  18.780589
1.785  18.750001
1.784  18.731763
1.783  18.735837
1.782  18.786845
1.781  18.804069
1.780  18.785635
1.779  18.858246
1.778  18.845018
1.777  18.838868
1.776  18.883270
1.775  18.910145
1.774  18.897468
1.773  18.881545
1.772  18.874411
1.771  18.898305
1.770  18.907351
1.769  18.870716
1.768  18.971367
1.767  18.906938
1.766  18.856710
1.765  18.870673
1.764  18.897569
1.763  18.939284
1.762  18.918763
1.761  18.905344
1.760  18.897365
1.759  18.899211
1.758  18.929725
1.757  18.880003
1.756  18.964221
1.755  18.977101
1.754  18.925111
1.753  18.920849
1.752  18.949980
1.751  18.969061
1.750  18.942939
1.749  18.943413
1.748  18.934654
1.747  18.909939
1.746  18.956699
1.745  18.979180
1.744  18.990062
1.743  18.964371
1.742  18.972284
1.741  18.948195
1.740  18.983542
1.739  18.924997
1.738  19.006712
1.737  18.957761
1.736  19.006231
1.735  18.960844
1.734  19.039817
1.733  18.994521
1.732  19.004385
1.731  18.994564
1.730  19.039217
1.729  18.976059
1.728  19.021345
1.727  18.974843
1.726  19.065301
1.725  18.996629
1.724  19.018106
1.723  19.020101
1.722  19.090599
1.721  19.022254
1.720  19.083052
1.719  19.026991
1.718  19.094996
1.717  19.023163
1.716  19.088242
1.715  18.987120
1.714  19.081529
1.713  19.031279
1.712  19.057625
1.711  18.992042
1.710  19.049285
1.709  18.959849
1.708  19.015904
1.707  18.984264
1.706  19.074574
1.705  18.971889
1.704  19.056428
1.703  19.008368
1.702  19.046258
1.701  19.038016
1.700  19.047760
1.699  18.958503
1.698  19.036529
1.697  19.013554
1.696  19.025470
1.695  18.960366
1.694  19.044912
1.693  18.990518
1.692  19.020126
1.691  18.971041
1.690  18.998337
1.689  18.979249
1.688  19.009139
1.687  18.953795
1.686  18.997342
1.685  18.906799
1.684  19.025676
1.683  18.921858
1.682  19.041946
1.681  19.006504
1.680  18.977999
1.679  18.908019
1.678  19.058058
1.677  18.932034
1.676  19.080533
1.675  18.913414
1.674  18.999164
1.673  18.980427
1.672  19.060924
1.671  18.938824
1.670  19.000933
1.669  19.085640
1.668  18.776053
1.667  18.908745
1.666  19.011099
1.665  18.832428
1.664  19.063177
1.663  18.904073
1.662  19.048529
1.661  18.882145
1.660  18.990938
1.659  18.895850
1.658  18.872219
1.657  18.890538
1.656  19.012856
1.655  18.944624
1.654  19.043570
1.653  18.902088
1.652  19.014894
1.651  18.956835
1.650  18.945348
1.649  18.846309
1.648  18.968477
1.647  18.964876
1.646  18.982328
1.645  18.970722
1.644  19.017508
1.643  18.896148
1.642  19.020542
1.641  18.805744
1.640  19.012487
1.639  18.878482
1.638  19.033679
1.637  18.866175
1.636  19.011406
1.635  18.894172
1.634  19.021395
1.633  18.892037
1.632  18.959028
1.631  18.896074
1.630  19.019590
1.629  18.953509
1.628  19.075677
1.627  18.855369
1.626  19.018788
1.625  18.999612
1.624  19.127296
1.623  18.911091
1.622  19.003837
1.621  19.028212
1.620  19.015466
1.619  18.951047
1.618  18.983954
1.617  18.938830
1.616  19.018488
1.615  18.904567
1.614  19.018554
1.613  18.890917
1.612  19.052398
1.611  18.949460
1.610  19.042887
1.609  18.956084
1.608  19.033319
1.607  19.008981
1.606  19.111393
1.605  18.959957
1.604  19.020580
1.603  18.951920
1.602  19.086923
1.601  19.051407
1.600  19.088121
1.599  19.002145
1.598  19.032167
1.597  19.045328
1.596  19.071439
1.595  19.015978
1.594  19.097498
1.593  18.938924
1.592  19.046856
1.591  18.985544
1.590  19.037182
1.589  19.027855
1.588  18.978778
1.587  19.061409
1.586  19.064497
1.585  19.085873
1.584  19.041645
1.583  18.961865
1.582  19.023704
1.581  19.010512
1.580  19.122492
1.579  19.027954
1.578  19.114990
1.577  19.066686
1.576  19.137485
1.575  19.085076
1.574  19.158517
1.573  19.029743
1.572  19.077508
1.571  18.987509
1.570  19.057203
1.569  19.008286
1.568  19.186764
1.567  19.064570
1.566  19.079437
1.565  19.072772
1.564  19.127742
1.563  19.165859
1.562  19.118568
1.561  19.081376
1.560  19.102855
1.559  19.078398
1.558  19.135312
1.557  18.993452
1.556  19.094456
1.555  19.133057
1.554  19.122880
1.553  19.086163
1.552  19.085227
1.551  19.034593
1.550  19.046059
1.549  19.072995
1.548  19.110884
1.547  19.042453
1.546  19.115674
1.545  19.056160
1.544  19.120031
1.543  19.049902
1.542  19.079885
1.541  19.111088
1.540  19.117032
1.539  19.059077
1.538  19.143261
1.537  19.106826
1.536  19.080203
1.535  19.086683
1.534  19.156867
1.533  19.080357
1.532  19.088222
1.531  19.077370
1.530  19.123367
1.529  19.116005
1.528  19.130018
1.527  19.136507
1.526  19.176913
1.525  19.115800
1.524  19.173982
1.523  19.131563
1.522  19.111510
1.521  19.120975
1.520  19.178994
1.519  19.147054
1.518  19.145864
1.517  19.116724
1.516  19.095488
1.515  19.082535
1.514  19.102213
1.513  19.090893
1.512  19.115797
1.511  19.118879
1.510  19.124784
1.509  19.122692
1.508  19.163374
1.507  19.149538
1.506  19.134699
1.505  19.140715
1.504  19.160412
1.503  19.173646
1.502  19.163581
1.501  19.174601
1.500  19.175268
1.499  19.153351
1.498  19.167134
1.497  19.180133
1.496  19.163280
1.495  19.114569
1.494  19.119517
1.493  19.126008
1.492  19.129583
1.491  19.151454
1.490  19.115927
1.489  19.134166
1.488  19.185191
1.487  19.187504
1.486  19.130568
1.485  19.178504
1.484  19.180301
1.483  19.134603
1.482  19.160121
1.481  19.165973
1.480  19.152152
1.479  19.188711
1.478  19.099902
1.477  19.125945
1.476  19.181863
1.475  19.163242
1.474  19.149700
1.473  19.185814
1.472  19.147540
1.471  19.159281
1.470  19.117302
1.469  19.132767
1.468  19.140941
1.467  19.157066
1.466  19.132600
1.465  19.178726
1.464  19.137903
1.463  19.180204
1.462  19.112060
1.461  19.128051
1.460  19.134520
1.459  19.173068
1.458  19.135742
1.457  19.205108
1.456  19.131767
1.455  19.096851
1.454  19.150252
1.453  19.160582
1.452  19.087238
1.451  19.142158
1.450  19.136418
1.449  19.155193
1.448  19.146229
1.447  19.229240
1.446  19.130437
1.445  19.173202
1.444  19.107337
1.443  19.188237
1.442  19.145431
1.441  19.170566
1.440  19.123531
1.439  19.162558
1.438  19.098552
1.437  19.122399
1.436  19.144474
