Name: Arkose
Type: Rock
Class: Sedimentary
Subclass:  Sandstone 
Particle Size: Solid surface
Sample No.: Ward62.txt
Owner: JPL
Wavelength range:  VNIR SWIR IR 
Origin: Ward's Collection of American Rocks.  Sample locality - Mount Tom, Hampshire County, Massachusetts.
Collected by:  Ward's Natural Science
Description: A reddish-brown feldspathic sandstone composed of sub-angular
pebbles and grains of feldspar and glassy quartz cemented by a siliceous,
ferruginous cement.
Geologic age - Triassic.


Measurement: Hemispherical reflectance
First Column: X
Second Column: Y
X Units: Wavelength (micrometers)
Y Units: Reflectance (percent)
First X Value: 2.500
Last X Value: 0.400
Number of X Values: 2101
Additional information: None

2.500  23.857403
2.499  23.506278
2.498  23.817813
2.497  23.845795
2.496  23.684259
2.495  23.757849
2.494  23.492457
2.493  23.554035
2.492  23.906369
2.491  23.792821
2.490  23.983415
2.489  23.523435
2.488  23.881412
2.487  23.874087
2.486  23.817153
2.485  23.918009
2.484  23.992584
2.483  23.856036
2.482  24.005757
2.481  23.665283
2.480  23.982635
2.479  23.810118
2.478  23.986726
2.477  23.872520
2.476  24.053297
2.475  23.814241
2.474  24.043691
2.473  23.940204
2.472  24.093950
2.471  23.984474
2.470  24.083880
2.469  23.924259
2.468  24.175537
2.467  23.954402
2.466  24.198500
2.465  24.100879
2.464  24.214388
2.463  24.164418
2.462  24.246781
2.461  24.056249
2.460  24.268728
2.459  24.154497
2.458  24.270541
2.457  24.167577
2.456  24.290833
2.455  24.203886
2.454  24.327160
2.453  24.223474
2.452  24.319026
2.451  24.182434
2.450  24.330001
2.449  24.152503
2.448  24.405498
2.447  24.220889
2.446  24.521374
2.445  24.335587
2.444  24.478105
2.443  24.386966
2.442  24.516785
2.441  24.369921
2.440  24.482028
2.439  24.440766
2.438  24.459815
2.437  24.363930
2.436  24.553793
2.435  24.501746
2.434  24.508923
2.433  24.485541
2.432  24.601259
2.431  24.545780
2.430  24.621258
2.429  24.607107
2.428  24.652573
2.427  24.641378
2.426  24.640280
2.425  24.683379
2.424  24.791700
2.423  24.642561
2.422  24.757252
2.421  24.798103
2.420  24.854985
2.419  24.751686
2.418  24.971030
2.417  24.847486
2.416  24.856367
2.415  24.894936
2.414  24.899151
2.413  24.923568
2.412  24.938796
2.411  24.963374
2.410  25.031564
2.409  24.966702
2.408  25.061317
2.407  24.966797
2.406  25.047615
2.405  24.962949
2.404  25.051707
2.403  25.087702
2.402  25.171475
2.401  25.094637
2.400  25.115494
2.399  25.135012
2.398  25.185695
2.397  25.195094
2.396  25.164763
2.395  25.105123
2.394  25.185014
2.393  25.222521
2.392  25.247505
2.391  25.224868
2.390  25.273524
2.389  25.272326
2.388  25.295318
2.387  25.244360
2.386  25.263590
2.385  25.249167
2.384  25.281486
2.383  25.318690
2.382  25.333181
2.381  25.306407
2.380  25.329508
2.379  25.323489
2.378  25.319615
2.377  25.326398
2.376  25.423399
2.375  25.369441
2.374  25.355414
2.373  25.395180
2.372  25.452689
2.371  25.421412
2.370  25.364046
2.369  25.383342
2.368  25.406828
2.367  25.394356
2.366  25.420836
2.365  25.442725
2.364  25.448589
2.363  25.381425
2.362  25.439186
2.361  25.484066
2.360  25.445564
2.359  25.450825
2.358  25.445889
2.357  25.402508
2.356  25.416415
2.355  25.455523
2.354  25.465024
2.353  25.464897
2.352  25.432630
2.351  25.417227
2.350  25.433009
2.349  25.456711
2.348  25.440295
2.347  25.437199
2.346  25.429492
2.345  25.440658
2.344  25.475737
2.343  25.465535
2.342  25.412925
2.341  25.446489
2.340  25.445612
2.339  25.449579
2.338  25.460774
2.337  25.534294
2.336  25.507768
2.335  25.524457
2.334  25.547210
2.333  25.550918
2.332  25.539764
2.331  25.602897
2.330  25.574091
2.329  25.583379
2.328  25.564807
2.327  25.633267
2.326  25.612556
2.325  25.680875
2.324  25.688976
2.323  25.740871
2.322  25.684117
2.321  25.754045
2.320  25.807975
2.319  25.831323
2.318  25.795249
2.317  25.815539
2.316  25.847150
2.315  25.894510
2.314  25.848079
2.313  25.924532
2.312  25.862785
2.311  25.943327
2.310  25.924364
2.309  25.963207
2.308  25.993863
2.307  25.985461
2.306  25.898098
2.305  25.981068
2.304  26.023128
2.303  26.058235
2.302  26.014221
2.301  26.040365
2.300  26.024012
2.299  26.119056
2.298  26.085239
2.297  26.192475
2.296  26.131572
2.295  26.190798
2.294  26.148561
2.293  26.214283
2.292  26.174690
2.291  26.237339
2.290  26.164510
2.289  26.280093
2.288  26.225911
2.287  26.229681
2.286  26.191989
2.285  26.304711
2.284  26.255862
2.283  26.329989
2.282  26.244413
2.281  26.300135
2.280  26.321383
2.279  26.378427
2.278  26.303757
2.277  26.375981
2.276  26.346237
2.275  26.412343
2.274  26.325290
2.273  26.386981
2.272  26.334809
2.271  26.430500
2.270  26.358440
2.269  26.446053
2.268  26.389346
2.267  26.431998
2.266  26.389384
2.265  26.407963
2.264  26.375948
2.263  26.486531
2.262  26.427449
2.261  26.501303
2.260  26.434766
2.259  26.478778
2.258  26.371377
2.257  26.496482
2.256  26.410579
2.255  26.431678
2.254  26.401539
2.253  26.464600
2.252  26.436687
2.251  26.495328
2.250  26.398923
2.249  26.473201
2.248  26.393767
2.247  26.481028
2.246  26.439503
2.245  26.453226
2.244  26.399011
2.243  26.392065
2.242  26.333832
2.241  26.495307
2.240  26.379258
2.239  26.522623
2.238  26.432790
2.237  26.512190
2.236  26.403917
2.235  26.493250
2.234  26.491768
2.233  26.499902
2.232  26.401716
2.231  26.485087
2.230  26.342345
2.229  26.513335
2.228  26.370045
2.227  26.434319
2.226  26.429098
2.225  26.417509
2.224  26.320084
2.223  26.454761
2.222  26.162244
2.221  26.402635
2.220  26.265393
2.219  26.365870
2.218  26.170164
2.217  26.237228
2.216  26.090868
2.215  26.167782
2.214  26.090201
2.213  26.159832
2.212  26.157849
2.211  25.946529
2.210  26.061674
2.209  26.118054
2.208  25.993321
2.207  26.108256
2.206  26.005076
2.205  26.051381
2.204  26.021708
2.203  26.010747
2.202  26.023235
2.201  26.127135
2.200  26.033326
2.199  26.189053
2.198  25.983267
2.197  26.163914
2.196  26.083110
2.195  26.169594
2.194  26.025106
2.193  26.152216
2.192  26.143410
2.191  26.308676
2.190  26.202665
2.189  26.357731
2.188  26.272293
2.187  26.329702
2.186  26.308446
2.185  26.484282
2.184  26.432091
2.183  26.507903
2.182  26.425650
2.181  26.551752
2.180  26.523244
2.179  26.573221
2.178  26.588548
2.177  26.737135
2.176  26.653393
2.175  26.776546
2.174  26.754664
2.173  26.744904
2.172  26.776454
2.171  26.824436
2.170  26.840515
2.169  26.903298
2.168  26.832349
2.167  26.942895
2.166  26.935996
2.165  26.973152
2.164  26.934524
2.163  26.955043
2.162  26.928418
2.161  27.010240
2.160  27.068572
2.159  27.103947
2.158  27.048956
2.157  27.116501
2.156  27.022461
2.155  27.087627
2.154  27.008261
2.153  27.140288
2.152  27.141729
2.151  27.208787
2.150  27.129863
2.149  27.135656
2.148  27.064229
2.147  27.189862
2.146  27.161134
2.145  27.239687
2.144  27.145863
2.143  27.178623
2.142  27.112816
2.141  27.276933
2.140  27.225012
2.139  27.166429
2.138  27.096398
2.137  27.118782
2.136  27.178174
2.135  27.146225
2.134  27.068081
2.133  27.091138
2.132  27.056274
2.131  27.034246
2.130  27.082796
2.129  27.152298
2.128  27.092375
2.127  27.114819
2.126  26.994234
2.125  27.016079
2.124  27.026414
2.123  27.082737
2.122  26.995145
2.121  26.991427
2.120  26.925546
2.119  26.907542
2.118  26.836977
2.117  26.903794
2.116  26.863224
2.115  26.869539
2.114  26.829867
2.113  26.829463
2.112  26.763120
2.111  26.802754
2.110  26.803635
2.109  26.785174
2.108  26.757104
2.107  26.811067
2.106  26.761082
2.105  26.712411
2.104  26.678839
2.103  26.707060
2.102  26.710140
2.101  26.662049
2.100  26.656701
2.099  26.705432
2.098  26.627402
2.097  26.686085
2.096  26.628772
2.095  26.592323
2.094  26.632676
2.093  26.668762
2.092  26.668751
2.091  26.650381
2.090  26.625330
2.089  26.687358
2.088  26.724772
2.087  26.712029
2.086  26.675699
2.085  26.691788
2.084  26.678608
2.083  26.713468
2.082  26.752511
2.081  26.713236
2.080  26.702647
2.079  26.745692
2.078  26.690876
2.077  26.721294
2.076  26.753841
2.075  26.724912
2.074  26.708642
2.073  26.680269
2.072  26.686764
2.071  26.702416
2.070  26.725934
2.069  26.687104
2.068  26.700655
2.067  26.769624
2.066  26.742458
2.065  26.705642
2.064  26.747851
2.063  26.731513
2.062  26.714484
2.061  26.731565
2.060  26.721135
2.059  26.689932
2.058  26.752300
2.057  26.767615
2.056  26.728611
2.055  26.664064
2.054  26.684627
2.053  26.681047
2.052  26.785106
2.051  26.767564
2.050  26.708149
2.049  26.698263
2.048  26.697907
2.047  26.689597
2.046  26.701792
2.045  26.645769
2.044  26.682480
2.043  26.667415
2.042  26.687879
2.041  26.666220
2.040  26.703075
2.039  26.680613
2.038  26.712248
2.037  26.646057
2.036  26.641296
2.035  26.662315
2.034  26.689635
2.033  26.660242
2.032  26.615173
2.031  26.631740
2.030  26.679721
2.029  26.588729
2.028  26.591905
2.027  26.591331
2.026  26.574659
2.025  26.552894
2.024  26.570141
2.023  26.559751
2.022  26.582349
2.021  26.560665
2.020  26.612816
2.019  26.518309
2.018  26.604129
2.017  26.541475
2.016  26.550435
2.015  26.498161
2.014  26.480187
2.013  26.425169
2.012  26.500335
2.011  26.442647
2.010  26.471191
2.009  26.423986
2.008  26.433440
2.007  26.378980
2.006  26.392449
2.005  26.404793
2.004  26.440188
2.003  26.336761
2.002  26.363407
2.001  26.315741
2.000  26.332016
1.999  26.281957
1.998  26.387427
1.997  26.320149
1.996  26.334845
1.995  26.228455
1.994  26.278295
1.993  26.201657
1.992  26.223575
1.991  26.175447
1.990  26.262059
1.989  26.188113
1.988  26.215840
1.987  26.132325
1.986  26.145069
1.985  26.085508
1.984  26.179384
1.983  26.078209
1.982  26.104865
1.981  26.000018
1.980  26.094948
1.979  25.934234
1.978  26.011735
1.977  25.941138
1.976  26.079082
1.975  25.926204
1.974  25.970717
1.973  25.914132
1.972  25.986802
1.971  25.899280
1.970  25.962760
1.969  25.871543
1.968  25.884564
1.967  25.797046
1.966  25.852451
1.965  25.813145
1.964  25.874974
1.963  25.769178
1.962  25.864568
1.961  25.690991
1.960  25.808302
1.959  25.755733
1.958  25.715154
1.957  25.678907
1.956  25.768520
1.955  25.728878
1.954  25.801374
1.953  25.625461
1.952  25.686416
1.951  25.659612
1.950  25.740489
1.949  25.606784
1.948  25.736857
1.947  25.604817
1.946  25.715742
1.945  25.536187
1.944  25.722134
1.943  25.555855
1.942  25.554110
1.941  25.534326
1.940  25.575150
1.939  25.500076
1.938  25.580157
1.937  25.548504
1.936  25.661046
1.935  25.446781
1.934  25.574249
1.933  25.434680
1.932  25.516361
1.931  25.344703
1.930  25.466261
1.929  25.388107
1.928  25.380919
1.927  25.450997
1.926  25.323604
1.925  25.334688
1.924  25.272901
1.923  25.296150
1.922  25.274775
1.921  25.215627
1.920  25.271112
1.919  25.117846
1.918  25.249848
1.917  25.140844
1.916  25.216914
1.915  25.148857
1.914  25.139173
1.913  25.059036
1.912  25.236141
1.911  25.058055
1.910  25.226652
1.909  25.143501
1.908  25.290893
1.907  25.084596
1.906  25.336019
1.905  25.186757
1.904  25.309075
1.903  25.378257
1.902  25.545132
1.901  25.494562
1.900  25.662253
1.899  25.642825
1.898  25.795247
1.897  25.872672
1.896  25.972234
1.895  26.027640
1.894  26.165039
1.893  26.133071
1.892  26.315000
1.891  26.320889
1.890  26.461517
1.889  26.431574
1.888  26.576767
1.887  26.545793
1.886  26.640813
1.885  26.634459
1.884  26.669993
1.883  26.715915
1.882  26.870770
1.881  26.813564
1.880  26.833880
1.879  26.753977
1.878  26.920917
1.877  26.868027
1.876  26.986155
1.875  26.884392
1.874  26.980800
1.873  26.887143
1.872  26.943937
1.871  27.005938
1.870  27.037607
1.869  27.062940
1.868  27.154385
1.867  27.080462
1.866  27.143909
1.865  27.136252
1.864  27.232967
1.863  27.122429
1.862  27.197925
1.861  27.154528
1.860  27.185711
1.859  27.173671
1.858  27.120632
1.857  27.156489
1.856  27.262903
1.855  27.250867
1.854  27.297725
1.853  27.161548
1.852  27.191530
1.851  27.165906
1.850  27.262033
1.849  27.218306
1.848  27.237371
1.847  27.198508
1.846  27.219482
1.845  27.230273
1.844  27.260377
1.843  27.201869
1.842  27.289741
1.841  27.173825
1.840  27.231051
1.839  27.279280
1.838  27.316519
1.837  27.230359
1.836  27.246577
1.835  27.196815
1.834  27.309470
1.833  27.361581
1.832  27.299760
1.831  27.244707
1.830  27.326110
1.829  27.304219
1.828  27.308601
1.827  27.306868
1.826  27.358241
1.825  27.318377
1.824  27.336406
1.823  27.352802
1.822  27.360701
1.821  27.336723
1.820  27.322312
1.819  27.312256
1.818  27.317467
1.817  27.309037
1.816  27.361709
1.815  27.317622
1.814  27.397913
1.813  27.389774
1.812  27.371973
1.811  27.362672
1.810  27.320023
1.809  27.332919
1.808  27.366393
1.807  27.316194
1.806  27.368597
1.805  27.342907
1.804  27.341243
1.803  27.315462
1.802  27.378034
1.801  27.389148
1.800  27.425552
1.799  27.440364
1.798  27.385766
1.797  27.313205
1.796  27.347321
1.795  27.392945
1.794  27.362225
1.793  27.347139
1.792  27.393364
1.791  27.335256
1.790  27.310170
1.789  27.342375
1.788  27.366754
1.787  27.370162
1.786  27.302121
1.785  27.304007
1.784  27.328991
1.783  27.326787
1.782  27.351772
1.781  27.293658
1.780  27.253535
1.779  27.316035
1.778  27.311112
1.777  27.306418
1.776  27.312859
1.775  27.319965
1.774  27.309646
1.773  27.339794
1.772  27.314955
1.771  27.350800
1.770  27.333069
1.769  27.335507
1.768  27.371278
1.767  27.370324
1.766  27.293479
1.765  27.279726
1.764  27.308272
1.763  27.359562
1.762  27.308895
1.761  27.327214
1.760  27.338459
1.759  27.345096
1.758  27.356529
1.757  27.411358
1.756  27.354751
1.755  27.325349
1.754  27.301910
1.753  27.305568
1.752  27.333803
1.751  27.395788
1.750  27.342259
1.749  27.324694
1.748  27.295997
1.747  27.373975
1.746  27.394673
1.745  27.388346
1.744  27.380213
1.743  27.410780
1.742  27.337681
1.741  27.381272
1.740  27.347791
1.739  27.368452
1.738  27.380006
1.737  27.386155
1.736  27.348167
1.735  27.404047
1.734  27.378599
1.733  27.448316
1.732  27.345119
1.731  27.406607
1.730  27.385169
1.729  27.385524
1.728  27.355765
1.727  27.406666
1.726  27.380136
1.725  27.404436
1.724  27.323424
1.723  27.404353
1.722  27.352044
1.721  27.377011
1.720  27.326022
1.719  27.386922
1.718  27.341439
1.717  27.392901
1.716  27.400594
1.715  27.453330
1.714  27.352823
1.713  27.410868
1.712  27.383353
1.711  27.448833
1.710  27.408580
1.709  27.473678
1.708  27.437093
1.707  27.471487
1.706  27.375076
1.705  27.416057
1.704  27.365585
1.703  27.441782
1.702  27.367269
1.701  27.466766
1.700  27.380568
1.699  27.446842
1.698  27.430218
1.697  27.474051
1.696  27.365222
1.695  27.517494
1.694  27.386911
1.693  27.524597
1.692  27.398956
1.691  27.414613
1.690  27.394648
1.689  27.511896
1.688  27.399109
1.687  27.479617
1.686  27.394387
1.685  27.504421
1.684  27.416994
1.683  27.468665
1.682  27.420069
1.681  27.510396
1.680  27.379350
1.679  27.470142
1.678  27.419107
1.677  27.540682
1.676  27.432129
1.675  27.529660
1.674  27.423500
1.673  27.487498
1.672  27.395295
1.671  27.487101
1.670  27.506804
1.669  27.537857
1.668  27.359246
1.667  27.611014
1.666  27.480304
1.665  27.517921
1.664  27.476463
1.663  27.550577
1.662  27.397984
1.661  27.600398
1.660  27.513075
1.659  27.544415
1.658  27.421969
1.657  27.540323
1.656  27.427080
1.655  27.540424
1.654  27.499744
1.653  27.632514
1.652  27.448311
1.651  27.595757
1.650  27.446656
1.649  27.530665
1.648  27.482406
1.647  27.595390
1.646  27.523648
1.645  27.608297
1.644  27.458485
1.643  27.613168
1.642  27.613289
1.641  27.422637
1.640  27.531576
1.639  27.588335
1.638  27.480850
1.637  27.597562
1.636  27.480842
1.635  27.617773
1.634  27.490598
1.633  27.526504
1.632  27.539783
1.631  27.578661
1.630  27.503069
1.629  27.643946
1.628  27.530171
1.627  27.687351
1.626  27.477509
1.625  27.706856
1.624  27.543297
1.623  27.572261
1.622  27.563359
1.621  27.607767
1.620  27.557094
1.619  27.643069
1.618  27.525466
1.617  27.636943
1.616  27.506908
1.615  27.598029
1.614  27.536208
1.613  27.634037
1.612  27.568692
1.611  27.614116
1.610  27.557873
1.609  27.656426
1.608  27.531633
1.607  27.613612
1.606  27.583959
1.605  27.659238
1.604  27.543561
1.603  27.580052
1.602  27.598094
1.601  27.647172
1.600  27.574058
1.599  27.708410
1.598  27.579328
1.597  27.644495
1.596  27.636462
1.595  27.704263
1.594  27.594314
1.593  27.623000
1.592  27.579113
1.591  27.639990
1.590  27.615887
1.589  27.603461
1.588  27.574379
1.587  27.625442
1.586  27.724418
1.585  27.694164
1.584  27.626464
1.583  27.732166
1.582  27.629796
1.581  27.653088
1.580  27.562113
1.579  27.694530
1.578  27.709822
1.577  27.714033
1.576  27.666238
1.575  27.721195
1.574  27.636164
1.573  27.693697
1.572  27.551491
1.571  27.656980
1.570  27.656811
1.569  27.655089
1.568  27.634748
1.567  27.713339
1.566  27.622047
1.565  27.672576
1.564  27.654643
1.563  27.694237
1.562  27.625284
1.561  27.720044
1.560  27.629571
1.559  27.682624
1.558  27.628411
1.557  27.697795
1.556  27.669036
1.555  27.612076
1.554  27.634278
1.553  27.637575
1.552  27.620729
1.551  27.662320
1.550  27.664740
1.549  27.723815
1.548  27.638322
1.547  27.695315
1.546  27.709131
1.545  27.742000
1.544  27.646102
1.543  27.741788
1.542  27.703821
1.541  27.691687
1.540  27.634992
1.539  27.667697
1.538  27.670538
1.537  27.662510
1.536  27.687532
1.535  27.721723
1.534  27.689277
1.533  27.741833
1.532  27.693773
1.531  27.688366
1.530  27.651244
1.529  27.687083
1.528  27.706664
1.527  27.755123
1.526  27.708177
1.525  27.710502
1.524  27.678355
1.523  27.740550
1.522  27.748780
1.521  27.725903
1.520  27.686962
1.519  27.748527
1.518  27.732064
1.517  27.701549
1.516  27.697868
1.515  27.733734
1.514  27.768302
1.513  27.727135
1.512  27.630790
1.511  27.663387
1.510  27.698833
1.509  27.760794
1.508  27.737867
1.507  27.716411
1.506  27.734684
1.505  27.688046
1.504  27.683808
1.503  27.719233
1.502  27.697958
1.501  27.679819
1.500  27.692868
1.499  27.727995
1.498  27.750906
1.497  27.740801
1.496  27.780536
1.495  27.764796
1.494  27.712817
1.493  27.643875
1.492  27.702429
1.491  27.747694
1.490  27.753368
1.489  27.751028
1.488  27.772780
1.487  27.730660
1.486  27.758798
1.485  27.771575
1.484  27.772145
1.483  27.756158
1.482  27.736220
1.481  27.699515
1.480  27.656918
1.479  27.658893
1.478  27.735021
1.477  27.706598
1.476  27.735326
1.475  27.708287
1.474  27.696910
1.473  27.695209
1.472  27.723320
1.471  27.620202
1.470  27.679981
1.469  27.675072
1.468  27.696645
1.467  27.676252
1.466  27.735461
1.465  27.666021
1.464  27.703922
1.463  27.702944
1.462  27.746701
1.461  27.730873
1.460  27.753061
1.459  27.728235
1.458  27.763557
1.457  27.758669
1.456  27.793068
1.455  27.712601
1.454  27.753969
1.453  27.713816
1.452  27.805352
1.451  27.743181
1.450  27.781615
1.449  27.700745
1.448  27.746240
1.447  27.795043
1.446  27.802951
1.445  27.703373
1.444  27.777219
1.443  27.702139
1.442  27.720491
1.441  27.694479
1.440  27.757458
1.439  27.761740
1.438  27.733940
1.437  27.744151
1.436  27.751382
1.435  27.752755
1.434  27.794342
1.433  27.689770
