Name: Dolomitic Limestone
Type: Rock
Class: Sedimentary
Subclass:  Limestone 
Particle Size: Solid surface
Sample No.: Ward74.txt
Owner: JPL
Wavelength range:  IR
Origin: Ward's Collection of American Rocks.  Sample locality - Rochester, Monroe County, New York.
Collected by:  Ward's Natural Science
Description: A dark gray dolomitic rock with occasional cavities that
may be filled with crystallized minerals.
Geologic age - Silurian (Niagaran).



Measurement: Hemispherical reflectance
First Column: X
Second Column: Y
X Units: Wavelength (micrometers)
Y Units: Reflectance (percent)
First X Value: 15.3871
Last X Value: 1.9998
Number of X Values: 2257
Additional information: None

15.3871   3.46858
15.3416   3.54753
15.2964   3.44884
15.2514   3.41498
15.2066   3.51957
15.1622   3.75730
15.1180   3.84974
15.0740   3.83180
15.0303   3.54064
14.9869   3.49213
14.9437   3.66838
14.9008   3.70570
14.8581   3.98786
14.8156   4.09366
14.7734   3.86536
14.7314   3.90349
14.6897   4.01345
14.6482   3.94089
14.6069   3.88119
14.5659   3.89240
14.5251   4.04520
14.4845   4.24758
14.4442   4.10087
14.4041   4.16697
14.3642   4.44312
14.3245   4.45844
14.2850   4.43949
14.2458   4.47909
14.2068   4.51970
14.1679   4.51729
14.1293   4.41471
14.0909   4.32235
14.0528   4.34069
14.0148   4.31966
13.9770   4.33912
13.9394   4.41575
13.9021   4.34834
13.8649   4.43384
13.8279   4.80777
13.7911   5.22394
13.7546   5.84036
13.7182   5.76446
13.6820   4.15374
13.6460   2.48681
13.6101   2.26492
13.5745   2.67861
13.5391   2.82032
13.5038   2.95042
13.4687   3.29418
13.4339   3.50109
13.3991   3.58490
13.3646   3.72098
13.3302   3.98671
13.2961   4.09830
13.2621   4.03586
13.2282   4.28318
13.1946   4.43835
13.1611   4.59658
13.1278   4.91361
13.0946   4.98816
13.0616   4.94310
13.0288   5.15467
12.9962   5.23443
12.9637   5.29311
12.9313   5.33686
12.8992   5.30052
12.8672   5.30294
12.8353   5.44498
12.8036   5.67656
12.7721   5.84891
12.7407   5.84836
12.7095   5.83934
12.6784   5.76703
12.6475   5.77816
12.6167   5.78031
12.5861   5.76058
12.5556   5.89978
12.5253   6.09517
12.4951   6.02890
12.4651   6.01815
12.4352   6.30245
12.4054   6.37490
12.3758   6.21324
12.3463   6.29230
12.3170   6.56637
12.2878   6.70813
12.2588   6.62332
12.2299   6.62995
12.2011   6.68259
12.1725   6.68493
12.1439   6.73245
12.1156   6.72539
12.0873   6.57678
12.0592   6.61798
12.0312   6.80344
12.0034   6.82398
11.9757   6.79736
11.9481   6.69192
11.9206   6.82809
11.8933   6.97923
11.8661   6.98080
11.8390   6.93774
11.8120   6.88685
11.7852   6.65521
11.7584   6.16833
11.7318   5.78356
11.7053   5.91310
11.6790   6.36671
11.6527   6.62736
11.6266   6.82773
11.6006   6.92474
11.5747   7.06848
11.5489   7.44248
11.5233   7.61379
11.4977   7.77930
11.4723   8.42144
11.4469   9.50633
11.4217  10.79460
11.3966  12.17840
11.3716  13.78500
11.3468  15.85900
11.3220  18.45890
11.2973  21.25950
11.2728  23.37350
11.2483  24.93730
11.2240  26.29300
11.1997  27.32430
11.1756  27.61480
11.1515  26.47420
11.1276  22.27230
11.1038  16.34840
11.0801  12.28560
11.0564  10.33290
11.0329   9.33565
11.0095   8.86677
10.9862   8.49372
10.9629   8.12724
10.9398   8.04136
10.9168   7.93208
10.8938   7.59939
10.8710   7.52467
10.8483   7.58056
10.8256   7.53180
10.8031   7.42177
10.7806   7.40168
10.7582   7.45537
10.7360   7.47646
10.7138   7.43082
10.6917   7.35008
10.6697   7.26887
10.6478   7.26478
10.6260   7.41922
10.6042   7.44859
10.5826   7.16928
10.5610   7.09491
10.5396   7.21813
10.5182   7.35298
10.4969   7.26636
10.4757   7.16582
10.4546   7.19610
10.4335   7.33893
10.4126   7.47235
10.3917   7.46989
10.3709   7.36155
10.3502   7.17508
10.3296   6.91702
10.3091   6.82184
10.2886   6.87244
10.2683   6.94549
10.2480   6.87480
10.2277   6.86130
10.2076   6.83505
10.1876   6.68434
10.1676   6.54806
10.1477   6.57889
10.1279   6.52069
10.1081   6.38312
10.0885   6.42858
10.0689   6.48901
10.0494   6.49659
10.0299   6.62181
10.0106   6.86425
 9.9913   6.74705
 9.9720   6.53243
 9.9529   6.56516
 9.9338   6.63365
 9.9148   6.52987
 9.8959   6.44347
 9.8771   6.43397
 9.8583   6.47099
 9.8396   6.56707
 9.8210   6.59227
 9.8024   6.45051
 9.7839   6.37946
 9.7655   6.45574
 9.7471   6.51873
 9.7288   6.35113
 9.7106   6.33509
 9.6925   6.51653
 9.6744   6.64898
 9.6564   6.49439
 9.6384   6.40373
 9.6205   6.32837
 9.6027   6.30857
 9.5850   6.50650
 9.5673   6.71552
 9.5497   6.80227
 9.5321   6.82225
 9.5146   6.98070
 9.4972   6.86731
 9.4798   6.72649
 9.4625   6.68556
 9.4453   6.72238
 9.4281   6.75300
 9.4110   6.86147
 9.3940   6.94437
 9.3770   6.89308
 9.3600   6.84333
 9.3432   6.96663
 9.3264   7.04791
 9.3096   7.05184
 9.2930   7.11725
 9.2763   7.08336
 9.2598   6.92381
 9.2432   7.01956
 9.2268   7.19467
 9.2104   7.34508
 9.1941   7.34624
 9.1778   7.30056
 9.1616   7.42154
 9.1454   7.44610
 9.1293   7.25449
 9.1133   7.06975
 9.0973   6.93059
 9.0814   7.04869
 9.0655   7.46361
 9.0497   7.72083
 9.0339   7.69352
 9.0182   7.63423
 9.0025   7.57596
 8.9870   7.50651
 8.9714   7.57512
 8.9559   7.68228
 8.9405   7.54291
 8.9251   7.39632
 8.9097   7.46951
 8.8945   7.69691
 8.8792   7.66610
 8.8641   7.50951
 8.8489   7.55848
 8.8338   7.62277
 8.8188   7.69422
 8.8039   7.64814
 8.7889   7.45957
 8.7741   7.45196
 8.7592   7.50885
 8.7445   7.63785
 8.7297   7.58923
 8.7151   7.55247
 8.7005   7.59404
 8.6859   7.52879
 8.6714   7.53195
 8.6569   7.63353
 8.6425   7.69408
 8.6281   7.62849
 8.6137   7.72040
 8.5994   7.74624
 8.5852   7.62338
 8.5710   7.57953
 8.5569   7.53083
 8.5428   7.61671
 8.5287   7.74007
 8.5147   7.62936
 8.5008   7.42143
 8.4869   7.42816
 8.4730   7.55249
 8.4592   7.42740
 8.4454   7.33918
 8.4316   7.33913
 8.4180   7.31789
 8.4043   7.22592
 8.3907   7.15822
 8.3772   7.21007
 8.3637   7.28939
 8.3502   7.30757
 8.3368   7.41480
 8.3234   7.67575
 8.3100   7.81568
 8.2967   7.81948
 8.2835   7.78631
 8.2703   7.73045
 8.2571   7.72888
 8.2440   7.77531
 8.2309   7.82050
 8.2179   7.80745
 8.2049   7.73634
 8.1919   7.80121
 8.1790   7.68396
 8.1661   7.54277
 8.1532   7.52031
 8.1404   7.32904
 8.1277   7.22296
 8.1150   7.35971
 8.1023   7.51077
 8.0897   7.59916
 8.0770   7.64541
 8.0645   7.66621
 8.0520   7.64422
 8.0395   7.69458
 8.0270   7.81363
 8.0146   7.89435
 8.0023   7.88882
 7.9899   7.86782
 7.9776   7.83657
 7.9654   7.93646
 7.9532   8.01688
 7.9410   8.04016
 7.9288   8.04482
 7.9167   8.08204
 7.9047   8.21665
 7.8926   8.27218
 7.8807   8.18151
 7.8687   8.38884
 7.8568   8.48587
 7.8449   8.46540
 7.8330   8.56023
 7.8212   8.45036
 7.8094   8.27296
 7.7977   8.28756
 7.7860   8.44475
 7.7743   8.47524
 7.7627   8.38071
 7.7511   8.32993
 7.7395   8.40629
 7.7280   8.46884
 7.7165   8.46911
 7.7050   8.47022
 7.6936   8.54548
 7.6822   8.62983
 7.6708   8.65261
 7.6595   8.73475
 7.6482   8.88838
 7.6369   8.99701
 7.6257   8.98459
 7.6145   8.98551
 7.6033   9.07733
 7.5922   9.19879
 7.5811   9.20134
 7.5700   9.07485
 7.5590   9.13859
 7.5480   9.28310
 7.5370   9.40710
 7.5261   9.48206
 7.5152   9.50402
 7.5043   9.54595
 7.4935   9.47230
 7.4826   9.48083
 7.4718   9.65286
 7.4611   9.75104
 7.4504   9.86563
 7.4397   9.96769
 7.4290   9.99838
 7.4184  10.13030
 7.4078  10.28090
 7.3972  10.25820
 7.3867  10.35540
 7.3762  10.60030
 7.3657  10.68310
 7.3553  10.73480
 7.3449  10.79460
 7.3345  10.90470
 7.3241  11.04040
 7.3138  11.14200
 7.3035  11.21040
 7.2932  11.39820
 7.2830  11.74070
 7.2727  11.90310
 7.2626  11.97890
 7.2524  12.16720
 7.2423  12.39810
 7.2322  12.58430
 7.2221  12.76380
 7.2120  13.06320
 7.2020  13.27140
 7.1921  13.46170
 7.1821  13.90690
 7.1722  14.36580
 7.1623  14.67670
 7.1524  15.09420
 7.1425  15.57720
 7.1327  16.06080
 7.1229  16.60200
 7.1131  17.21000
 7.1034  17.72530
 7.0937  17.99240
 7.0840  18.31610
 7.0743  19.01780
 7.0647  20.29940
 7.0551  22.07850
 7.0455  24.04260
 7.0359  25.79550
 7.0264  27.23810
 7.0169  28.03470
 7.0074  28.41200
 6.9979  28.65850
 6.9885  28.73690
 6.9791  28.81260
 6.9697  29.07830
 6.9604  29.27330
 6.9510  29.08880
 6.9417  28.99070
 6.9324  28.93390
 6.9232  29.06320
 6.9140  29.27670
 6.9047  29.40040
 6.8956  29.45120
 6.8864  29.53720
 6.8773  29.87870
 6.8682  30.61120
 6.8591  30.80600
 6.8500  30.58490
 6.8410  30.72140
 6.8320  31.04850
 6.8230  31.25610
 6.8140  31.36120
 6.8051  31.58510
 6.7962  32.08950
 6.7873  32.39720
 6.7784  32.40780
 6.7695  32.50600
 6.7607  32.64430
 6.7519  32.94200
 6.7431  33.18970
 6.7344  33.48860
 6.7256  33.89780
 6.7169  34.27290
 6.7082  34.60830
 6.6996  34.84540
 6.6909  35.45040
 6.6823  36.22870
 6.6737  36.61940
 6.6651  37.03570
 6.6566  37.66830
 6.6480  39.01370
 6.6395  40.71230
 6.6310  41.25290
 6.6226  41.47780
 6.6141  42.13380
 6.6057  42.68760
 6.5973  43.40640
 6.5889  44.08090
 6.5805  44.80210
 6.5722  45.46470
 6.5639  45.57020
 6.5556  45.82280
 6.5473  46.04010
 6.5390  46.34080
 6.5308  46.85310
 6.5226  47.58470
 6.5144  47.81330
 6.5062  48.30450
 6.4981  49.46530
 6.4900  49.84380
 6.4818  49.51010
 6.4737  49.31910
 6.4657  49.23190
 6.4576  49.26390
 6.4496  49.22920
 6.4416  49.29380
 6.4336  49.44110
 6.4256  49.56300
 6.4177  50.07750
 6.4097  49.38400
 6.4018  47.79910
 6.3939  46.88290
 6.3860  46.07080
 6.3782  45.10810
 6.3704  43.51620
 6.3625  40.60900
 6.3547  36.91090
 6.3470  32.81150
 6.3392  28.23840
 6.3315  24.36330
 6.3237  21.17650
 6.3160  18.36790
 6.3083  16.03640
 6.3007  14.06170
 6.2930  12.19790
 6.2854  10.66790
 6.2778   9.41301
 6.2702   8.32837
 6.2626   7.41153
 6.2551   6.72848
 6.2476   6.18253
 6.2400   5.61792
 6.2325   5.13653
 6.2251   4.69456
 6.2176   4.27953
 6.2101   3.98221
 6.2027   3.69776
 6.1953   3.44492
 6.1879   3.23432
 6.1805   3.00591
 6.1732   2.73129
 6.1658   2.57999
 6.1585   2.43259
 6.1512   2.24020
 6.1439   1.94132
 6.1367   1.83625
 6.1294   1.77177
 6.1222   1.63207
 6.1149   1.59318
 6.1077   1.43098
 6.1006   1.28402
 6.0934   1.31380
 6.0862   1.38593
 6.0791   1.32489
 6.0720   1.20130
 6.0649   1.16997
 6.0578   1.14576
 6.0507   1.23147
 6.0437   1.29994
 6.0366   1.29524
 6.0296   1.17461
 6.0226   1.10816
 6.0156   1.05233
 6.0087   1.03556
 6.0017   1.13897
 5.9948   1.16210
 5.9878   1.09989
 5.9809   1.13515
 5.9740   1.18224
 5.9672   1.15901
 5.9603   1.17038
 5.9535   1.28032
 5.9466   1.45146
 5.9398   1.39818
 5.9330   1.27750
 5.9262   1.28865
 5.9195   1.38214
 5.9127   1.40757
 5.9060   1.38516
 5.8993   1.45367
 5.8926   1.42483
 5.8859   1.52577
 5.8792   1.70415
 5.8726   1.66576
 5.8659   1.59521
 5.8593   1.65086
 5.8527   1.65308
 5.8461   1.65478
 5.8395   1.68152
 5.8329   1.66125
 5.8264   1.74390
 5.8198   1.77184
 5.8133   1.74871
 5.8068   1.72934
 5.8003   1.66364
 5.7938   1.68889
 5.7874   1.75850
 5.7809   1.75868
 5.7745   1.89015
 5.7680   1.98077
 5.7616   1.93746
 5.7552   1.94028
 5.7489   1.97719
 5.7425   1.89279
 5.7361   1.89283
 5.7298   1.98764
 5.7235   1.92672
 5.7172   1.87079
 5.7109   2.01058
 5.7046   2.08023
 5.6983   2.12153
 5.6921   2.16690
 5.6858   2.13784
 5.6796   2.07062
 5.6734   2.07292
 5.6672   2.11105
 5.6610   2.11570
 5.6548   2.09923
 5.6487   2.07671
 5.6425   2.12712
 5.6364   2.15352
 5.6303   2.18228
 5.6242   2.22078
 5.6181   2.09979
 5.6120   2.04239
 5.6059   2.11900
 5.5999   2.13200
 5.5938   2.09874
 5.5878   2.09605
 5.5818   2.13642
 5.5758   2.10595
 5.5698   2.05109
 5.5638   2.01870
 5.5578   1.96154
 5.5519   1.87887
 5.5460   1.85326
 5.5400   1.81567
 5.5341   1.74908
 5.5282   1.71303
 5.5223   1.73042
 5.5164   1.75036
 5.5106   1.74513
 5.5047   1.74545
 5.4989   1.77911
 5.4931   1.75413
 5.4873   1.75067
 5.4815   1.77509
 5.4757   1.81078
 5.4699   1.84115
 5.4641   1.96079
 5.4584   2.11326
 5.4527   2.28198
 5.4469   2.43657
 5.4412   2.53631
 5.4355   2.66976
 5.4298   2.89738
 5.4241   3.07674
 5.4185   3.15622
 5.4128   3.33113
 5.4072   3.43857
 5.4015   3.55251
 5.3959   3.70990
 5.3903   3.84002
 5.3847   3.91308
 5.3791   4.02671
 5.3735   4.16895
 5.3680   4.29367
 5.3624   4.41047
 5.3569   4.52701
 5.3514   4.72273
 5.3458   4.80962
 5.3403   4.74069
 5.3348   4.78370
 5.3294   4.80824
 5.3239   4.94206
 5.3184   5.06501
 5.3130   5.11038
 5.3075   5.17566
 5.3021   5.23371
 5.2967   5.36373
 5.2913   5.48290
 5.2859   5.58395
 5.2805   5.70883
 5.2751   5.79098
 5.2698   5.91563
 5.2644   6.07100
 5.2591   6.22078
 5.2538   6.41036
 5.2485   6.60890
 5.2431   6.89315
 5.2378   7.09812
 5.2326   7.11373
 5.2273   7.20001
 5.2220   7.42903
 5.2168   7.68234
 5.2115   7.79985
 5.2063   7.90790
 5.2011   8.09397
 5.1959   8.18844
 5.1907   8.31394
 5.1855   8.50737
 5.1803   8.75627
 5.1751   8.97291
 5.1700   9.07557
 5.1648   9.17615
 5.1597   9.23402
 5.1545   9.35176
 5.1494   9.59150
 5.1443   9.77939
 5.1392   9.83059
 5.1341   9.90998
 5.1291  10.08890
 5.1240  10.21030
 5.1189  10.27220
 5.1139  10.32300
 5.1088  10.35130
 5.1038  10.43290
 5.0988  10.40230
 5.0938  10.39990
 5.0888  10.39840
 5.0838  10.19440
 5.0788   9.80739
 5.0738   9.15797
 5.0689   8.41080
 5.0639   8.02285
 5.0590   8.18745
 5.0541   8.77933
 5.0491   9.53284
 5.0442  10.19710
 5.0393  10.79080
 5.0344  11.29290
 5.0296  11.63610
 5.0247  11.86020
 5.0198  12.08370
 5.0150  12.27170
 5.0101  12.31460
 5.0053  12.33830
 5.0004  12.50600
 4.9956  12.69440
 4.9908  12.75590
 4.9860  12.81880
 4.9812  12.82610
 4.9765  12.82220
 4.9717  12.84420
 4.9669  12.84980
 4.9622  12.90790
 4.9574  13.05310
 4.9527  13.14810
 4.9480  13.23010
 4.9432  13.23880
 4.9385  13.17020
 4.9338  13.18210
 4.9291  13.25520
 4.9245  13.30170
 4.9198  13.31230
 4.9151  13.30050
 4.9105  13.30420
 4.9058  13.31510
 4.9012  13.31880
 4.8966  13.40010
 4.8919  13.41980
 4.8873  13.35110
 4.8827  13.30470
 4.8781  13.35840
 4.8736  13.35850
 4.8690  13.32000
 4.8644  13.34050
 4.8599  13.34120
 4.8553  13.31370
 4.8508  13.35820
 4.8462  13.30210
 4.8417  13.26960
 4.8372  13.22630
 4.8327  13.12230
 4.8282  13.14040
 4.8237  13.21510
 4.8192  13.19640
 4.8147  13.17580
 4.8103  13.19450
 4.8058  13.16810
 4.8014  13.07660
 4.7969  12.99420
 4.7925  12.94200
 4.7881  12.98590
 4.7836  12.96520
 4.7792  12.93170
 4.7748  12.91960
 4.7704  12.90950
 4.7660  12.90850
 4.7617  12.88780
 4.7573  12.71650
 4.7530  12.62020
 4.7486  12.67810
 4.7443  12.66320
 4.7399  12.53490
 4.7356  12.37100
 4.7313  12.30480
 4.7270  12.26460
 4.7226  12.16940
 4.7184  12.00890
 4.7141  11.81430
 4.7098  11.60170
 4.7055  11.39680
 4.7012  11.22620
 4.6970  10.97710
 4.6927  10.63650
 4.6885  10.29120
 4.6842   9.97423
 4.6800   9.56025
 4.6758   9.01579
 4.6716   8.46345
 4.6674   8.10983
 4.6632   7.78980
 4.6590   7.41941
 4.6548   7.15261
 4.6506   6.98097
 4.6465   6.85715
 4.6423   6.80169
 4.6382   6.76387
 4.6340   6.72216
 4.6299   6.67956
 4.6258   6.68467
 4.6216   6.67205
 4.6175   6.66347
 4.6134   6.56589
 4.6093   6.61877
 4.6052   6.80793
 4.6011   6.94816
 4.5971   7.03478
 4.5930   7.08437
 4.5889   7.29907
 4.5849   7.58341
 4.5808   7.78940
 4.5768   7.94434
 4.5727   8.10103
 4.5687   8.30407
 4.5647   8.47139
 4.5607   8.48625
 4.5567   8.64026
 4.5526   8.87306
 4.5487   9.10135
 4.5447   9.21840
 4.5407   9.23049
 4.5367   9.26770
 4.5328   9.40370
 4.5288   9.45904
 4.5248   9.55947
 4.5209   9.74773
 4.5170   9.86535
 4.5130  10.06110
 4.5091  10.36990
 4.5052  10.70630
 4.5013  10.95420
 4.4974  11.08260
 4.4935  11.19860
 4.4896  11.39540
 4.4857  11.48560
 4.4818  11.54810
 4.4779  11.46510
 4.4741  11.20120
 4.4702  10.98270
 4.4664  10.80780
 4.4625  10.66870
 4.4587  10.40840
 4.4549  10.09720
 4.4510   9.99408
 4.4472   9.91843
 4.4434   9.72822
 4.4396   9.65700
 4.4358   9.66535
 4.4320   9.63631
 4.4282   9.65512
 4.4245   9.79122
 4.4207  10.05060
 4.4169  10.27100
 4.4132  10.49480
 4.4094  10.77810
 4.4057  11.03580
 4.4019  11.11520
 4.3982  11.24510
 4.3945  11.51810
 4.3907  11.71260
 4.3870  11.88040
 4.3833  12.02240
 4.3796  12.16520
 4.3759  12.45920
 4.3722  12.65370
 4.3685  12.78450
 4.3649  12.97100
 4.3612  13.21010
 4.3575  13.37000
 4.3539  13.29270
 4.3502  13.03690
 4.3466  12.67830
 4.3429  12.26740
 4.3393  11.80880
 4.3357  11.42580
 4.3320  11.25090
 4.3284  11.16950
 4.3248  11.01790
 4.3212  10.80910
 4.3176  10.72650
 4.3140  10.57690
 4.3105  10.41860
 4.3069  10.43150
 4.3033  10.32250
 4.2997  10.27800
 4.2962  10.38830
 4.2926  10.32180
 4.2890  10.13170
 4.2855  10.03760
 4.2820  10.02230
 4.2784   9.97450
 4.2749  10.07650
 4.2714  10.22270
 4.2679  10.32930
 4.2644  10.66450
 4.2609  11.05750
 4.2574  11.12710
 4.2539  11.06620
 4.2504  10.98970
 4.2469  10.85830
 4.2434  10.72200
 4.2400  10.69310
 4.2365  10.62530
 4.2330  10.70490
 4.2296  10.78860
 4.2261  10.88710
 4.2227  10.98020
 4.2193  11.14820
 4.2158  11.26040
 4.2124  11.50420
 4.2090  11.89380
 4.2056  12.18100
 4.2022  12.42380
 4.1988  12.56780
 4.1954  12.57830
 4.1920  12.51150
 4.1886  12.54630
 4.1852  12.50380
 4.1818  12.32640
 4.1785  12.27700
 4.1751  12.31880
 4.1717  12.29370
 4.1684  12.16820
 4.1650  12.02330
 4.1617  11.89570
 4.1584  11.79060
 4.1550  11.49700
 4.1517  11.29850
 4.1484  11.22670
 4.1451  11.22990
 4.1418  11.32810
 4.1384  11.36800
 4.1351  11.36210
 4.1319  11.41490
 4.1286  11.42910
 4.1253  11.42730
 4.1220  11.45120
 4.1187  11.48820
 4.1155  11.36590
 4.1122  11.26470
 4.1089  11.18850
 4.1057  11.09750
 4.1024  10.95120
 4.0992  10.89480
 4.0959  10.84950
 4.0927  10.79730
 4.0895  10.67300
 4.0863  10.47870
 4.0830  10.23240
 4.0798  10.00250
 4.0766   9.83701
 4.0734   9.75845
 4.0702   9.64869
 4.0670   9.42400
 4.0639   9.26930
 4.0607   9.16331
 4.0575   9.01096
 4.0543   8.80548
 4.0511   8.45321
 4.0480   8.15470
 4.0448   7.95182
 4.0417   7.81479
 4.0385   7.67037
 4.0354   7.54869
 4.0323   7.22760
 4.0291   6.94116
 4.0260   6.68755
 4.0229   6.44905
 4.0197   6.20921
 4.0166   5.92405
 4.0135   5.73819
 4.0104   5.56042
 4.0073   5.31936
 4.0042   5.09188
 4.0011   4.96346
 3.9981   4.79496
 3.9950   4.70602
 3.9919   4.62709
 3.9888   4.54003
 3.9857   4.44672
 3.9827   4.27225
 3.9796   4.02767
 3.9766   3.79019
 3.9735   3.54682
 3.9705   3.47067
 3.9675   3.52859
 3.9644   3.54813
 3.9614   3.42407
 3.9584   3.37316
 3.9554   3.52458
 3.9523   3.59130
 3.9493   3.61303
 3.9463   3.61631
 3.9433   3.49096
 3.9403   3.35386
 3.9373   3.42452
 3.9343   3.54690
 3.9314   3.64162
 3.9284   3.57537
 3.9254   3.41186
 3.9224   3.40753
 3.9195   3.57705
 3.9165   3.71603
 3.9136   3.71019
 3.9106   3.65582
 3.9077   3.59640
 3.9047   3.66252
 3.9018   3.88120
 3.8988   3.96046
 3.8959   3.93428
 3.8930   4.07574
 3.8901   4.21693
 3.8872   4.25354
 3.8842   4.16675
 3.8813   4.04195
 3.8784   4.04292
 3.8755   4.06482
 3.8726   4.17538
 3.8697   4.25615
 3.8669   4.40483
 3.8640   4.46688
 3.8611   4.46084
 3.8582   4.42857
 3.8554   4.44485
 3.8525   4.64932
 3.8496   5.02803
 3.8468   5.24850
 3.8439   5.29295
 3.8411   5.33880
 3.8382   5.32537
