Name: Nepheline-Sodalite Syenite
Type: Rock
Class: Igneous
Subclass:  Alkalic
Particle Size: Solid surface
Sample No.: Ward23.txt
Owner: JPL
Wavelength range:  VNIR SWIR IR
Origin: Ward's Collection of American Rocks.  Sample locality - Near Red Hill, Carroll County, New Hampshire.
Collected by:  Ward's Natural Science
Description: A gray granular rock composed of feldspar showing twinning,
nepheline, sodalite and hornblende.  The sodalite is grayish to bluish-
gray and can easily be distinguised in the hand specimen by its orange 
fluorscence in ultra-violet light. 
Geologic age - Late Devonian or late Carboniferous.

Measurement: Hemispherical reflectance
First Column: X
Second Column: Y
X Units: Wavelength (micrometers)
Y Units: Reflectance (percent)
First X Value: 2.500
Last X Value: 0.400
Number of X Values: 2101
Additional information: None

2.500  16.446728
2.499  16.711092
2.498  16.388591
2.497  16.728530
2.496  16.215442
2.495  16.829161
2.494  16.560832
2.493  16.536080
2.492  16.520890
2.491  16.693672
2.490  16.677005
2.489  16.684901
2.488  16.617496
2.487  16.699770
2.486  16.629424
2.485  16.894435
2.484  16.730647
2.483  17.010148
2.482  16.731537
2.481  16.938339
2.480  16.871169
2.479  16.920094
2.478  16.841529
2.477  17.033283
2.476  16.942738
2.475  16.993303
2.474  17.010012
2.473  17.001931
2.472  16.998978
2.471  17.147660
2.470  17.122320
2.469  17.145904
2.468  17.052231
2.467  17.341860
2.466  17.080111
2.465  17.219688
2.464  17.183284
2.463  17.454195
2.462  17.247485
2.461  17.392331
2.460  17.373735
2.459  17.513383
2.458  17.463926
2.457  17.513993
2.456  17.450393
2.455  17.577526
2.454  17.457442
2.453  17.668753
2.452  17.611699
2.451  17.636045
2.450  17.677859
2.449  17.791323
2.448  17.792719
2.447  17.881560
2.446  17.801551
2.445  17.865116
2.444  17.871434
2.443  18.079803
2.442  17.909563
2.441  18.047274
2.440  18.017528
2.439  18.101281
2.438  17.944605
2.437  18.120712
2.436  18.046481
2.435  18.282227
2.434  18.117392
2.433  18.211827
2.432  18.247093
2.431  18.346364
2.430  18.317010
2.429  18.436455
2.428  18.307218
2.427  18.549070
2.426  18.389650
2.425  18.523258
2.424  18.484908
2.423  18.656012
2.422  18.538973
2.421  18.648356
2.420  18.599252
2.419  18.704586
2.418  18.707402
2.417  18.857370
2.416  18.757433
2.415  18.841140
2.414  18.795095
2.413  18.906724
2.412  18.887559
2.411  18.985080
2.410  19.012099
2.409  19.065602
2.408  19.013363
2.407  19.101866
2.406  19.100142
2.405  19.196986
2.404  19.155431
2.403  19.168662
2.402  19.232442
2.401  19.310060
2.400  19.245130
2.399  19.354294
2.398  19.356600
2.397  19.367825
2.396  19.349725
2.395  19.409195
2.394  19.362580
2.393  19.452103
2.392  19.474544
2.391  19.516794
2.390  19.516821
2.389  19.606016
2.388  19.567496
2.387  19.662542
2.386  19.655036
2.385  19.676069
2.384  19.734550
2.383  19.760794
2.382  19.679387
2.381  19.795238
2.380  19.842422
2.379  19.812146
2.378  19.793323
2.377  19.877879
2.376  19.850835
2.375  19.879872
2.374  19.932358
2.373  19.932237
2.372  19.954184
2.371  19.979587
2.370  19.972498
2.369  19.991423
2.368  20.015040
2.367  20.018333
2.366  20.025673
2.365  20.081843
2.364  20.051469
2.363  20.065495
2.362  20.125347
2.361  20.100217
2.360  20.087786
2.359  20.173963
2.358  20.225663
2.357  20.173016
2.356  20.133105
2.355  20.206314
2.354  20.264502
2.353  20.257221
2.352  20.270353
2.351  20.249243
2.350  20.270385
2.349  20.315240
2.348  20.273650
2.347  20.279096
2.346  20.305008
2.345  20.320651
2.344  20.342835
2.343  20.315878
2.342  20.344456
2.341  20.304998
2.340  20.347968
2.339  20.366025
2.338  20.363586
2.337  20.389646
2.336  20.409306
2.335  20.413793
2.334  20.440618
2.333  20.437385
2.332  20.498270
2.331  20.499103
2.330  20.538847
2.329  20.503966
2.328  20.541656
2.327  20.555230
2.326  20.573839
2.325  20.523197
2.324  20.581890
2.323  20.586931
2.322  20.616498
2.321  20.592318
2.320  20.634159
2.319  20.634652
2.318  20.680104
2.317  20.639929
2.316  20.726527
2.315  20.631933
2.314  20.688048
2.313  20.691904
2.312  20.736120
2.311  20.740548
2.310  20.794651
2.309  20.767394
2.308  20.752150
2.307  20.673399
2.306  20.785384
2.305  20.793112
2.304  20.837286
2.303  20.832079
2.302  20.781605
2.301  20.779268
2.300  20.852464
2.299  20.834343
2.298  20.871556
2.297  20.782175
2.296  20.828495
2.295  20.847679
2.294  20.894785
2.293  20.784406
2.292  20.906573
2.291  20.835394
2.290  20.881023
2.289  20.889380
2.288  20.877837
2.287  20.848933
2.286  20.894815
2.285  20.865431
2.284  20.879716
2.283  20.842416
2.282  20.895294
2.281  20.865735
2.280  20.877000
2.279  20.852069
2.278  20.847525
2.277  20.857128
2.276  20.933528
2.275  20.844508
2.274  20.940578
2.273  20.808264
2.272  20.966181
2.271  20.823242
2.270  20.926868
2.269  20.806597
2.268  20.886135
2.267  20.812867
2.266  20.905084
2.265  20.832474
2.264  20.872878
2.263  20.773436
2.262  20.827050
2.261  20.763034
2.260  20.897576
2.259  20.807664
2.258  20.840706
2.257  20.765207
2.256  20.856254
2.255  20.729206
2.254  20.875406
2.253  20.817755
2.252  20.769648
2.251  20.830925
2.250  20.815742
2.249  20.810561
2.248  20.828528
2.247  20.805731
2.246  20.783397
2.245  20.773209
2.244  20.894576
2.243  20.791627
2.242  20.803749
2.241  20.774526
2.240  20.851708
2.239  20.775497
2.238  20.903811
2.237  20.689235
2.236  20.882466
2.235  20.805412
2.234  20.894391
2.233  20.764018
2.232  20.829604
2.231  20.823964
2.230  20.744381
2.229  20.777769
2.228  20.816216
2.227  20.748539
2.226  20.808924
2.225  20.681183
2.224  20.796346
2.223  20.741143
2.222  20.837473
2.221  20.679422
2.220  20.815163
2.219  20.779077
2.218  20.782818
2.217  20.737208
2.216  20.835441
2.215  20.653595
2.214  20.732557
2.213  20.664586
2.212  20.869418
2.211  20.550840
2.210  20.731985
2.209  20.599060
2.208  20.740980
2.207  20.614750
2.206  20.680236
2.205  20.569653
2.204  20.631346
2.203  20.570185
2.202  20.610271
2.201  20.478381
2.200  20.601279
2.199  20.453890
2.198  20.574978
2.197  20.432564
2.196  20.580202
2.195  20.427723
2.194  20.571896
2.193  20.489624
2.192  20.546044
2.191  20.515432
2.190  20.546908
2.189  20.483858
2.188  20.589045
2.187  20.548863
2.186  20.711490
2.185  20.561021
2.184  20.703931
2.183  20.659516
2.182  20.717805
2.181  20.629908
2.180  20.741279
2.179  20.626100
2.178  20.802385
2.177  20.728928
2.176  20.850926
2.175  20.813155
2.174  20.842675
2.173  20.840660
2.172  20.924006
2.171  20.811588
2.170  20.894820
2.169  20.828715
2.168  20.921812
2.167  20.875522
2.166  21.011338
2.165  21.043629
2.164  20.982439
2.163  21.016942
2.162  21.034104
2.161  20.994332
2.160  21.059767
2.159  20.990087
2.158  21.082778
2.157  21.053631
2.156  21.079022
2.155  20.928545
2.154  21.078134
2.153  21.038343
2.152  21.099000
2.151  21.096812
2.150  21.095846
2.149  21.024288
2.148  21.061111
2.147  21.039064
2.146  21.094107
2.145  21.009447
2.144  21.108527
2.143  21.036280
2.142  21.050089
2.141  21.022658
2.140  21.067607
2.139  21.017778
2.138  21.019034
2.137  20.989682
2.136  20.999146
2.135  21.013256
2.134  20.984018
2.133  21.036169
2.132  20.980638
2.131  20.848680
2.130  20.910980
2.129  20.955333
2.128  20.939032
2.127  20.811806
2.126  20.857806
2.125  20.841081
2.124  20.889023
2.123  20.843763
2.122  20.802448
2.121  20.786601
2.120  20.813698
2.119  20.721312
2.118  20.757584
2.117  20.745741
2.116  20.745015
2.115  20.695094
2.114  20.698941
2.113  20.666883
2.112  20.640538
2.111  20.667361
2.110  20.698532
2.109  20.602877
2.108  20.607546
2.107  20.532571
2.106  20.606026
2.105  20.574277
2.104  20.526811
2.103  20.468975
2.102  20.453809
2.101  20.473606
2.100  20.537196
2.099  20.482885
2.098  20.427440
2.097  20.431535
2.096  20.419427
2.095  20.455472
2.094  20.502869
2.093  20.413616
2.092  20.434782
2.091  20.403984
2.090  20.434891
2.089  20.429575
2.088  20.411215
2.087  20.432351
2.086  20.450304
2.085  20.421467
2.084  20.412602
2.083  20.379174
2.082  20.394615
2.081  20.386563
2.080  20.374130
2.079  20.333195
2.078  20.316703
2.077  20.364526
2.076  20.369860
2.075  20.361988
2.074  20.352988
2.073  20.306887
2.072  20.310647
2.071  20.308482
2.070  20.286738
2.069  20.308462
2.068  20.274714
2.067  20.289502
2.066  20.314985
2.065  20.268567
2.064  20.270856
2.063  20.234045
2.062  20.208324
2.061  20.231978
2.060  20.232191
2.059  20.239215
2.058  20.214353
2.057  20.258273
2.056  20.221764
2.055  20.240102
2.054  20.224097
2.053  20.183173
2.052  20.178815
2.051  20.176791
2.050  20.180081
2.049  20.176892
2.048  20.128841
2.047  20.165948
2.046  20.179400
2.045  20.183662
2.044  20.094099
2.043  20.125964
2.042  20.120969
2.041  20.069538
2.040  20.001181
2.039  20.062038
2.038  20.059184
2.037  20.021605
2.036  20.008465
2.035  20.033238
2.034  19.998909
2.033  20.033142
2.032  19.986607
2.031  19.970785
2.030  19.963541
2.029  19.913773
2.028  19.884211
2.027  19.934816
2.026  19.874690
2.025  19.887252
2.024  19.810325
2.023  19.837473
2.022  19.837574
2.021  19.863258
2.020  19.819819
2.019  19.822801
2.018  19.788866
2.017  19.770460
2.016  19.728330
2.015  19.732780
2.014  19.632569
2.013  19.742302
2.012  19.659946
2.011  19.726472
2.010  19.627130
2.009  19.682666
2.008  19.590173
2.007  19.584841
2.006  19.593108
2.005  19.616773
2.004  19.539966
2.003  19.568298
2.002  19.479896
2.001  19.477996
2.000  19.456611
1.999  19.426652
1.998  19.419161
1.997  19.472650
1.996  19.371017
1.995  19.418478
1.994  19.329317
1.993  19.345846
1.992  19.288920
1.991  19.307190
1.990  19.239463
1.989  19.255417
1.988  19.155897
1.987  19.177031
1.986  19.124051
1.985  19.136964
1.984  19.071977
1.983  19.068537
1.982  18.974877
1.981  19.054535
1.980  18.822300
1.979  18.965448
1.978  18.890114
1.977  18.948839
1.976  18.835931
1.975  18.912931
1.974  18.797274
1.973  18.855474
1.972  18.775547
1.971  18.740244
1.970  18.715253
1.969  18.712878
1.968  18.672549
1.967  18.697075
1.966  18.621048
1.965  18.632114
1.964  18.515903
1.963  18.555864
1.962  18.485324
1.961  18.572614
1.960  18.373440
1.959  18.526037
1.958  18.426874
1.957  18.458022
1.956  18.285934
1.955  18.327344
1.954  18.273519
1.953  18.324852
1.952  18.237495
1.951  18.267575
1.950  18.176372
1.949  18.300233
1.948  18.144187
1.947  18.167500
1.946  18.102447
1.945  18.105378
1.944  18.035782
1.943  18.119814
1.942  17.972918
1.941  18.008867
1.940  17.946445
1.939  18.014334
1.938  17.844896
1.937  17.890197
1.936  17.884012
1.935  17.864449
1.934  17.817132
1.933  17.869030
1.932  17.684127
1.931  17.847363
1.930  17.631002
1.929  17.685069
1.928  17.573427
1.927  17.742864
1.926  17.413829
1.925  17.643266
1.924  17.373829
1.923  17.495504
1.922  17.333514
1.921  17.374131
1.920  17.273917
1.919  17.310723
1.918  17.259148
1.917  17.240914
1.916  17.149309
1.915  17.201364
1.914  17.164782
1.913  17.230944
1.912  17.298793
1.911  17.286184
1.910  17.299625
1.909  17.488414
1.908  17.457862
1.907  17.698947
1.906  17.763964
1.905  17.972826
1.904  18.078994
1.903  18.305017
1.902  18.438447
1.901  18.733927
1.900  18.837375
1.899  19.039610
1.898  19.064648
1.897  19.305216
1.896  19.363307
1.895  19.572992
1.894  19.541164
1.893  19.677901
1.892  19.762954
1.891  19.866911
1.890  19.971795
1.889  20.105591
1.888  20.103579
1.887  20.300530
1.886  20.291827
1.885  20.417000
1.884  20.438136
1.883  20.562392
1.882  20.527663
1.881  20.716992
1.880  20.657717
1.879  20.811947
1.878  20.693733
1.877  20.828639
1.876  20.735050
1.875  20.897533
1.874  20.893580
1.873  20.979630
1.872  21.023573
1.871  21.186821
1.870  21.151370
1.869  21.176253
1.868  21.252376
1.867  21.356704
1.866  21.317679
1.865  21.344288
1.864  21.347179
1.863  21.346679
1.862  21.307826
1.861  21.324252
1.860  21.250527
1.859  21.334183
1.858  21.283622
1.857  21.344235
1.856  21.350672
1.855  21.325100
1.854  21.321846
1.853  21.360763
1.852  21.313572
1.851  21.367060
1.850  21.383966
1.849  21.405305
1.848  21.379170
1.847  21.382163
1.846  21.360847
1.845  21.448337
1.844  21.375928
1.843  21.421256
1.842  21.366815
1.841  21.361311
1.840  21.341077
1.839  21.399941
1.838  21.404240
1.837  21.439191
1.836  21.388810
1.835  21.470623
1.834  21.451645
1.833  21.442878
1.832  21.384207
1.831  21.412976
1.830  21.345223
1.829  21.360633
1.828  21.368473
1.827  21.384998
1.826  21.374230
1.825  21.398172
1.824  21.376856
1.823  21.444195
1.822  21.431034
1.821  21.363832
1.820  21.319612
1.819  21.360433
1.818  21.322816
1.817  21.366860
1.816  21.391200
1.815  21.397895
1.814  21.329004
1.813  21.381421
1.812  21.367796
1.811  21.368187
1.810  21.330546
1.809  21.347612
1.808  21.361530
1.807  21.364989
1.806  21.341854
1.805  21.372856
1.804  21.344008
1.803  21.313137
1.802  21.281020
1.801  21.360470
1.800  21.353680
1.799  21.286898
1.798  21.256307
1.797  21.331456
1.796  21.343472
1.795  21.347496
1.794  21.347984
1.793  21.341941
1.792  21.331726
1.791  21.330120
1.790  21.351380
1.789  21.317557
1.788  21.302784
1.787  21.330258
1.786  21.311525
1.785  21.280815
1.784  21.260892
1.783  21.288087
1.782  21.305971
1.781  21.318404
1.780  21.309276
1.779  21.267533
1.778  21.297320
1.777  21.320656
1.776  21.324516
1.775  21.307523
1.774  21.357175
1.773  21.390306
1.772  21.347473
1.771  21.362662
1.770  21.386386
1.769  21.354470
1.768  21.347756
1.767  21.321093
1.766  21.368403
1.765  21.383483
1.764  21.385327
1.763  21.342678
1.762  21.369212
1.761  21.316965
1.760  21.364153
1.759  21.342398
1.758  21.313587
1.757  21.319865
1.756  21.343869
1.755  21.355240
1.754  21.424457
1.753  21.364419
1.752  21.336392
1.751  21.325410
1.750  21.383939
1.749  21.363377
1.748  21.444899
1.747  21.400098
1.746  21.389102
1.745  21.365148
1.744  21.435533
1.743  21.406439
1.742  21.424619
1.741  21.336207
1.740  21.387103
1.739  21.387173
1.738  21.414979
1.737  21.387755
1.736  21.432171
1.735  21.401508
1.734  21.406783
1.733  21.404176
1.732  21.469749
1.731  21.409052
1.730  21.411921
1.729  21.458786
1.728  21.512560
1.727  21.458106
1.726  21.467661
1.725  21.410509
1.724  21.429519
1.723  21.443122
1.722  21.476653
1.721  21.405104
1.720  21.406500
1.719  21.462968
1.718  21.432307
1.717  21.439463
1.716  21.476320
1.715  21.463340
1.714  21.487895
1.713  21.416662
1.712  21.498244
1.711  21.399621
1.710  21.483639
1.709  21.406994
1.708  21.430032
1.707  21.413253
1.706  21.447459
1.705  21.389031
1.704  21.447042
1.703  21.427400
1.702  21.502218
1.701  21.424970
1.700  21.486086
1.699  21.321563
1.698  21.477603
1.697  21.455703
1.696  21.507107
1.695  21.465493
1.694  21.450843
1.693  21.472759
1.692  21.477206
1.691  21.434258
1.690  21.439817
1.689  21.469782
1.688  21.514873
1.687  21.335531
1.686  21.474929
1.685  21.448475
1.684  21.478610
1.683  21.420712
1.682  21.446326
1.681  21.389981
1.680  21.397064
1.679  21.353953
1.678  21.477168
1.677  21.349636
1.676  21.459862
1.675  21.367957
1.674  21.471096
1.673  21.358590
1.672  21.492741
1.671  21.320858
1.670  21.451781
1.669  21.560848
1.668  21.331732
1.667  21.447557
1.666  21.356484
1.665  21.394499
1.664  21.491669
1.663  21.330912
1.662  21.399526
1.661  21.336608
1.660  21.512038
1.659  21.395333
1.658  21.427450
1.657  21.399219
1.656  21.448661
1.655  21.341125
1.654  21.506255
1.653  21.386757
1.652  21.416485
1.651  21.355277
1.650  21.467753
1.649  21.300104
1.648  21.457302
1.647  21.352072
1.646  21.370744
1.645  21.385503
1.644  21.386054
1.643  21.373120
1.642  21.464156
1.641  21.245980
1.640  21.531711
1.639  21.401673
1.638  21.396173
1.637  21.332036
1.636  21.390211
1.635  21.356440
1.634  21.415709
1.633  21.373679
1.632  21.429302
1.631  21.335849
1.630  21.515943
1.629  21.315720
1.628  21.419729
1.627  21.319262
1.626  21.380707
1.625  21.379919
1.624  21.399497
1.623  21.335452
1.622  21.445642
1.621  21.287012
1.620  21.437293
1.619  21.290557
1.618  21.449419
1.617  21.314690
1.616  21.385338
1.615  21.349127
1.614  21.438558
1.613  21.325948
1.612  21.411868
1.611  21.380989
1.610  21.389906
1.609  21.320246
1.608  21.446356
1.607  21.351119
1.606  21.425351
1.605  21.350478
1.604  21.385008
1.603  21.297985
1.602  21.412268
1.601  21.270646
1.600  21.410086
1.599  21.323206
1.598  21.351323
1.597  21.280861
1.596  21.412516
1.595  21.354709
1.594  21.358509
1.593  21.239866
1.592  21.391055
1.591  21.306206
1.590  21.430828
1.589  21.302741
1.588  21.281914
1.587  21.294237
1.586  21.353523
1.585  21.296000
1.584  21.294450
1.583  21.324095
1.582  21.301832
1.581  21.253255
1.580  21.354052
1.579  21.322020
1.578  21.309414
1.577  21.227706
1.576  21.282745
1.575  21.220919
1.574  21.235130
1.573  21.226261
1.572  21.293766
1.571  21.249680
1.570  21.244579
1.569  21.202913
1.568  21.271410
1.567  21.207556
1.566  21.317729
1.565  21.238619
1.564  21.248522
1.563  21.249128
1.562  21.261226
1.561  21.256072
1.560  21.293940
1.559  21.195539
1.558  21.196701
1.557  21.221725
1.556  21.201053
1.555  21.150232
1.554  21.230702
1.553  21.202450
1.552  21.201068
1.551  21.109056
1.550  21.176727
1.549  21.139638
1.548  21.184873
1.547  21.157279
1.546  21.205851
1.545  21.185618
1.544  21.184563
1.543  21.129677
1.542  21.139537
1.541  21.088751
1.540  21.130511
1.539  21.132911
1.538  21.140417
1.537  21.070487
1.536  21.076521
1.535  21.120197
1.534  21.168330
1.533  21.068101
1.532  21.091870
1.531  21.110630
1.530  21.081670
1.529  21.094889
1.528  21.107530
1.527  21.081453
1.526  21.103957
1.525  21.069808
1.524  21.092126
1.523  21.073899
1.522  21.056245
1.521  21.068558
1.520  21.109248
1.519  21.058410
1.518  21.077050
1.517  21.073162
1.516  21.072992
1.515  21.011302
1.514  21.027012
1.513  21.035690
1.512  21.028814
1.511  20.978013
1.510  20.977304
1.509  20.943055
1.508  20.936006
1.507  20.974654
1.506  21.000830
1.505  20.949692
1.504  20.973404
1.503  21.000086
1.502  20.934647
1.501  20.922731
1.500  20.993834
1.499  20.935761
1.498  20.861233
1.497  20.911536
1.496  20.920829
1.495  20.875783
1.494  20.843565
1.493  20.848682
1.492  20.839393
1.491  20.867041
1.490  20.905192
1.489  20.856506
1.488  20.775333
1.487  20.809251
1.486  20.799268
1.485  20.826666
1.484  20.821979
1.483  20.850575
1.482  20.791160
1.481  20.786920
1.480  20.768157
1.479  20.751070
1.478  20.736982
1.477  20.776654
1.476  20.725444
1.475  20.677027
1.474  20.674744
1.473  20.716735
1.472  20.647526
1.471  20.687631
1.470  20.703091
1.469  20.662017
1.468  20.671877
1.467  20.664609
1.466  20.662959
1.465  20.706381
1.464  20.644493
1.463  20.666669
1.462  20.692476
1.461  20.643595
1.460  20.580907
1.459  20.701745
1.458  20.714126
1.457  20.706185
1.456  20.652545
1.455  20.687402
1.454  20.627837
1.453  20.663077
1.452  20.625216
1.451  20.598104
1.450  20.596985
1.449  20.571373
1.448  20.516493
1.447  20.550171
1.446  20.549276
1.445  20.565567
1.444  20.531474
1.443  20.558872
1.442  20.480824
1.441  20.588586
1.440  20.526797
