Name: Labradorite (Feldspar) (NaSi,CaAl)AlSi_2O_8
Type: Mineral
Class: Silicates
Subclass: Tectosilicates
Particle Size: 125-500um
Sample No.: TS-2B
Owner: JPL
Wavelength range: IR
Origin: Canada, Quebec, Lake St. John
Collected by Ward's
Description:   





Measurement: Hemispherical reflectance
First Column: X
Second Column: Y
X Units:  Wavelength (micrometers)
Y Units:  Reflectance (percent)
First X Value: 15.3853
Last X Value: 2.00032
Number of X Values: 2256
Additional information: ts02ba.txt
 
15.3853	4.31651
15.3397	3.75754
15.2945	3.23189
15.2495	2.59756
15.2048	2.36823
15.1603	2.48653
15.1161	2.44976
15.0722	2.3038
15.0285	2.04003
14.9851	2.13558
14.9419	2.34474
14.8989	2.1906
14.8563	2.09707
14.8138	2.13771
14.7716	2.26411
14.7296	2.3033
14.6879	2.29812
14.6464	2.38888
14.6052	2.42611
14.5641	2.53978
14.5233	2.46024
14.4828	2.40998
14.4424	2.61931
14.4023	2.62437
14.3624	2.64062
14.3227	2.71302
14.2833	2.78824
14.244	2.89123
14.205	2.82002
14.1662	2.78961
14.1276	2.86709
14.0892	3.00138
14.051	3.14836
14.0131	3.15613
13.9753	3.15223
13.9377	3.04782
13.9004	3.04857
13.8632	3.30768
13.8262	3.34054
13.7895	3.3032
13.7529	3.37617
13.7165	3.28599
13.6803	3.36852
13.6443	3.46223
13.6085	3.16348
13.5729	3.13946
13.5374	3.53309
13.5022	3.75346
13.4671	3.75294
13.4322	3.74849
13.3975	3.8039
13.363	3.69579
13.3286	3.59046
13.2944	3.52199
13.2604	3.46729
13.2266	3.41311
13.193	3.28561
13.1595	3.17444
13.1262	3.26396
13.093	3.21255
13.06	3.1282
13.0272	3.14166
12.9946	3.11385
12.9621	3.15757
12.9298	3.14365
12.8976	3.06653
12.8656	3.06714
12.8337	3.05272
12.8021	2.97597
12.7705	2.83007
12.7391	2.75966
12.7079	2.71817
12.6769	2.7355
12.6459	2.93309
12.6152	2.92701
12.5845	2.89367
12.5541	2.95408
12.5238	2.89549
12.4936	2.79241
12.4635	2.87964
12.4337	3.0305
12.4039	3.10771
12.3743	3.15814
12.3448	3.26592
12.3155	3.3436
12.2863	3.32614
12.2573	3.35291
12.2284	3.51672
12.1996	3.55013
12.171	3.58571
12.1425	3.86267
12.1141	4.04115
12.0859	3.99627
12.0578	4.03173
12.0298	4.22875
12.0019	4.38116
11.9742	4.29752
11.9466	4.31854
11.9192	4.51236
11.8918	4.61386
11.8646	4.66586
11.8375	4.67564
11.8106	4.81612
11.7837	4.88473
11.757	4.95331
11.7304	5.06163
11.7039	5.07753
11.6776	5.18622
11.6513	5.31228
11.6252	5.44659
11.5992	5.45552
11.5733	5.50442
11.5475	5.62603
11.5219	5.71803
11.4963	5.77287
11.4709	5.97368
11.4455	6.27033
11.4203	6.43127
11.3952	6.47549
11.3702	6.60975
11.3454	6.84704
11.3206	7.04656
11.2959	7.17737
11.2714	7.28327
11.2469	7.47334
11.2226	7.76986
11.1983	8.04476
11.1742	8.29113
11.1502	8.52446
11.1263	8.68139
11.1024	8.81239
11.0787	8.95006
11.0551	9.24996
11.0316	9.42141
11.0081	9.64254
10.9848	10.0326
10.9616	10.2225
10.9385	10.3967
10.9154	10.5543
10.8925	10.6506
10.8697	10.8365
10.8469	11.0573
10.8243	11.1705
10.8017	11.2649
10.7793	11.3602
10.7569	11.4037
10.7346	11.714
10.7125	11.786
10.6904	11.7886
10.6684	11.8246
10.6465	11.9184
10.6247	12.0699
10.6029	12.1841
10.5813	12.3618
10.5597	12.4759
10.5383	12.5708
10.5169	12.6643
10.4956	12.6817
10.4744	12.6002
10.4533	12.5701
10.4323	12.5876
10.4113	12.5864
10.3904	12.4926
10.3697	12.3844
10.349	12.2895
10.3284	12.3437
10.3078	12.418
10.2874	12.3406
10.267	12.1938
10.2467	12.1884
10.2265	12.4176
10.2064	12.5913
10.1863	12.5964
10.1663	12.5889
10.1464	12.7236
10.1266	12.8443
10.1069	12.9843
10.0872	13.2024
10.0676	13.5009
10.0481	13.7197
10.0287	13.8728
10.0093	13.8594
9.99005	13.8346
9.97084	13.884
9.95169	13.867
9.93263	13.7916
9.91364	13.8149
9.89472	13.8539
9.87587	13.7001
9.8571	13.43
9.83839	13.2308
9.81976	13.2207
9.80119	13.0765
9.78271	12.8248
9.76428	12.605
9.74592	12.5481
9.72764	12.4978
9.70943	12.4258
9.69128	12.4333
9.6732	12.2939
9.65518	12.0391
9.63724	11.8779
9.61935	11.6913
9.60155	11.4565
9.5838	11.2345
9.56611	10.9751
9.5485	10.8355
9.53094	10.6242
9.51345	10.2236
9.49604	9.87655
9.47867	9.62061
9.46137	9.37184
9.44414	9.19139
9.42697	9.04087
9.40986	8.73314
9.39281	8.34491
9.37583	8.13646
9.35891	8.04683
9.34204	7.93766
9.32524	7.70469
9.3085	7.56298
9.29182	7.54512
9.27519	7.35276
9.25863	7.22653
9.24213	7.28287
9.22568	7.25847
9.2093	7.20662
9.19297	7.19797
9.17669	7.41484
9.16048	7.59727
9.14433	7.60182
9.12823	7.78226
9.11218	8.03913
9.0962	8.15425
9.08027	8.15982
9.06439	8.29567
9.04858	8.50192
9.03281	8.66558
9.0171	8.907
9.00145	9.0422
8.98585	9.10374
8.9703	9.38331
8.9548	9.49408
8.93937	9.48486
8.92398	9.54957
8.90865	9.67292
8.89337	9.76618
8.87814	9.88703
8.86296	10.0716
8.84784	10.2831
8.83277	10.343
8.81774	10.2948
8.80277	10.3097
8.78786	10.5594
8.77298	10.7162
8.75816	10.6709
8.7434	10.5896
8.72868	10.5659
8.714	10.5828
8.69938	10.5232
8.68481	10.4037
8.67029	10.3496
8.65581	10.2572
8.64139	10.145
8.62701	9.96547
8.61268	9.90999
8.5984	9.80631
8.58416	9.71315
8.56997	9.62282
8.55583	9.47239
8.54174	9.49388
8.52769	9.501
8.51368	9.39598
8.49973	9.27698
8.48582	9.18862
8.47195	9.10735
8.45813	9.12584
8.44436	9.06426
8.43062	8.92983
8.41693	8.76007
8.4033	8.62722
8.3897	8.4595
8.37614	8.22688
8.36264	7.99918
8.34917	7.70441
8.33574	7.15666
8.32236	6.69014
8.30903	6.26429
8.29573	5.72386
8.28248	5.07276
8.26927	4.50181
8.2561	3.96526
8.24298	3.41019
8.2299	2.91134
8.21685	2.44421
8.20385	2.10806
8.19089	1.7882
8.17797	1.50802
8.16509	1.36331
8.15225	1.23012
8.13946	1.11317
8.1267	0.965462
8.11398	0.845645
8.10131	0.745153
8.08867	0.628575
8.07606	0.637519
8.0635	0.716532
8.05099	0.5937
8.0385	0.505223
8.02606	0.530959
8.01366	0.461662
8.00129	0.429235
7.98896	0.521358
7.97667	0.567812
7.96442	0.485599
7.9522	0.504359
7.94002	0.439874
7.92788	0.344387
7.91578	0.430705
7.90371	0.525976
7.89168	0.553136
7.87969	0.508685
7.86773	0.448867
7.85581	0.454458
7.84392	0.496486
7.83207	0.514924
7.82026	0.589537
7.80849	0.671588
7.79674	0.687711
7.78503	0.60917
7.77337	0.535624
7.76173	0.518226
7.75012	0.586928
7.73856	0.555337
7.72703	0.502424
7.71553	0.559971
7.70406	0.676354
7.69263	0.746077
7.68123	0.764786
7.66987	0.74015
7.65855	0.759486
7.64725	0.732325
7.63598	0.652881
7.62475	0.724967
7.61356	0.781157
7.60239	0.719024
7.59126	0.723344
7.58017	0.833958
7.5691	0.834457
7.55806	0.714933
7.54707	0.713122
7.5361	0.807682
7.52516	0.858513
7.51425	0.86847
7.50338	0.837394
7.49253	0.862227
7.48172	0.925955
7.47094	0.974568
7.46019	0.931629
7.44947	0.917764
7.43879	1.00082
7.42813	1.02486
7.4175	1.04465
7.4069	1.02323
7.39634	1.00441
7.3858	1.08378
7.37529	1.11599
7.36482	1.06861
7.35437	1.06142
7.34396	1.13643
7.33357	1.13159
7.32321	1.14395
7.31288	1.12225
7.30258	1.10769
7.29231	1.15007
7.28207	1.13304
7.27185	1.10234
7.26167	1.14995
7.25152	1.1977
7.24139	1.16677
7.23129	1.15805
7.22122	1.26571
7.21117	1.31207
7.20116	1.30987
7.19117	1.28723
7.18121	1.30067
7.17128	1.20686
7.16137	1.22322
7.1515	1.3341
7.14164	1.38977
7.13182	1.40251
7.12203	1.37492
7.11225	1.32458
7.10251	1.35323
7.0928	1.39564
7.08311	1.40444
7.07344	1.37061
7.06381	1.41461
7.0542	1.39808
7.04461	1.42124
7.03506	1.5305
7.02552	1.53521
7.01601	1.51246
7.00653	1.47133
6.99708	1.46393
6.98765	1.49341
6.97824	1.51599
6.96886	1.56136
6.95951	1.50966
6.95018	1.47857
6.94087	1.54817
6.9316	1.57586
6.92234	1.50422
6.91311	1.51393
6.90391	1.47097
6.89473	1.45432
6.88557	1.52718
6.87644	1.59882
6.86733	1.66064
6.85824	1.70311
6.84918	1.67337
6.84015	1.72011
6.83114	1.75733
6.82215	1.68128
6.81319	1.60457
6.80424	1.64646
6.79532	1.67944
6.78643	1.63948
6.77756	1.63033
6.76871	1.64959
6.75989	1.73171
6.75109	1.72153
6.74231	1.69884
6.73355	1.72173
6.72482	1.76737
6.71611	1.7644
6.70742	1.69343
6.69875	1.65835
6.69011	1.79012
6.68149	1.8723
6.67289	1.79085
6.66431	1.75036
6.65576	1.82262
6.64722	1.848
6.63871	1.86845
6.63022	1.84537
6.62175	1.83437
6.61331	1.84092
6.60488	1.7846
6.59648	1.78059
6.5881	1.84593
6.57974	1.88366
6.5714	1.8777
6.56308	1.86752
6.55478	1.80312
6.54651	1.88952
6.53825	1.97378
6.53001	1.91329
6.5218	1.86619
6.51361	1.88193
6.50544	1.96486
6.49729	1.98135
6.48915	1.95104
6.48104	1.85485
6.47295	1.8678
6.46488	1.90974
6.45683	1.89909
6.4488	1.87931
6.44079	1.91658
6.4328	1.91815
6.42482	1.9236
6.41687	2.05436
6.40894	2.06294
6.40103	1.98292
6.39314	1.87118
6.38526	1.82876
6.37741	1.80595
6.36957	1.83705
6.36176	1.86303
6.35396	1.84929
6.34618	1.85816
6.33843	1.74914
6.33069	1.76069
6.32297	1.83915
6.31527	1.84757
6.30758	1.86378
6.29992	1.84612
6.29227	1.72905
6.28465	1.77458
6.27704	1.84196
6.26945	1.76039
6.26188	1.70642
6.25432	1.81356
6.24679	1.87773
6.23927	1.84315
6.23177	1.84646
6.22429	1.87665
6.21683	1.91926
6.20938	1.87983
6.20195	1.75629
6.19454	1.7164
6.18715	1.80265
6.17978	1.86875
6.17242	1.85527
6.16508	1.80113
6.15776	1.74232
6.15045	1.69843
6.14317	1.86186
6.1359	1.90385
6.12864	1.82022
6.12141	1.85874
6.11419	1.93424
6.10699	1.9322
6.0998	1.90496
6.09263	1.85878
6.08549	1.87178
6.07835	1.91636
6.07123	1.9019
6.06413	1.88771
6.05705	1.85387
6.04998	1.83339
6.04293	1.89037
6.0359	1.91632
6.02888	1.91132
6.02187	1.86319
6.01489	1.82508
6.00792	1.86402
6.00096	1.95437
5.99403	1.9638
5.98711	1.90111
5.9802	1.94864
5.97331	1.96411
5.96644	1.92919
5.95958	1.89666
5.95274	1.92733
5.94591	1.95459
5.9391	2.00548
5.9323	2.05983
5.92552	2.07756
5.91876	2.02078
5.91201	2.04058
5.90528	2.05643
5.89856	2.07855
5.89186	2.12616
5.88517	2.19502
5.8785	2.158
5.87184	2.07758
5.8652	2.12662
5.85857	2.17518
5.85196	2.21214
5.84536	2.22899
5.83878	2.14416
5.83221	2.17547
5.82566	2.27721
5.81912	2.2123
5.81259	2.12572
5.80608	2.10842
5.79959	2.09452
5.79311	2.18575
5.78665	2.28285
5.78019	2.25266
5.77376	2.19698
5.76734	2.24896
5.76093	2.28358
5.75453	2.25896
5.74815	2.26826
5.74179	2.26802
5.73543	2.32766
5.7291	2.39808
5.72277	2.36976
5.71646	2.33742
5.71017	2.29582
5.70389	2.28663
5.69762	2.33989
5.69136	2.41056
5.68513	2.42884
5.6789	2.42682
5.67268	2.39942
5.66648	2.38264
5.6603	2.38979
5.65413	2.36716
5.64797	2.34732
5.64182	2.34482
5.63569	2.44709
5.62957	2.5641
5.62347	2.5265
5.61737	2.59028
5.61129	2.58635
5.60522	2.50652
5.59917	2.50397
5.59313	2.51331
5.5871	2.55792
5.58109	2.61131
5.57509	2.6315
5.5691	2.5914
5.56312	2.5361
5.55716	2.52793
5.55121	2.59007
5.54528	2.60886
5.53935	2.62155
5.53344	2.6468
5.52754	2.72599
5.52166	2.78289
5.51578	2.7645
5.50992	2.71406
5.50407	2.72864
5.49823	2.78051
5.49241	2.79343
5.4866	2.79135
5.4808	2.80617
5.47501	2.78636
5.46923	2.84284
5.46347	2.91204
5.45772	2.92787
5.45198	2.96753
5.44625	3.00602
5.44054	2.97318
5.43484	3.00127
5.42914	3.07649
5.42347	3.11716
5.4178	3.08907
5.41214	3.06751
5.4065	3.08288
5.40087	3.11916
5.39525	3.13556
5.38964	3.22845
5.38404	3.30652
5.37846	3.27999
5.37288	3.30064
5.36732	3.34823
5.36177	3.35688
5.35623	3.37485
5.35071	3.34881
5.34519	3.42152
5.33968	3.47377
5.33419	3.51756
5.32871	3.59039
5.32324	3.5862
5.31778	3.57429
5.31233	3.58979
5.30689	3.572
5.30147	3.59139
5.29605	3.71525
5.29065	3.74686
5.28525	3.75214
5.27987	3.76978
5.2745	3.71175
5.26914	3.75658
5.26379	3.8495
5.25845	3.89236
5.25312	3.93703
5.24781	3.89761
5.2425	3.91189
5.23721	3.96373
5.23192	4.06385
5.22665	4.15734
5.22138	4.18284
5.21613	4.19406
5.21089	4.22219
5.20566	4.21
5.20044	4.24172
5.19522	4.28667
5.19002	4.29351
5.18483	4.35588
5.17965	4.42949
5.17448	4.48578
5.16933	4.54343
5.16418	4.61997
5.15904	4.66418
5.15391	4.71144
5.14879	4.83488
5.14368	4.97937
5.13859	5.0374
5.1335	5.04147
5.12842	5.0706
5.12335	5.13874
5.1183	5.23471
5.11325	5.32266
5.10821	5.44633
5.10318	5.55168
5.09817	5.57452
5.09316	5.63973
5.08816	5.8066
5.08317	5.92916
5.07819	6.07487
5.07322	6.11021
5.06826	6.126
5.06331	6.24345
5.05837	6.34231
5.05344	6.42198
5.04852	6.48645
5.04361	6.60443
5.03871	6.74135
5.03382	6.86866
5.02894	6.98521
5.02406	7.0657
5.0192	7.15696
5.01435	7.26578
5.0095	7.3637
5.00467	7.4662
4.99984	7.53896
4.99502	7.52751
4.99021	7.58142
4.98542	7.71349
4.98063	7.80838
4.97585	7.87756
4.97108	7.96267
4.96632	8.03476
4.96156	8.04419
4.95682	8.15834
4.95209	8.21431
4.94736	8.21416
4.94264	8.3147
4.93794	8.43056
4.93324	8.43103
4.92855	8.42907
4.92387	8.50097
4.9192	8.55865
4.91453	8.65003
4.90988	8.66973
4.90524	8.71463
4.9006	8.80467
4.89597	8.83591
4.89135	8.89919
4.88674	9.00246
4.88214	9.13212
4.87755	9.18844
4.87296	9.12679
4.86839	9.09494
4.86382	9.16588
4.85926	9.2214
4.85471	9.295
4.85017	9.32326
4.84564	9.38195
4.84111	9.45231
4.8366	9.48673
4.83209	9.50526
4.82759	9.54478
4.8231	9.60772
4.81862	9.68187
4.81415	9.75164
4.80968	9.81897
4.80522	9.93208
4.80077	9.93945
4.79633	9.97283
4.7919	10.017
4.78747	10.0135
4.78306	10.1292
4.77865	10.2431
4.77425	10.3257
4.76986	10.3158
4.76547	10.3517
4.7611	10.4509
4.75673	10.5039
4.75237	10.5646
4.74802	10.6138
4.74367	10.6683
4.73934	10.6754
4.73501	10.7918
4.73069	10.8806
4.72638	10.9379
4.72207	10.9998
4.71777	11.0617
4.71348	11.1963
4.7092	11.2589
4.70493	11.2636
4.70066	11.3557
4.69641	11.5043
4.69216	11.6406
4.68791	11.7524
4.68368	11.8303
4.67945	11.8805
4.67523	12.0123
4.67102	12.1543
4.66682	12.2681
4.66262	12.3587
4.65843	12.408
4.65425	12.5587
4.65007	12.7595
4.64591	12.8705
4.64175	12.9928
4.6376	13.1289
4.63345	13.2571
4.62932	13.3668
4.62519	13.5235
4.62106	13.6917
4.61695	13.7649
4.61284	13.8593
4.60874	14.0787
4.60465	14.3159
4.60056	14.4478
4.59648	14.5537
4.59241	14.6786
4.58835	14.8209
4.58429	15.0424
4.58024	15.2596
4.5762	15.3734
4.57216	15.4676
4.56814	15.6297
4.56411	15.7517
4.5601	15.9112
4.55609	16.1296
4.55209	16.3026
4.5481	16.4213
4.54411	16.5019
4.54013	16.7337
4.53616	16.9802
4.5322	17.1344
4.52824	17.1996
4.52429	17.3595
4.52034	17.5686
4.51641	17.7542
4.51247	17.8666
4.50855	18.0217
4.50463	18.1744
4.50072	18.2581
4.49682	18.4071
4.49292	18.5077
4.48903	18.6585
4.48515	18.8227
4.48127	19.018
4.4774	19.2072
4.47354	19.3186
4.46968	19.4463
4.46584	19.558
4.46199	19.6915
4.45815	19.8357
4.45432	19.9783
4.4505	20.11
4.44668	20.2324
4.44287	20.2759
4.43907	20.4084
4.43527	20.6525
4.43148	20.8554
4.4277	20.9414
4.42392	20.9811
4.42015	21.015
4.41638	21.092
4.41262	21.2608
4.40887	21.4693
4.40513	21.6696
4.40139	21.791
4.39765	21.8847
4.39393	22.0557
4.39021	22.1788
4.38649	22.2606
4.38278	22.3886
4.37908	22.5481
4.37539	22.728
4.3717	22.9156
4.36801	23.0418
4.36434	23.1248
4.36067	23.1988
4.357	23.3336
4.35335	23.5439
4.34969	23.6478
4.34605	23.6628
4.34241	23.7673
4.33877	23.9352
4.33514	23.9998
4.33152	24.0891
4.32791	24.1736
4.3243	24.2655
4.32069	24.3594
4.3171	24.3878
4.31351	24.3689
4.30992	24.3724
4.30634	24.4363
4.30277	24.5491
4.2992	24.6064
4.29564	24.5778
4.29208	24.6652
4.28853	24.7657
4.28499	24.8721
4.28145	24.9995
4.27792	25.1009
4.27439	25.1887
4.27087	25.3067
4.26735	25.443
4.26384	25.6847
4.26034	26.0293
4.25684	26.3277
4.25335	26.3696
4.24986	26.2461
4.24638	26.2993
4.24291	26.3826
4.23944	26.5129
4.23598	26.6734
4.23252	26.6938
4.22906	26.7768
4.22562	26.9657
4.22218	27.1592
4.21874	27.4632
4.21531	27.7121
4.21189	27.9022
4.20847	28.0933
4.20506	28.1931
4.20165	28.3048
4.19825	28.4755
4.19485	28.6372
4.19146	28.6524
4.18807	28.6404
4.18469	28.7775
4.18132	28.8415
4.17795	28.8563
4.17458	28.9832
4.17123	29.1135
4.16787	29.1462
4.16453	29.1794
4.16118	29.2417
4.15785	29.2483
4.15451	29.2534
4.15119	29.2465
4.14787	29.2808
4.14455	29.2987
4.14124	29.3371
4.13794	29.3877
4.13464	29.4035
4.13134	29.4022
4.12805	29.4267
4.12477	29.4993
4.12149	29.5077
4.11822	29.4749
4.11495	29.591
4.11168	29.6066
4.10843	29.5844
4.10517	29.5848
4.10192	29.5624
4.09868	29.5363
4.09545	29.5979
4.09221	29.5815
4.08899	29.5818
4.08576	29.623
4.08255	29.6607
4.07933	29.6615
4.07613	29.6026
4.07292	29.5489
4.06973	29.539
4.06654	29.5613
4.06335	29.5397
4.06017	29.5136
4.05699	29.6116
4.05382	29.6602
4.05065	29.5647
4.04749	29.4799
4.04433	29.4908
4.04118	29.4305
4.03803	29.396
4.03489	29.3593
4.03175	29.2696
4.02862	29.108
4.02549	28.9552
4.02237	28.9078
4.01925	28.868
4.01614	28.7496
4.01303	28.6828
4.00993	28.6116
4.00683	28.425
4.00373	28.1675
4.00064	27.9143
3.99756	27.6202
3.99448	27.3972
3.9914	27.2731
3.98833	27.1076
3.98527	26.9448
3.98221	26.8316
3.97915	26.8229
3.9761	26.871
3.97305	26.9667
3.97001	27.0479
3.96697	27.0941
3.96394	27.2191
3.96091	27.3887
3.95789	27.5275
3.95487	27.7213
3.95186	27.971
3.94885	28.1865
3.94584	28.3731
3.94284	28.5689
3.93984	28.6715
3.93685	28.7064
3.93386	28.8038
3.93088	28.8515
3.9279	28.8409
3.92493	28.9387
3.92196	29.0578
3.919	29.0291
3.91604	29.032
3.91308	29.0392
3.91013	28.9633
3.90718	29.053
3.90424	29.2385
3.9013	29.1798
3.89837	29.0521
3.89544	29.153
3.89252	29.2314
3.8896	29.2148
3.88668	29.1505
3.88377	29.1572
3.88086	29.2496
3.87796	29.2894
3.87506	29.3128
3.87217	29.2675
3.86928	29.1984
3.86639	29.2211
3.86351	29.2307
3.86064	29.2354
3.85776	29.2957
3.8549	29.262
3.85203	29.3096
3.84917	29.3937
3.84631	29.4141
3.84346	29.3994
3.84062	29.3943
3.83777	29.4093
3.83494	29.4634
3.8321	29.5035
3.82927	29.6177
3.82644	29.7224
3.82362	29.7016
3.82081	29.7581
3.81799	29.7727
3.81518	29.765
3.81238	29.8751
3.80958	29.9928
3.80678	29.9713
3.80399	30.0148
3.8012	30.0764
3.79841	30.1233
3.79563	30.2199
3.79286	30.2009
3.79008	30.1796
3.78731	30.1763
3.78455	30.1433
3.78179	30.0975
3.77903	30.1392
3.77628	30.2094
3.77353	30.178
3.77079	30.1558
3.76805	30.2603
3.76531	30.3257
3.76258	30.2069
3.75985	30.1756
3.75713	30.1256
3.7544	30.0312
3.75169	30.0644
3.74898	30.0785
3.74627	30.0976
3.74356	30.1399
3.74086	30.1222
3.73816	30.0968
3.73547	30.1316
3.73278	30.1723
3.7301	30.099
3.72741	30.0106
3.72474	29.9977
3.72206	29.995
3.71939	29.997
3.71673	29.9713
3.71406	29.9852
3.71141	29.9519
3.70875	29.9567
3.7061	29.9991
3.70345	29.9699
3.70081	29.9164
3.69817	29.9176
3.69553	29.83
3.6929	29.7945
3.69027	29.8513
3.68765	29.7825
3.68503	29.7475
3.68241	29.7964
3.6798	29.8062
3.67719	29.7741
3.67458	29.7303
3.67198	29.6932
3.66938	29.6163
3.66678	29.5542
3.66419	29.594
3.66161	29.6362
3.65902	29.5652
3.65644	29.518
3.65387	29.4162
3.65129	29.4285
3.64872	29.4574
3.64616	29.3947
3.64359	29.3885
3.64103	29.4089
3.63848	29.4034
3.63593	29.3772
3.63338	29.4141
3.63084	29.3879
3.6283	29.209
3.62576	29.0841
3.62322	29.1072
3.62069	29.1737
3.61817	29.231
3.61564	29.2259
3.61312	29.1284
3.61061	28.9925
3.6081	28.9205
3.60559	28.934
3.60308	29.0108
3.60058	28.9879
3.59808	28.9489
3.59558	28.9209
3.59309	28.799
3.59061	28.7501
3.58812	28.6584
3.58564	28.4613
3.58316	28.4897
3.58069	28.545
3.57822	28.4881
3.57575	28.5176
3.57328	28.4644
3.57082	28.3698
3.56836	28.4099
3.56591	28.3726
3.56346	28.3061
3.56101	28.2763
3.55857	28.2231
3.55613	28.2192
3.55369	28.2077
3.55126	28.1356
3.54883	28.0824
3.5464	28.0702
3.54397	27.8904
3.54155	27.7353
3.53914	27.6798
3.53672	27.658
3.53431	27.6418
3.5319	27.714
3.5295	27.6532
3.5271	27.4704
3.5247	27.3882
3.52231	27.3184
3.51991	27.209
3.51753	27.1042
3.51514	27.0094
3.51276	26.8786
3.51038	26.774
3.50801	26.715
3.50563	26.5954
3.50327	26.5646
3.5009	26.5907
3.49854	26.4399
3.49618	26.2361
3.49382	26.1191
3.49147	26.1341
3.48912	26.1299
3.48677	26.0714
3.48443	26.0455
3.48209	25.9729
3.47975	25.8583
3.47742	25.8577
