Name: Fluorite CaF_2
Type: Mineral
Class: Halides
Subclass: 
Particle Size: 45-125um
Sample No.: H-2A
Owner: JPL
Wavelength range: VNIR-SWIR
Origin: USA, Illinois, Hardin County, Rosiclare.
Collected by:  Ward's
Description: Purple fluorite.





Measurement: Hemispherical reflectance
First Column: X
Second Column: Y
X Units: Wavelength (micrometers)
Y Units: Reflectance (percent)
First X Value: 2.500
Last X Value: 0.400
Number of X Values: 2101
Additional information: h02aa.txt

2.500  81.565344
2.499  81.487546
2.498  81.645672
2.497  81.804752
2.496  81.361331
2.495  81.653447
2.494  81.535203
2.493  81.443685
2.492  81.464233
2.491  81.403473
2.490  81.608541
2.489  81.544749
2.488  81.763609
2.487  81.666626
2.486  81.541034
2.485  81.573518
2.484  81.555885
2.483  81.822771
2.482  81.641959
2.481  81.735940
2.480  81.734131
2.479  81.682522
2.478  81.681352
2.477  81.760651
2.476  81.809338
2.475  81.671372
2.474  81.783475
2.473  81.737322
2.472  81.832419
2.471  81.752187
2.470  81.920780
2.469  81.851995
2.468  82.015882
2.467  81.905840
2.466  81.890496
2.465  81.968797
2.464  81.968600
2.463  81.899113
2.462  81.955341
2.461  81.942596
2.460  81.952027
2.459  82.010255
2.458  81.974616
2.457  81.993029
2.456  82.083397
2.455  82.160304
2.454  82.115591
2.453  82.221546
2.452  82.013802
2.451  82.082671
2.450  82.114620
2.449  82.077982
2.448  82.064360
2.447  82.112412
2.446  82.134301
2.445  82.219298
2.444  82.241003
2.443  82.329776
2.442  82.305604
2.441  82.203274
2.440  82.235706
2.439  82.263413
2.438  82.257279
2.437  82.308866
2.436  82.288785
2.435  82.251357
2.434  82.199115
2.433  82.420724
2.432  82.419198
2.431  82.324979
2.430  82.376672
2.429  82.474557
2.428  82.485198
2.427  82.506548
2.426  82.503990
2.425  82.536044
2.424  82.467745
2.423  82.593308
2.422  82.533802
2.421  82.553960
2.420  82.480876
2.419  82.563050
2.418  82.540155
2.417  82.528726
2.416  82.583885
2.415  82.539591
2.414  82.627481
2.413  82.693903
2.412  82.657804
2.411  82.649257
2.410  82.647730
2.409  82.653090
2.408  82.697888
2.407  82.662644
2.406  82.654073
2.405  82.708274
2.404  82.692121
2.403  82.732199
2.402  82.700616
2.401  82.705002
2.400  82.717526
2.399  82.752805
2.398  82.753470
2.397  82.782035
2.396  82.789937
2.395  82.896803
2.394  82.950972
2.393  82.896114
2.392  82.836368
2.391  82.895920
2.390  82.898681
2.389  82.959233
2.388  82.941609
2.387  83.020174
2.386  83.041691
2.385  82.978239
2.384  82.987902
2.383  83.102646
2.382  83.110938
2.381  83.032030
2.380  83.052230
2.379  83.114949
2.378  83.188147
2.377  83.202764
2.376  83.135636
2.375  83.138245
2.374  83.215892
2.373  83.223757
2.372  83.233861
2.371  83.298356
2.370  83.313649
2.369  83.259918
2.368  83.256941
2.367  83.283634
2.366  83.277230
2.365  83.275445
2.364  83.344468
2.363  83.357538
2.362  83.363781
2.361  83.426552
2.360  83.448760
2.359  83.426442
2.358  83.401994
2.357  83.473925
2.356  83.499708
2.355  83.463094
2.354  83.487579
2.353  83.476817
2.352  83.518508
2.351  83.496695
2.350  83.490931
2.349  83.550531
2.348  83.517241
2.347  83.511107
2.346  83.567884
2.345  83.582084
2.344  83.563275
2.343  83.578416
2.342  83.588157
2.341  83.586462
2.340  83.591976
2.339  83.554934
2.338  83.553006
2.337  83.610405
2.336  83.642786
2.335  83.603866
2.334  83.620775
2.333  83.659335
2.332  83.640527
2.331  83.605612
2.330  83.615319
2.329  83.556943
2.328  83.541538
2.327  83.597205
2.326  83.588966
2.325  83.581797
2.324  83.601684
2.323  83.581345
2.322  83.585453
2.321  83.597641
2.320  83.573973
2.319  83.581125
2.318  83.553682
2.317  83.503541
2.316  83.546533
2.315  83.595064
2.314  83.579686
2.313  83.617065
2.312  83.682662
2.311  83.615818
2.310  83.571984
2.309  83.525682
2.308  83.582151
2.307  83.656124
2.306  83.633171
2.305  83.612906
2.304  83.550786
2.303  83.637249
2.302  83.666815
2.301  83.637456
2.300  83.573098
2.299  83.614995
2.298  83.678951
2.297  83.677492
2.296  83.589613
2.295  83.638678
2.294  83.606935
2.293  83.569713
2.292  83.591776
2.291  83.568188
2.290  83.556141
2.289  83.551174
2.288  83.610272
2.287  83.598881
2.286  83.574411
2.285  83.587496
2.284  83.558861
2.283  83.567159
2.282  83.624620
2.281  83.558185
2.280  83.573716
2.279  83.572185
2.278  83.573383
2.277  83.565715
2.276  83.653679
2.275  83.605191
2.274  83.544610
2.273  83.612218
2.272  83.643495
2.271  83.506693
2.270  83.523240
2.269  83.526937
2.268  83.627366
2.267  83.605389
2.266  83.587757
2.265  83.630528
2.264  83.668334
2.263  83.584736
2.262  83.588589
2.261  83.574066
2.260  83.581422
2.259  83.567666
2.258  83.618228
2.257  83.568273
2.256  83.569147
2.255  83.626770
2.254  83.652869
2.253  83.620799
2.252  83.673185
2.251  83.612355
2.250  83.579180
2.249  83.561223
2.248  83.621732
2.247  83.563168
2.246  83.632209
2.245  83.563225
2.244  83.608086
2.243  83.588599
2.242  83.721410
2.241  83.624113
2.240  83.652028
2.239  83.549119
2.238  83.616576
2.237  83.632749
2.236  83.659505
2.235  83.616368
2.234  83.678062
2.233  83.679836
2.232  83.663459
2.231  83.731992
2.230  83.765066
2.229  83.717090
2.228  83.683019
2.227  83.702683
2.226  83.707905
2.225  83.745179
2.224  83.739539
2.223  83.740260
2.222  83.815969
2.221  83.753732
2.220  83.722601
2.219  83.817815
2.218  83.795060
2.217  83.828206
2.216  83.798015
2.215  83.787744
2.214  83.878813
2.213  83.852265
2.212  83.889643
2.211  83.808765
2.210  84.031416
2.209  83.984466
2.208  83.967261
2.207  83.960035
2.206  84.051139
2.205  84.053412
2.204  84.109638
2.203  84.127316
2.202  84.167479
2.201  84.106496
2.200  84.293222
2.199  84.200826
2.198  84.159046
2.197  84.269090
2.196  84.274648
2.195  84.077473
2.194  84.314080
2.193  84.238617
2.192  84.289559
2.191  84.257823
2.190  84.271158
2.189  84.295362
2.188  84.202853
2.187  84.272525
2.186  84.330230
2.185  84.368482
2.184  84.372335
2.183  84.369642
2.182  84.388147
2.181  84.411266
2.180  84.382088
2.179  84.444144
2.178  84.446488
2.177  84.477836
2.176  84.542540
2.175  84.532510
2.174  84.616605
2.173  84.620825
2.172  84.616195
2.171  84.605180
2.170  84.729078
2.169  84.724601
2.168  84.711359
2.167  84.852994
2.166  84.836980
2.165  84.794487
2.164  84.940757
2.163  84.919046
2.162  84.910074
2.161  84.971302
2.160  84.990762
2.159  85.004189
2.158  85.093479
2.157  85.062339
2.156  85.042110
2.155  85.090833
2.154  85.117058
2.153  85.018800
2.152  85.110545
2.151  85.144583
2.150  85.106139
2.149  85.159517
2.148  85.131060
2.147  85.230764
2.146  85.179721
2.145  85.139924
2.144  85.134503
2.143  85.139888
2.142  85.173064
2.141  85.185083
2.140  85.167239
2.139  85.157336
2.138  85.155876
2.137  85.187361
2.136  85.158708
2.135  85.160003
2.134  85.085727
2.133  85.083530
2.132  85.042911
2.131  85.053044
2.130  85.023582
2.129  84.992733
2.128  84.932028
2.127  84.930496
2.126  84.895494
2.125  84.856297
2.124  84.776160
2.123  84.722774
2.122  84.713393
2.121  84.647790
2.120  84.625774
2.119  84.500367
2.118  84.593019
2.117  84.551586
2.116  84.482253
2.115  84.416589
2.114  84.345375
2.113  84.279118
2.112  84.215797
2.111  84.165463
2.110  84.152310
2.109  84.131640
2.108  84.134315
2.107  84.069964
2.106  84.037937
2.105  84.013540
2.104  83.955783
2.103  83.870169
2.102  83.875949
2.101  83.906979
2.100  83.822567
2.099  83.791686
2.098  83.838751
2.097  83.887905
2.096  83.883116
2.095  83.853214
2.094  83.827770
2.093  83.865350
2.092  83.905584
2.091  83.894527
2.090  83.863329
2.089  83.850026
2.088  83.912637
2.087  83.931712
2.086  83.920820
2.085  83.959812
2.084  83.959168
2.083  83.981433
2.082  83.953440
2.081  83.982499
2.080  84.053706
2.079  83.999492
2.078  84.036191
2.077  84.036463
2.076  84.001210
2.075  84.063426
2.074  84.111080
2.073  84.137239
2.072  84.154690
2.071  84.097660
2.070  84.060531
2.069  84.114596
2.068  84.125086
2.067  84.133347
2.066  84.129462
2.065  84.134912
2.064  84.175387
2.063  84.171047
2.062  84.190280
2.061  84.188004
2.060  84.236254
2.059  84.215110
2.058  84.211200
2.057  84.262837
2.056  84.236300
2.055  84.294309
2.054  84.296115
2.053  84.326308
2.052  84.370653
2.051  84.302354
2.050  84.304269
2.049  84.305029
2.048  84.321364
2.047  84.374590
2.046  84.388597
2.045  84.450811
2.044  84.427555
2.043  84.401407
2.042  84.407127
2.041  84.466772
2.040  84.461709
2.039  84.497624
2.038  84.439242
2.037  84.472340
2.036  84.495251
2.035  84.422845
2.034  84.386647
2.033  84.441041
2.032  84.480557
2.031  84.455957
2.030  84.452771
2.029  84.408761
2.028  84.369206
2.027  84.415205
2.026  84.411496
2.025  84.442506
2.024  84.457939
2.023  84.454760
2.022  84.353972
2.021  84.349934
2.020  84.378412
2.019  84.374361
2.018  84.360172
2.017  84.361856
2.016  84.327398
2.015  84.350423
2.014  84.390711
2.013  84.456066
2.012  84.435469
2.011  84.445272
2.010  84.391418
2.009  84.362607
2.008  84.356156
2.007  84.436573
2.006  84.346729
2.005  84.386477
2.004  84.449855
2.003  84.356213
2.002  84.317519
2.001  84.339628
2.000  84.296184
1.999  84.318643
1.998  84.373197
1.997  84.281452
1.996  84.269149
1.995  84.262371
1.994  84.237774
1.993  84.268136
1.992  84.207928
1.991  84.217008
1.990  84.157946
1.989  84.133199
1.988  84.065635
1.987  84.124618
1.986  84.058764
1.985  83.995877
1.984  84.007575
1.983  84.135944
1.982  84.017926
1.981  83.971928
1.980  83.955797
1.979  83.925663
1.978  83.967543
1.977  83.946226
1.976  83.857840
1.975  83.909657
1.974  83.875443
1.973  83.875977
1.972  83.903440
1.971  83.807914
1.970  83.820654
1.969  83.787090
1.968  83.822278
1.967  83.859747
1.966  83.813604
1.965  83.920473
1.964  83.829541
1.963  83.839635
1.962  83.770690
1.961  83.693678
1.960  83.729398
1.959  83.767206
1.958  83.701200
1.957  83.777961
1.956  83.655341
1.955  83.719016
1.954  83.693419
1.953  83.746190
1.952  83.725646
1.951  83.678279
1.950  83.698985
1.949  83.657215
1.948  83.711254
1.947  83.680569
1.946  83.682997
1.945  83.691828
1.944  83.655941
1.943  83.618351
1.942  83.668127
1.941  83.776665
1.940  83.659348
1.939  83.668324
1.938  83.644754
1.937  83.700159
1.936  83.583869
1.935  83.663438
1.934  83.659627
1.933  83.633937
1.932  83.608039
1.931  83.519412
1.930  83.598085
1.929  83.630693
1.928  83.532085
1.927  83.638153
1.926  83.611131
1.925  83.659515
1.924  83.680163
1.923  83.668075
1.922  83.615684
1.921  83.541915
1.920  83.626881
1.919  83.665978
1.918  83.632283
1.917  83.680960
1.916  83.653852
1.915  83.730394
1.914  83.688387
1.913  83.719697
1.912  83.807442
1.911  83.791804
1.910  83.743825
1.909  83.863384
1.908  83.881272
1.907  83.872749
1.906  83.977062
1.905  84.059367
1.904  84.029568
1.903  84.112366
1.902  84.153658
1.901  84.258869
1.900  84.260362
1.899  84.317456
1.898  84.227576
1.897  84.362317
1.896  84.392965
1.895  84.474373
1.894  84.435882
1.893  84.477989
1.892  84.512492
1.891  84.565886
1.890  84.580158
1.889  84.514453
1.888  84.620896
1.887  84.656304
1.886  84.636526
1.885  84.664851
1.884  84.752818
1.883  84.783553
1.882  84.814710
1.881  84.797625
1.880  84.738740
1.879  84.806966
1.878  84.862300
1.877  84.901257
1.876  84.813393
1.875  84.851511
1.874  84.845637
1.873  84.803279
1.872  84.867844
1.871  84.888588
1.870  84.904252
1.869  84.915130
1.868  84.991065
1.867  85.038993
1.866  85.031855
1.865  85.035397
1.864  84.952818
1.863  84.949263
1.862  84.996109
1.861  85.038504
1.860  84.990406
1.859  85.043499
1.858  85.006614
1.857  85.004065
1.856  85.047630
1.855  85.087642
1.854  85.042842
1.853  85.042804
1.852  85.023768
1.851  85.045286
1.850  85.012922
1.849  84.972717
1.848  85.064901
1.847  85.061608
1.846  85.070437
1.845  85.106449
1.844  85.078671
1.843  85.110240
1.842  85.054707
1.841  85.024070
1.840  85.012409
1.839  85.103467
1.838  85.109655
1.837  85.076648
1.836  85.085505
1.835  85.111057
1.834  85.085113
1.833  85.088089
1.832  85.084203
1.831  85.075084
1.830  85.031899
1.829  85.049033
1.828  85.070511
1.827  85.075575
1.826  85.064352
1.825  85.031063
1.824  85.033876
1.823  85.042001
1.822  85.078168
1.821  85.070665
1.820  85.092942
1.819  85.126021
1.818  85.139328
1.817  85.092453
1.816  85.111052
1.815  85.125076
1.814  85.106186
1.813  85.134504
1.812  85.146287
1.811  85.160850
1.810  85.169496
1.809  85.142826
1.808  85.138146
1.807  85.196221
1.806  85.223372
1.805  85.206054
1.804  85.170117
1.803  85.166189
1.802  85.157810
1.801  85.151023
1.800  85.159199
1.799  85.216903
1.798  85.215944
1.797  85.138689
1.796  85.186201
1.795  85.236524
1.794  85.201509
1.793  85.181863
1.792  85.166327
1.791  85.178726
1.790  85.174699
1.789  85.156905
1.788  85.160432
1.787  85.138284
1.786  85.069314
1.785  85.089035
1.784  85.146499
1.783  85.159358
1.782  85.146772
1.781  85.101751
1.780  85.135733
1.779  85.139891
1.778  85.139451
1.777  85.153343
1.776  85.144138
1.775  85.117131
1.774  85.133294
1.773  85.129119
1.772  85.110836
1.771  85.144259
1.770  85.175176
1.769  85.174639
1.768  85.145673
1.767  85.115116
1.766  85.130605
1.765  85.120546
1.764  85.128034
1.763  85.095818
1.762  85.130164
1.761  85.155386
1.760  85.103372
1.759  85.083498
1.758  85.108023
1.757  85.104915
1.756  85.078158
1.755  85.092151
1.754  85.137035
1.753  85.104347
1.752  85.121922
1.751  85.163570
1.750  85.178339
1.749  85.177744
1.748  85.228308
1.747  85.205849
1.746  85.229175
1.745  85.172985
1.744  85.124969
1.743  85.167394
1.742  85.202800
1.741  85.191964
1.740  85.161868
1.739  85.170007
1.738  85.258171
1.737  85.202652
1.736  85.209064
1.735  85.241775
1.734  85.255430
1.733  85.242689
1.732  85.254616
1.731  85.290699
1.730  85.260175
1.729  85.216061
1.728  85.206996
1.727  85.194957
1.726  85.286540
1.725  85.294520
1.724  85.203331
1.723  85.228179
1.722  85.229797
1.721  85.277474
1.720  85.287177
1.719  85.224499
1.718  85.189811
1.717  85.197464
1.716  85.297309
1.715  85.301992
1.714  85.266974
1.713  85.178522
1.712  85.202626
1.711  85.215436
1.710  85.235933
1.709  85.268569
1.708  85.274583
1.707  85.235904
1.706  85.180491
1.705  85.199785
1.704  85.203948
1.703  85.207023
1.702  85.210068
1.701  85.218584
1.700  85.186642
1.699  85.232846
1.698  85.229484
1.697  85.200939
1.696  85.177502
1.695  85.192905
1.694  85.234857
1.693  85.138572
1.692  85.178315
1.691  85.222769
1.690  85.271824
1.689  85.187043
1.688  85.214412
1.687  85.183454
1.686  85.227794
1.685  85.187213
1.684  85.224249
1.683  85.154806
1.682  85.181687
1.681  85.161412
1.680  85.181690
1.679  85.158713
1.678  85.150350
1.677  85.174827
1.676  85.189883
1.675  85.209190
1.674  85.229059
1.673  85.123865
1.672  85.109638
1.671  85.136325
1.670  85.127312
1.669  85.230880
1.668  85.155306
1.667  85.174735
1.666  85.251118
1.665  85.033703
1.664  85.215250
1.663  85.170495
1.662  85.211685
1.661  85.125468
1.660  85.160414
1.659  85.138945
1.658  85.179152
1.657  85.072089
1.656  85.157405
1.655  85.119192
1.654  85.156940
1.653  85.121776
1.652  85.209064
1.651  85.133043
1.650  85.185225
1.649  85.180893
1.648  85.067001
1.647  85.131548
1.646  85.204482
1.645  85.181761
1.644  85.184890
1.643  85.095096
1.642  85.213852
1.641  85.050576
1.640  85.243409
1.639  85.168698
1.638  85.191949
1.637  85.119690
1.636  85.132482
1.635  85.134959
1.634  85.231087
1.633  85.074875
1.632  85.193444
1.631  85.152299
1.630  85.113829
1.629  85.090903
1.628  85.104340
1.627  85.103287
1.626  85.221294
1.625  85.131795
1.624  85.186036
1.623  85.089322
1.622  85.209181
1.621  85.088341
1.620  85.086509
1.619  85.147271
1.618  85.139588
1.617  85.163250
1.616  85.103888
1.615  85.134753
1.614  85.092517
1.613  85.072184
1.612  85.104036
1.611  85.204144
1.610  85.126289
1.609  85.078105
1.608  85.190259
1.607  85.174027
1.606  85.235268
1.605  85.166085
1.604  85.087952
1.603  85.113952
1.602  85.114897
1.601  85.169846
1.600  85.208135
1.599  85.143033
1.598  85.092966
1.597  85.071064
1.596  85.124016
1.595  85.083325
1.594  85.104814
1.593  85.152328
1.592  85.073523
1.591  85.104967
1.590  85.156198
1.589  85.129510
1.588  85.094381
1.587  85.099101
1.586  85.102460
1.585  85.093749
1.584  85.070325
1.583  85.146281
1.582  85.134426
1.581  85.124207
1.580  85.075169
1.579  85.045136
1.578  84.998075
1.577  85.035047
1.576  85.038976
1.575  85.070923
1.574  85.086804
1.573  85.101744
1.572  85.107326
1.571  85.104632
1.570  85.041586
1.569  85.050489
1.568  85.045481
1.567  85.077205
1.566  85.066625
1.565  85.013335
1.564  85.044566
1.563  84.957931
1.562  85.018937
1.561  85.022837
1.560  85.053096
1.559  85.037384
1.558  85.016693
1.557  85.048773
1.556  85.068041
1.555  85.037950
1.554  85.000469
1.553  85.000607
1.552  85.043153
1.551  84.992719
1.550  84.983417
1.549  84.999106
1.548  84.976525
1.547  84.950420
1.546  85.053384
1.545  84.991040
1.544  84.936492
1.543  84.957345
1.542  84.990214
1.541  85.012837
1.540  84.958073
1.539  84.939920
1.538  84.914772
1.537  84.915569
1.536  84.914948
1.535  84.910408
1.534  84.971798
1.533  84.992665
1.532  84.972237
1.531  84.926057
1.530  84.917561
1.529  84.938416
1.528  84.878987
1.527  84.944502
1.526  84.952038
1.525  84.927692
1.524  84.939041
1.523  84.885433
1.522  84.905658
1.521  84.953748
1.520  84.953406
1.519  84.928910
1.518  84.945440
1.517  84.951021
1.516  84.913899
1.515  84.907817
1.514  84.939783
1.513  84.919631
1.512  84.917771
1.511  84.851252
1.510  84.830345
1.509  84.857741
1.508  84.900230
1.507  84.903363
1.506  84.871552
1.505  84.893418
1.504  84.900801
1.503  84.836295
1.502  84.851336
1.501  84.832072
1.500  84.780007
1.499  84.815092
1.498  84.797342
1.497  84.775083
1.496  84.773717
1.495  84.808358
1.494  84.857062
1.493  84.849761
1.492  84.806778
1.491  84.769744
1.490  84.766477
1.489  84.744727
1.488  84.760022
1.487  84.808787
1.486  84.813087
1.485  84.712719
1.484  84.732772
1.483  84.771091
1.482  84.727516
1.481  84.743290
1.480  84.702351
1.479  84.705250
1.478  84.763447
1.477  84.798511
1.476  84.746836
1.475  84.708243
1.474  84.707236
1.473  84.701602
1.472  84.655891
1.471  84.731694
1.470  84.765231
1.469  84.720683
1.468  84.723865
1.467  84.706686
1.466  84.702997
1.465  84.668507
1.464  84.652976
1.463  84.626611
1.462  84.629674
1.461  84.666310
1.460  84.658768
1.459  84.636152
1.458  84.705293
1.457  84.664617
1.456  84.645638
1.455  84.624003
1.454  84.609661
1.453  84.672826
1.452  84.684212
1.451  84.647692
1.450  84.643173
1.449  84.630083
1.448  84.681287
1.447  84.659382
1.446  84.596424
1.445  84.580377
1.444  84.625848
1.443  84.652431
1.442  84.599105
1.441  84.598942
1.440  84.533416
1.439  84.638851
1.438  84.611679
1.437  84.565573
1.436  84.625495
1.435  84.519428
1.434  84.515365
1.433  84.527386
1.432  84.521543
1.431  84.510671
1.430  84.452558
1.429  84.500280
1.428  84.497638
1.427  84.473472
1.426  84.441691
1.425  84.493152
1.424  84.488095
1.423  84.445039
1.422  84.504814
1.421  84.503211
1.420  84.475582
1.419  84.476958
