Name: Cookeite LiAl_4(Si_3Al)O_10(OH)_8
Type: Mineral
Class: Silicates
Subclass: Phyllosilicates
Particle Size: 125-500um
Sample No.: PS-9A
Owner: JPL
Wavelength range: IR
Origin: USA, Arkansas, Pulaski County
Collected by JPL
Description: 





Measurement: Hemispherical reflectance
First Column: X
Second Column: Y
X Units:  Wavelength (micrometers)
Y Units:  Reflectance (percent)
First X Value: 15.3853
Last X Value: 2.00032
Number of X Values: 2256
Additional information: ps09aa.txt
 
15.3853	3.20387
15.3397	3.12594
15.2945	3.13792
15.2495	3.10703
15.2048	3.17438
15.1603	3.23708
15.1161	3.11972
15.0722	3.1217
15.0285	3.20502
14.9851	2.9829
14.9419	2.89281
14.8989	3.04628
14.8563	2.89102
14.8138	2.57451
14.7716	2.5541
14.7296	2.66515
14.6879	2.58585
14.6464	2.68893
14.6052	2.7208
14.5641	2.62239
14.5233	2.46786
14.4828	2.38747
14.4424	2.6952
14.4023	2.76671
14.3624	2.53499
14.3227	2.53137
14.2833	2.67186
14.244	2.69567
14.205	2.63406
14.1662	2.84737
14.1276	2.94038
14.0892	2.77632
14.051	2.622
14.0131	2.72053
13.9753	2.92197
13.9377	2.96801
13.9004	3.05841
13.8632	2.90168
13.8262	3.06876
13.7895	3.3304
13.7529	3.27377
13.7165	3.19104
13.6803	3.30926
13.6443	3.33004
13.6085	3.1905
13.5729	2.98909
13.5374	2.82135
13.5022	2.66035
13.4671	2.64293
13.4322	2.50445
13.3975	2.20069
13.363	2.128
13.3286	2.04372
13.2944	2.17969
13.2604	2.33582
13.2266	2.35882
13.193	2.25329
13.1595	2.11628
13.1262	2.22241
13.093	2.35628
13.06	2.27752
13.0272	2.20316
12.9946	2.13111
12.9621	2.01647
12.9298	1.97746
12.8976	2.08136
12.8656	2.27171
12.8337	2.36483
12.8021	2.28293
12.7705	2.25564
12.7391	2.27691
12.7079	2.28781
12.6769	2.28084
12.6459	2.27999
12.6152	2.35977
12.5845	2.43779
12.5541	2.44757
12.5238	2.50841
12.4936	2.62788
12.4635	2.54831
12.4337	2.32224
12.4039	2.13018
12.3743	2.05712
12.3448	2.14325
12.3155	2.06362
12.2863	1.90011
12.2573	1.76717
12.2284	1.75368
12.1996	1.76448
12.171	1.75356
12.1425	1.83015
12.1141	1.80948
12.0859	1.85216
12.0578	2.06329
12.0298	2.0786
12.0019	2.03494
11.9742	2.10592
11.9466	2.33357
11.9192	2.40164
11.8918	2.42007
11.8646	2.42292
11.8375	2.49819
11.8106	2.7
11.7837	2.80335
11.757	2.78075
11.7304	2.93776
11.7039	3.17608
11.6776	3.31027
11.6513	3.36457
11.6252	3.53187
11.5992	3.70308
11.5733	3.95626
11.5475	3.92098
11.5219	4.05171
11.4963	4.31509
11.4709	4.48465
11.4455	4.59653
11.4203	4.71021
11.3952	4.84582
11.3702	4.9095
11.3454	4.94883
11.3206	4.98843
11.2959	5.01688
11.2714	5.18144
11.2469	5.30469
11.2226	5.24362
11.1983	5.28984
11.1742	5.4893
11.1502	5.58819
11.1263	5.75488
11.1024	5.8994
11.0787	5.94589
11.0551	6.02377
11.0316	6.27149
11.0081	6.41524
10.9848	6.50568
10.9616	6.49195
10.9385	6.41812
10.9154	6.44004
10.8925	6.38308
10.8697	6.29235
10.8469	6.3253
10.8243	6.3478
10.8017	6.27509
10.7793	6.33755
10.7569	6.51721
10.7346	6.63579
10.7125	6.71606
10.6904	6.82672
10.6684	7.02476
10.6465	7.15136
10.6247	7.15512
10.6029	7.07316
10.5813	7.07911
10.5597	7.10545
10.5383	7.04489
10.5169	7.07861
10.4956	7.15703
10.4744	7.2267
10.4533	7.31022
10.4323	7.51408
10.4113	7.66638
10.3904	7.93342
10.3697	8.35512
10.349	8.63813
10.3284	8.94925
10.3078	9.261
10.2874	9.65356
10.267	10.0685
10.2467	10.3304
10.2265	10.4704
10.2064	10.5905
10.1863	10.7688
10.1663	11.0582
10.1464	11.3111
10.1266	11.558
10.1069	11.8383
10.0872	12.1098
10.0676	12.4161
10.0481	12.6122
10.0287	12.9389
10.0093	13.4797
9.99005	13.9625
9.97084	14.5454
9.95169	15.3483
9.93263	16.0939
9.91364	16.6611
9.89472	17.1206
9.87587	17.6658
9.8571	18.0354
9.83839	18.0472
9.81976	18.0588
9.80119	17.9518
9.78271	17.7362
9.76428	17.6814
9.74592	17.8048
9.72764	18.1002
9.70943	18.479
9.69128	18.6588
9.6732	18.6936
9.65518	18.4657
9.63724	18.1386
9.61935	17.9489
9.60155	17.8799
9.5838	18.0062
9.56611	18.2572
9.5485	18.6244
9.53094	19.2437
9.51345	20.0043
9.49604	20.8318
9.47867	21.6575
9.46137	22.4859
9.44414	23.3719
9.42697	24.1184
9.40986	24.5912
9.39281	24.9271
9.37583	25.3094
9.35891	25.5575
9.34204	25.5541
9.32524	25.3482
9.3085	25.2154
9.29182	25.1782
9.27519	25.0213
9.25863	24.9237
9.24213	24.8643
9.22568	24.7729
9.2093	24.6557
9.19297	24.4948
9.17669	24.3212
9.16048	24.1506
9.14433	24.0364
9.12823	23.7897
9.11218	23.4847
9.0962	23.1997
9.08027	22.7234
9.06439	21.8584
9.04858	21.0074
9.03281	19.959
9.0171	18.5607
9.00145	17.1697
8.98585	16.3396
8.9703	16.3873
8.9548	16.6485
8.93937	16.5736
8.92398	16.2768
8.90865	15.8383
8.89337	15.2819
8.87814	14.6319
8.86296	13.8306
8.84784	13.0888
8.83277	12.4689
8.81774	11.7395
8.80277	10.9467
8.78786	10.2106
8.77298	9.51548
8.75816	8.82765
8.7434	8.16037
8.72868	7.38878
8.714	6.70978
8.69938	6.21649
8.68481	5.79642
8.67029	5.40949
8.65581	4.88522
8.64139	4.29236
8.62701	3.85312
8.61268	3.71876
8.5984	3.62503
8.58416	3.45838
8.56997	3.30875
8.55583	3.16456
8.54174	2.96432
8.52769	2.73959
8.51368	2.6094
8.49973	2.42238
8.48582	2.3503
8.47195	2.16043
8.45813	1.96818
8.44436	1.83312
8.43062	1.77736
8.41693	1.69386
8.4033	1.65741
8.3897	1.78834
8.37614	1.70043
8.36264	1.60984
8.34917	1.57691
8.33574	1.37229
8.32236	1.32268
8.30903	1.3931
8.29573	1.27342
8.28248	1.23149
8.26927	1.19496
8.2561	1.12102
8.24298	1.2266
8.2299	1.2026
8.21685	1.21531
8.20385	1.3244
8.19089	1.21677
8.17797	1.06759
8.16509	1.09742
8.15225	1.06044
8.13946	1.08196
8.1267	1.13196
8.11398	1.05804
8.10131	0.996118
8.08867	0.969896
8.07606	0.821917
8.0635	0.726513
8.05099	0.798381
8.0385	0.839161
8.02606	0.744456
8.01366	0.682076
8.00129	0.753904
7.98896	0.800102
7.97667	0.8245
7.96442	0.853447
7.9522	0.826634
7.94002	0.803752
7.92788	0.800098
7.91578	0.740368
7.90371	0.827389
7.89168	0.894824
7.87969	0.784936
7.86773	0.848808
7.85581	0.971338
7.84392	0.938703
7.83207	0.881908
7.82026	0.893344
7.80849	0.985574
7.79674	1.09807
7.78503	1.06196
7.77337	1.08975
7.76173	1.16153
7.75012	1.20828
7.73856	1.24592
7.72703	1.24896
7.71553	1.25204
7.70406	1.23377
7.69263	1.22519
7.68123	1.2522
7.66987	1.36911
7.65855	1.47434
7.64725	1.43288
7.63598	1.42714
7.62475	1.48088
7.61356	1.57064
7.60239	1.63301
7.59126	1.62589
7.58017	1.64505
7.5691	1.67586
7.55806	1.69987
7.54707	1.75607
7.5361	1.80361
7.52516	1.87722
7.51425	1.88733
7.50338	1.85696
7.49253	1.92882
7.48172	2.05525
7.47094	2.04498
7.46019	1.9574
7.44947	1.94835
7.43879	2.03789
7.42813	2.10356
7.4175	2.04804
7.4069	2.08427
7.39634	2.21461
7.3858	2.27796
7.37529	2.25775
7.36482	2.28884
7.35437	2.31494
7.34396	2.34175
7.33357	2.38271
7.32321	2.43807
7.31288	2.59625
7.30258	2.69264
7.29231	2.64079
7.28207	2.50379
7.27185	2.47211
7.26167	2.5596
7.25152	2.64124
7.24139	2.59526
7.23129	2.54701
7.22122	2.63
7.21117	2.73493
7.20116	2.79942
7.19117	2.83481
7.18121	2.88167
7.17128	2.81788
7.16137	2.78684
7.1515	2.9132
7.14164	3.08367
7.13182	3.10078
7.12203	3.06208
7.11225	3.1023
7.10251	3.10639
7.0928	3.14873
7.08311	3.19545
7.07344	3.21684
7.06381	3.27344
7.0542	3.2433
7.04461	3.168
7.03506	3.18683
7.02552	3.30398
7.01601	3.39142
7.00653	3.43512
6.99708	3.46456
6.98765	3.4864
6.97824	3.57009
6.96886	3.54988
6.95951	3.58982
6.95018	3.60854
6.94087	3.60486
6.9316	3.64647
6.92234	3.72933
6.91311	3.70647
6.90391	3.69081
6.89473	3.74084
6.88557	3.83521
6.87644	3.788
6.86733	3.76471
6.85824	3.9146
6.84918	3.96219
6.84015	3.96883
6.83114	4.01638
6.82215	4.05286
6.81319	4.08698
6.80424	4.06693
6.79532	3.98693
6.78643	4.01075
6.77756	4.11807
6.76871	4.15945
6.75989	4.15537
6.75109	4.25184
6.74231	4.30828
6.73355	4.2939
6.72482	4.26259
6.71611	4.28008
6.70742	4.39439
6.69875	4.47902
6.69011	4.51471
6.68149	4.49211
6.67289	4.49191
6.66431	4.53148
6.65576	4.57801
6.64722	4.52412
6.63871	4.52458
6.63022	4.68942
6.62175	4.7252
6.61331	4.70674
6.60488	4.69501
6.59648	4.62193
6.5881	4.68404
6.57974	4.78266
6.5714	4.77876
6.56308	4.79405
6.55478	4.8148
6.54651	4.8942
6.53825	4.91187
6.53001	4.90529
6.5218	4.98004
6.51361	4.9786
6.50544	4.96344
6.49729	4.92789
6.48915	4.92381
6.48104	4.95136
6.47295	5.00896
6.46488	5.093
6.45683	5.07505
6.4488	5.07715
6.44079	5.13716
6.4328	5.22552
6.42482	5.18244
6.41687	5.09843
6.40894	5.1984
6.40103	5.30802
6.39314	5.30539
6.38526	5.22249
6.37741	5.25373
6.36957	5.32409
6.36176	5.41454
6.35396	5.41923
6.34618	5.44199
6.33843	5.44179
6.33069	5.42003
6.32297	5.43998
6.31527	5.41303
6.30758	5.39379
6.29992	5.46189
6.29227	5.50591
6.28465	5.49574
6.27704	5.434
6.26945	5.47853
6.26188	5.59018
6.25432	5.62386
6.24679	5.58447
6.23927	5.59174
6.23177	5.57629
6.22429	5.5784
6.21683	5.62305
6.20938	5.55843
6.20195	5.44328
6.19454	5.49466
6.18715	5.54177
6.17978	5.4768
6.17242	5.46158
6.16508	5.40221
6.15776	5.37075
6.15045	5.3917
6.14317	5.46637
6.1359	5.46786
6.12864	5.40194
6.12141	5.37532
6.11419	5.31961
6.10699	5.41993
6.0998	5.46763
6.09263	5.43602
6.08549	5.42533
6.07835	5.39286
6.07123	5.34074
6.06413	5.38151
6.05705	5.42077
6.04998	5.37248
6.04293	5.30409
6.0359	5.39834
6.02888	5.49582
6.02187	5.4649
6.01489	5.43597
6.00792	5.45061
6.00096	5.50273
5.99403	5.54382
5.98711	5.52825
5.9802	5.53788
5.97331	5.594
5.96644	5.64321
5.95958	5.61629
5.95274	5.55192
5.94591	5.51261
5.9391	5.50036
5.9323	5.60811
5.92552	5.70342
5.91876	5.7058
5.91201	5.70142
5.90528	5.76016
5.89856	5.80064
5.89186	5.83648
5.88517	5.8641
5.8785	5.8998
5.87184	5.94734
5.8652	5.95116
5.85857	5.97036
5.85196	5.97905
5.84536	6.01161
5.83878	5.98919
5.83221	6.03459
5.82566	6.09392
5.81912	6.12005
5.81259	6.15721
5.80608	6.22487
5.79959	6.27986
5.79311	6.25698
5.78665	6.20355
5.78019	6.19719
5.77376	6.17814
5.76734	6.21007
5.76093	6.29483
5.75453	6.41196
5.74815	6.41716
5.74179	6.39738
5.73543	6.38261
5.7291	6.41459
5.72277	6.48697
5.71646	6.40378
5.71017	6.33614
5.70389	6.40914
5.69762	6.48459
5.69136	6.4637
5.68513	6.46377
5.6789	6.42558
5.67268	6.35676
5.66648	6.34795
5.6603	6.48423
5.65413	6.56926
5.64797	6.50845
5.64182	6.46415
5.63569	6.43766
5.62957	6.45952
5.62347	6.4756
5.61737	6.43921
5.61129	6.4084
5.60522	6.35815
5.59917	6.39628
5.59313	6.49291
5.5871	6.45693
5.58109	6.37349
5.57509	6.40098
5.5691	6.46264
5.56312	6.46278
5.55716	6.44347
5.55121	6.40572
5.54528	6.35658
5.53935	6.36032
5.53344	6.39706
5.52754	6.40342
5.52166	6.40443
5.51578	6.42632
5.50992	6.42987
5.50407	6.36061
5.49823	6.40094
5.49241	6.48166
5.4866	6.45053
5.4808	6.44767
5.47501	6.46259
5.46923	6.47764
5.46347	6.48717
5.45772	6.51553
5.45198	6.50686
5.44625	6.47923
5.44054	6.50607
5.43484	6.57963
5.42914	6.56385
5.42347	6.43502
5.4178	6.3823
5.41214	6.49938
5.4065	6.56855
5.40087	6.56687
5.39525	6.53587
5.38964	6.58977
5.38404	6.61775
5.37846	6.62891
5.37288	6.62419
5.36732	6.58151
5.36177	6.5874
5.35623	6.6213
5.35071	6.55788
5.34519	6.66255
5.33968	6.77989
5.33419	6.86593
5.32871	6.89193
5.32324	6.92656
5.31778	6.94019
5.31233	6.94812
5.30689	7.01376
5.30147	7.03517
5.29605	7.06082
5.29065	7.16741
5.28525	7.20904
5.27987	7.23868
5.2745	7.39376
5.26914	7.50287
5.26379	7.54635
5.25845	7.60123
5.25312	7.63509
5.24781	7.709
5.2425	7.78722
5.23721	7.83537
5.23192	7.96682
5.22665	8.13425
5.22138	8.18218
5.21613	8.20165
5.21089	8.23945
5.20566	8.32244
5.20044	8.39655
5.19522	8.48982
5.19002	8.58444
5.18483	8.64972
5.17965	8.71547
5.17448	8.81884
5.16933	8.93725
5.16418	9.01674
5.15904	8.98238
5.15391	8.99786
5.14879	9.16478
5.14368	9.347
5.13859	9.46558
5.1335	9.53553
5.12842	9.57059
5.12335	9.56683
5.1183	9.65647
5.11325	9.80865
5.10821	9.81844
5.10318	9.83134
5.09817	9.91572
5.09316	10.0064
5.08816	10.0364
5.08317	10.064
5.07819	10.1011
5.07322	10.0997
5.06826	10.1245
5.06331	10.1837
5.05837	10.131
5.05344	10.1388
5.04852	10.2486
5.04361	10.3393
5.03871	10.3948
5.03382	10.4089
5.02894	10.4116
5.02406	10.4371
5.0192	10.4399
5.01435	10.4218
5.0095	10.4502
5.00467	10.4588
4.99984	10.5194
4.99502	10.5443
4.99021	10.4972
4.98542	10.5172
4.98063	10.5857
4.97585	10.6502
4.97108	10.6956
4.96632	10.6608
4.96156	10.5842
4.95682	10.5633
4.95209	10.5971
4.94736	10.5994
4.94264	10.5692
4.93794	10.6016
4.93324	10.5915
4.92855	10.5506
4.92387	10.5803
4.9192	10.6436
4.91453	10.6248
4.90988	10.5787
4.90524	10.5823
4.9006	10.5685
4.89597	10.6172
4.89135	10.7291
4.88674	10.7236
4.88214	10.699
4.87755	10.7285
4.87296	10.7453
4.86839	10.7744
4.86382	10.8258
4.85926	10.8473
4.85471	10.8156
4.85017	10.8558
4.84564	10.8921
4.84111	10.821
4.8366	10.8758
4.83209	10.9683
4.82759	10.9841
4.8231	11.0234
4.81862	11.048
4.81415	11.0244
4.80968	11.0591
4.80522	11.049
4.80077	11.0452
4.79633	11.1384
4.7919	11.2355
4.78747	11.225
4.78306	11.1544
4.77865	11.1692
4.77425	11.2261
4.76986	11.2994
4.76547	11.3637
4.7611	11.3243
4.75673	11.3499
4.75237	11.411
4.74802	11.4433
4.74367	11.5234
4.73934	11.5168
4.73501	11.5207
4.73069	11.5393
4.72638	11.6179
4.72207	11.712
4.71777	11.8469
4.71348	11.8935
4.7092	11.9509
4.70493	11.9884
4.70066	11.9708
4.69641	12.0344
4.69216	12.1427
4.68791	12.2053
4.68368	12.2786
4.67945	12.4133
4.67523	12.5537
4.67102	12.6549
4.66682	12.7074
4.66262	12.7838
4.65843	12.866
4.65425	12.9518
4.65007	13.0251
4.64591	13.0719
4.64175	13.195
4.6376	13.3489
4.63345	13.4723
4.62932	13.5886
4.62519	13.667
4.62106	13.725
4.61695	13.8168
4.61284	14.0083
4.60874	14.1444
4.60465	14.2053
4.60056	14.2389
4.59648	14.3128
4.59241	14.4253
4.58835	14.5117
4.58429	14.6362
4.58024	14.7487
4.5762	14.869
4.57216	15.0103
4.56814	15.033
4.56411	15.0668
4.5601	15.2479
4.55609	15.4846
4.55209	15.6346
4.5481	15.7828
4.54411	15.9062
4.54013	16.0039
4.53616	16.082
4.5322	16.1119
4.52824	16.2527
4.52429	16.4507
4.52034	16.6263
4.51641	16.8201
4.51247	16.921
4.50855	17.0229
4.50463	17.1822
4.50072	17.4092
4.49682	17.5318
4.49292	17.6149
4.48903	17.7659
4.48515	17.9956
4.48127	18.2863
4.4774	18.4978
4.47354	18.6505
4.46968	18.8351
4.46584	19.0118
4.46199	19.1734
4.45815	19.3408
4.45432	19.4856
4.4505	19.6174
4.44668	19.74
4.44287	19.9142
4.43907	20.0089
4.43527	20.0545
4.43148	20.2151
4.4277	20.4371
4.42392	20.6392
4.42015	20.7902
4.41638	21.05
4.41262	21.3152
4.40887	21.5548
4.40513	21.875
4.40139	22.1629
4.39765	22.4466
4.39393	22.8119
4.39021	23.0642
4.38649	23.2259
4.38278	23.4439
4.37908	23.7066
4.37539	23.9537
4.3717	24.185
4.36801	24.3642
4.36434	24.5263
4.36067	24.668
4.357	24.8331
4.35335	25.0378
4.34969	25.1663
4.34605	25.2474
4.34241	25.359
4.33877	25.51
4.33514	25.6383
4.33152	25.8128
4.32791	25.8966
4.3243	25.9407
4.32069	26.0038
4.3171	26.0482
4.31351	26.125
4.30992	26.2269
4.30634	26.3208
4.30277	26.4249
4.2992	26.5032
4.29564	26.6493
4.29208	26.6775
4.28853	26.6639
4.28499	26.7439
4.28145	26.8793
4.27792	26.974
4.27439	27.051
4.27087	27.075
4.26735	27.1348
4.26384	27.2781
4.26034	27.4427
4.25684	27.5032
4.25335	27.5054
4.24986	27.5581
4.24638	27.6911
4.24291	27.7243
4.23944	27.7003
4.23598	27.7264
4.23252	27.7802
4.22906	27.8917
4.22562	27.9694
4.22218	28.0921
4.21874	28.2242
4.21531	28.2189
4.21189	28.2733
4.20847	28.3701
4.20506	28.4051
4.20165	28.5071
4.19825	28.6101
4.19485	28.6482
4.19146	28.6481
4.18807	28.718
4.18469	28.7949
4.18132	28.8723
4.17795	28.9287
4.17458	28.9529
4.17123	29.015
4.16787	29.007
4.16453	29.1
4.16118	29.1973
4.15785	29.1757
4.15451	29.2608
4.15119	29.353
4.14787	29.3106
4.14455	29.3182
4.14124	29.4
4.13794	29.4809
4.13464	29.4975
4.13134	29.4942
4.12805	29.5335
4.12477	29.6173
4.12149	29.6907
4.11822	29.6572
4.11495	29.672
4.11168	29.7155
4.10843	29.7274
4.10517	29.7721
4.10192	29.7461
4.09868	29.7364
4.09545	29.814
4.09221	29.8987
4.08899	29.9041
4.08576	29.8178
4.08255	29.7615
4.07933	29.8112
4.07613	29.8796
4.07292	29.9118
4.06973	30.0015
4.06654	30.0418
4.06335	30.0784
4.06017	30.0127
4.05699	29.9285
4.05382	29.8947
4.05065	29.9233
4.04749	30.0112
4.04433	30.1083
4.04118	30.0855
4.03803	30.0753
4.03489	30.0937
4.03175	30.0758
4.02862	30.0675
4.02549	30.0563
4.02237	30.1213
4.01925	30.1591
4.01614	30.1493
4.01303	30.194
4.00993	30.1782
4.00683	30.1794
4.00373	30.1972
4.00064	30.2402
3.99756	30.2972
3.99448	30.3262
3.9914	30.3088
3.98833	30.3174
3.98527	30.383
3.98221	30.421
3.97915	30.3781
3.9761	30.3228
3.97305	30.35
3.97001	30.405
3.96697	30.4023
3.96394	30.4223
3.96091	30.394
3.95789	30.3798
3.95487	30.4219
3.95186	30.3684
3.94885	30.3229
3.94584	30.354
3.94284	30.3624
3.93984	30.3564
3.93685	30.3435
3.93386	30.3094
3.93088	30.2154
3.9279	30.1451
3.92493	30.1938
3.92196	30.2906
3.919	30.2777
3.91604	30.1945
3.91308	30.1502
3.91013	30.1504
3.90718	30.147
3.90424	30.074
3.9013	30.0158
3.89837	29.9539
3.89544	29.9452
3.89252	29.9526
3.8896	30.0075
3.88668	29.9734
3.88377	29.8966
3.88086	29.8872
3.87796	29.8523
3.87506	29.8616
3.87217	29.8484
3.86928	29.8149
3.86639	29.7765
3.86351	29.6926
3.86064	29.6849
3.85776	29.6911
3.8549	29.6412
3.85203	29.6383
3.84917	29.6823
3.84631	29.6406
3.84346	29.5435
3.84062	29.4902
3.83777	29.5109
3.83494	29.5544
3.8321	29.5639
3.82927	29.5666
3.82644	29.5287
3.82362	29.4288
3.82081	29.3822
3.81799	29.4122
3.81518	29.3639
3.81238	29.3833
3.80958	29.3286
3.80678	29.2149
3.80399	29.203
3.8012	29.1811
3.79841	29.1684
3.79563	29.1246
3.79286	29.0724
3.79008	28.9892
3.78731	28.9508
3.78455	28.982
3.78179	28.9439
3.77903	28.8488
3.77628	28.7902
3.77353	28.7617
3.77079	28.7956
3.76805	28.7541
3.76531	28.6792
3.76258	28.627
3.75985	28.5327
3.75713	28.4992
3.7544	28.4473
3.75169	28.3336
3.74898	28.2643
3.74627	28.2569
3.74356	28.1715
3.74086	28.0188
3.73816	27.9709
3.73547	27.998
3.73278	27.866
3.7301	27.7295
3.72741	27.7562
3.72474	27.6984
3.72206	27.4194
3.71939	27.3397
3.71673	27.3665
3.71406	27.2736
3.71141	27.1299
3.70875	27.0264
3.7061	26.9926
3.70345	26.9538
3.70081	26.9233
3.69817	26.8702
3.69553	26.7965
3.6929	26.833
3.69027	26.7874
3.68765	26.6966
3.68503	26.7489
3.68241	26.784
3.6798	26.7311
3.67719	26.6245
3.67458	26.6026
3.67198	26.6011
3.66938	26.5244
3.66678	26.5074
3.66419	26.4462
3.66161	26.3626
3.65902	26.3175
3.65644	26.456
3.65387	26.4568
3.65129	26.3045
3.64872	26.2379
3.64616	26.2359
3.64359	26.1703
3.64103	26.1332
3.63848	26.1862
3.63593	26.1192
3.63338	26.0937
3.63084	26.0859
3.6283	26.0182
3.62576	25.9949
3.62322	25.9541
3.62069	25.9113
3.61817	25.8565
3.61564	25.8734
3.61312	25.8601
3.61061	25.7879
3.6081	25.7607
3.60559	25.8477
3.60308	25.8958
3.60058	25.8143
3.59808	25.6605
3.59558	25.702
3.59309	25.7692
3.59061	25.7836
3.58812	25.6851
3.58564	25.5492
3.58316	25.5232
3.58069	25.5344
3.57822	25.5075
3.57575	25.4418
3.57328	25.4051
3.57082	25.3283
3.56836	25.2343
3.56591	25.2136
3.56346	25.1765
3.56101	25.1807
3.55857	25.188
3.55613	25.1697
3.55369	25.138
3.55126	25.0163
3.54883	24.9232
3.5464	24.9284
3.54397	24.9013
3.54155	24.8248
3.53914	24.7041
3.53672	24.6368
3.53431	24.6264
3.5319	24.6143
3.5295	24.5685
3.5271	24.5224
3.5247	24.4294
3.52231	24.2274
3.51991	24.0973
3.51753	24.0718
3.51514	24.055
3.51276	24.0315
3.51038	24.0197
3.50801	23.9189
3.50563	23.7099
3.50327	23.6596
3.5009	23.5871
3.49854	23.5682
3.49618	23.6273
3.49382	23.5968
3.49147	23.5534
3.48912	23.4197
3.48677	23.3474
3.48443	23.3018
3.48209	23.2496
3.47975	23.1704
3.47742	23.1889
3.47509	23.2062
3.47276	23.0975
3.47044	23.0583
3.46812	23.0552
