Name: Amygdaloidal Basalt
Type: Rock
Class: Igneous
Subclass:  Basic 
Particle Size: Solid surface
Sample No.: Ward34.txt
Owner: JPL
Wavelength range:  IR 
Origin: Ward's Collection of American Rocks.  Sample locality - Mohawk Mine, Ahmeek, Keweenaw County, Michigan.
Collected by:  Ward's Natural Science
Description: A purplish, compact rock with innumerable amygdules of varying
size filled largely with quartz, epidote, calcite, and chlorite.
Geologic Age - Pre-Cambrian.



Measurement: Hemispherical reflectance
First Column: X
Second Column: Y
X Units: Wavelength (micrometers)
Y Units: Reflectance (percent)
First X Value: 15.3871
Last X Value: 1.9998
Number of X Values: 2257
Additional information: None

15.3871   2.07533
15.3416   1.59856
15.2964   1.40032
15.2514   1.61554
15.2066   1.90031
15.1622   1.91146
15.1180   1.65287
15.0740   1.61446
15.0303   1.67252
14.9869   1.68527
14.9437   1.72272
14.9008   1.91388
14.8581   2.13608
14.8156   2.25821
14.7734   2.15774
14.7314   2.09480
14.6897   2.04156
14.6482   2.10762
14.6069   2.18804
14.5659   2.22434
14.5251   2.32545
14.4845   2.43817
14.4442   2.24896
14.4041   1.97217
14.3642   2.07184
14.3245   2.21628
14.2850   2.28827
14.2458   2.38067
14.2068   2.44424
14.1679   2.55117
14.1293   2.39975
14.0909   2.50260
14.0528   2.70933
14.0148   2.65937
13.9770   2.37906
13.9394   2.30780
13.9021   2.38331
13.8649   2.38554
13.8279   2.41690
13.7911   2.32434
13.7546   2.20018
13.7182   2.21135
13.6820   2.29054
13.6460   2.36272
13.6101   2.46492
13.5745   2.53857
13.5391   2.71622
13.5038   2.85782
13.4687   2.80210
13.4339   2.76563
13.3991   2.68370
13.3646   2.69510
13.3302   2.83300
13.2961   2.84889
13.2621   2.68383
13.2282   2.51430
13.1946   2.59826
13.1611   2.70081
13.1278   2.74694
13.0946   2.78490
13.0616   2.91126
13.0288   3.10371
12.9962   3.20121
12.9637   2.90977
12.9313   2.70061
12.8992   2.71729
12.8672   2.88410
12.8353   2.84186
12.8036   2.75349
12.7721   2.89047
12.7407   2.95946
12.7095   2.95978
12.6784   2.93644
12.6475   2.95289
12.6167   2.98061
12.5861   2.83853
12.5556   2.75725
12.5253   2.68602
12.4951   2.82054
12.4651   2.96650
12.4352   2.97381
12.4054   2.74526
12.3758   2.75523
12.3463   2.87058
12.3170   2.98693
12.2878   3.10477
12.2588   3.12947
12.2299   3.15120
12.2011   3.21717
12.1725   3.30238
12.1439   3.35278
12.1156   3.28626
12.0873   3.31520
12.0592   3.36568
12.0312   3.38635
12.0034   3.43216
11.9757   3.53156
11.9481   3.57636
11.9206   3.65500
11.8933   3.67882
11.8661   3.75708
11.8390   3.68378
11.8120   3.80879
11.7852   3.85919
11.7584   3.74255
11.7318   3.65547
11.7053   3.73161
11.6790   3.89322
11.6527   3.82538
11.6266   3.80387
11.6006   3.87216
11.5747   3.92621
11.5489   3.94514
11.5233   3.97863
11.4977   4.03319
11.4723   4.17893
11.4469   4.22327
11.4217   4.16222
11.3966   3.97626
11.3716   4.10928
11.3468   4.32448
11.3220   4.28393
11.2973   4.23991
11.2728   4.32808
11.2483   4.21225
11.2240   4.11201
11.1997   4.08152
11.1756   4.10670
11.1515   4.34070
11.1276   4.54056
11.1038   4.70844
11.0801   4.72429
11.0564   4.73177
11.0329   4.66133
11.0095   4.63232
10.9862   4.79989
10.9629   4.87830
10.9398   4.90844
10.9168   4.99552
10.8938   5.05783
10.8710   5.16317
10.8483   5.18780
10.8256   5.27118
10.8031   5.29863
10.7806   5.23269
10.7582   5.24204
10.7360   5.25415
10.7138   5.20618
10.6917   5.25306
10.6697   5.36809
10.6478   5.58855
10.6260   5.62138
10.6042   5.64835
10.5826   5.68615
10.5610   5.72330
10.5396   5.81127
10.5182   5.89858
10.4969   5.94459
10.4757   5.97540
10.4546   6.07832
10.4335   6.09544
10.4126   6.07546
10.3917   6.23376
10.3709   6.44162
10.3502   6.45426
10.3296   6.48773
10.3091   6.52885
10.2886   6.57143
10.2683   6.71617
10.2480   6.78087
10.2277   6.79779
10.2076   6.96961
10.1876   7.16813
10.1676   7.36745
10.1477   7.50598
10.1279   7.53561
10.1081   7.66022
10.0885   7.75782
10.0689   7.84474
10.0494   7.92199
10.0299   8.01197
10.0106   8.21838
 9.9913   8.42081
 9.9720   8.60052
 9.9529   8.78311
 9.9338   8.84707
 9.9148   8.98063
 9.8959   9.15812
 9.8771   9.14357
 9.8583   9.26081
 9.8396   9.44767
 9.8210   9.54703
 9.8024   9.58912
 9.7839   9.67124
 9.7655   9.78299
 9.7471   9.97648
 9.7288  10.11140
 9.7106  10.14950
 9.6925  10.26240
 9.6744  10.31750
 9.6564  10.20180
 9.6384  10.34320
 9.6205  10.49100
 9.6027  10.33160
 9.5850  10.23440
 9.5673  10.20230
 9.5497  10.13330
 9.5321  10.15880
 9.5146  10.21340
 9.4972  10.28110
 9.4798  10.18140
 9.4625   9.96546
 9.4453   9.79783
 9.4281   9.69853
 9.4110   9.38186
 9.3940   9.17350
 9.3770   9.01406
 9.3600   8.95555
 9.3432   8.68035
 9.3264   8.35758
 9.3096   8.35128
 9.2930   8.30495
 9.2763   8.15761
 9.2598   8.23017
 9.2432   8.25217
 9.2268   8.14433
 9.2104   7.96526
 9.1941   7.85800
 9.1778   7.93590
 9.1616   7.94317
 9.1454   7.92922
 9.1293   7.97737
 9.1133   7.90552
 9.0973   7.80794
 9.0814   7.71722
 9.0655   7.73876
 9.0497   7.75714
 9.0339   7.75734
 9.0182   7.75339
 9.0025   7.64284
 8.9870   7.79101
 8.9714   7.95005
 8.9559   7.85999
 8.9405   7.91818
 8.9251   7.93891
 8.9097   7.92380
 8.8945   7.96693
 8.8792   8.06094
 8.8641   7.91813
 8.8489   7.93905
 8.8338   8.20577
 8.8188   8.23823
 8.8039   8.14981
 8.7889   8.11098
 8.7741   8.15211
 8.7592   8.18439
 8.7445   8.19157
 8.7297   8.13844
 8.7151   8.10083
 8.7005   8.05564
 8.6859   8.04888
 8.6714   8.02525
 8.6569   8.00737
 8.6425   8.00816
 8.6281   8.10513
 8.6137   7.93471
 8.5994   7.53148
 8.5852   7.47221
 8.5710   7.59629
 8.5569   7.66315
 8.5428   7.58907
 8.5287   7.31677
 8.5147   7.23470
 8.5008   7.21909
 8.4869   7.22380
 8.4730   7.04633
 8.4592   6.81768
 8.4454   6.71114
 8.4316   6.65278
 8.4180   6.49047
 8.4043   6.23599
 8.3907   6.11356
 8.3772   6.10853
 8.3637   6.04826
 8.3502   5.88517
 8.3368   5.77880
 8.3234   5.71799
 8.3100   5.77467
 8.2967   5.65006
 8.2835   5.50852
 8.2703   5.66437
 8.2571   5.63293
 8.2440   5.29787
 8.2309   5.08617
 8.2179   4.97940
 8.2049   4.72879
 8.1919   4.46159
 8.1790   4.24589
 8.1661   4.15505
 8.1532   4.05347
 8.1404   3.86602
 8.1277   3.66211
 8.1150   3.50626
 8.1023   3.49281
 8.0897   3.41565
 8.0770   3.24467
 8.0645   3.08510
 8.0520   2.91186
 8.0395   2.84116
 8.0270   2.80948
 8.0146   2.75176
 8.0023   2.65944
 7.9899   2.69660
 7.9776   2.58364
 7.9654   2.55748
 7.9532   2.55838
 7.9410   2.46635
 7.9288   2.39135
 7.9167   2.32886
 7.9047   2.33014
 7.8926   2.38512
 7.8807   2.51660
 7.8687   2.59327
 7.8568   2.42186
 7.8449   2.32562
 7.8330   2.31967
 7.8212   2.32508
 7.8094   2.27601
 7.7977   2.19514
 7.7860   2.14375
 7.7743   2.19318
 7.7627   2.24532
 7.7511   2.30507
 7.7395   2.25342
 7.7280   2.23143
 7.7165   2.18613
 7.7050   2.05092
 7.6936   2.04598
 7.6822   2.07806
 7.6708   2.05554
 7.6595   2.10778
 7.6482   2.11933
 7.6369   2.08104
 7.6257   1.97628
 7.6145   1.84705
 7.6033   1.91551
 7.5922   2.00606
 7.5811   2.03356
 7.5700   2.00065
 7.5590   1.96624
 7.5480   1.98042
 7.5370   1.92480
 7.5261   1.87523
 7.5152   1.90753
 7.5043   2.00665
 7.4935   2.06708
 7.4826   2.01724
 7.4718   2.07792
 7.4611   2.13658
 7.4504   2.14374
 7.4397   2.23275
 7.4290   2.26236
 7.4184   2.10920
 7.4078   2.03000
 7.3972   2.05431
 7.3867   2.10533
 7.3762   2.12146
 7.3657   2.02324
 7.3553   2.08698
 7.3449   2.17822
 7.3345   2.06527
 7.3241   2.08799
 7.3138   2.16217
 7.3035   2.12114
 7.2932   2.05110
 7.2830   2.12475
 7.2727   2.22160
 7.2626   2.24685
 7.2524   2.15157
 7.2423   2.11051
 7.2322   2.19375
 7.2221   2.28940
 7.2120   2.40011
 7.2020   2.43423
 7.1921   2.34979
 7.1821   2.37656
 7.1722   2.43144
 7.1623   2.37541
 7.1524   2.43845
 7.1425   2.50028
 7.1327   2.47561
 7.1229   2.53575
 7.1131   2.57422
 7.1034   2.40405
 7.0937   2.30312
 7.0840   2.36537
 7.0743   2.42541
 7.0647   2.47202
 7.0551   2.39050
 7.0455   2.25592
 7.0359   2.19521
 7.0264   2.22323
 7.0169   2.22694
 7.0074   2.22417
 6.9979   2.16800
 6.9885   2.29187
 6.9791   2.45210
 6.9697   2.39359
 6.9604   2.35509
 6.9510   2.27232
 6.9417   2.30773
 6.9324   2.39834
 6.9232   2.44472
 6.9140   2.48591
 6.9047   2.56887
 6.8956   2.56267
 6.8864   2.60177
 6.8773   2.67505
 6.8682   2.68145
 6.8591   2.74101
 6.8500   2.82749
 6.8410   2.81071
 6.8320   2.80003
 6.8230   2.88317
 6.8140   2.87108
 6.8051   2.90804
 6.7962   3.08171
 6.7873   3.18075
 6.7784   3.11839
 6.7695   3.20037
 6.7607   3.25705
 6.7519   3.21163
 6.7431   3.27250
 6.7344   3.42757
 6.7256   3.51076
 6.7169   3.53257
 6.7082   3.51493
 6.6996   3.53776
 6.6909   3.56316
 6.6823   3.57801
 6.6737   3.62317
 6.6651   3.59951
 6.6566   3.59253
 6.6480   3.62269
 6.6395   3.66234
 6.6310   3.64276
 6.6226   3.56953
 6.6141   3.66054
 6.6057   3.73986
 6.5973   3.72341
 6.5889   3.78273
 6.5805   3.89004
 6.5722   3.89296
 6.5639   3.78142
 6.5556   3.72666
 6.5473   3.73979
 6.5390   3.75952
 6.5308   3.72788
 6.5226   3.69437
 6.5144   3.62399
 6.5062   3.56277
 6.4981   3.70503
 6.4900   3.74382
 6.4818   3.60830
 6.4737   3.55114
 6.4657   3.47764
 6.4576   3.47744
 6.4496   3.52511
 6.4416   3.57591
 6.4336   3.57084
 6.4256   3.48322
 6.4177   3.53707
 6.4097   3.49387
 6.4018   3.34976
 6.3939   3.37720
 6.3860   3.38161
 6.3782   3.34358
 6.3704   3.40652
 6.3625   3.42429
 6.3547   3.46821
 6.3470   3.47449
 6.3392   3.34936
 6.3315   3.26164
 6.3237   3.23532
 6.3160   3.16068
 6.3083   3.16554
 6.3007   3.19974
 6.2930   3.15481
 6.2854   3.09220
 6.2778   3.02769
 6.2702   3.06504
 6.2626   3.07711
 6.2551   3.03586
 6.2476   2.95387
 6.2400   2.92563
 6.2325   3.03837
 6.2251   3.06133
 6.2176   3.00703
 6.2101   2.96792
 6.2027   2.91795
 6.1953   2.86104
 6.1879   2.76981
 6.1805   2.67834
 6.1732   2.63759
 6.1658   2.69872
 6.1585   2.77034
 6.1512   2.84578
 6.1439   2.82564
 6.1367   2.70114
 6.1294   2.60733
 6.1222   2.68570
 6.1149   2.79204
 6.1077   2.78126
 6.1006   2.66025
 6.0934   2.69035
 6.0862   2.81266
 6.0791   2.86999
 6.0720   2.81564
 6.0649   2.71646
 6.0578   2.79623
 6.0507   2.89526
 6.0437   2.84048
 6.0366   2.79054
 6.0296   2.80374
 6.0226   2.81177
 6.0156   2.84037
 6.0087   2.86983
 6.0017   2.87255
 5.9948   2.90726
 5.9878   2.99989
 5.9809   3.03427
 5.9740   3.07068
 5.9672   3.03420
 5.9603   3.01131
 5.9535   3.07698
 5.9466   3.23032
 5.9398   3.32813
 5.9330   3.25960
 5.9262   3.25304
 5.9195   3.31223
 5.9127   3.36080
 5.9060   3.42365
 5.8993   3.52912
 5.8926   3.47293
 5.8859   3.47060
 5.8792   3.61367
 5.8726   3.74693
 5.8659   3.74810
 5.8593   3.68241
 5.8527   3.70252
 5.8461   3.80239
 5.8395   3.85117
 5.8329   3.83079
 5.8264   3.89735
 5.8198   3.90298
 5.8133   3.86619
 5.8068   3.93576
 5.8003   3.97815
 5.7938   3.99488
 5.7874   4.03854
 5.7809   4.08282
 5.7745   4.15350
 5.7680   4.25329
 5.7616   4.27299
 5.7552   4.22877
 5.7489   4.31144
 5.7425   4.27511
 5.7361   4.16938
 5.7298   4.23869
 5.7235   4.32097
 5.7172   4.36020
 5.7109   4.41192
 5.7046   4.40133
 5.6983   4.41238
 5.6921   4.43298
 5.6858   4.45590
 5.6796   4.50815
 5.6734   4.50515
 5.6672   4.50870
 5.6610   4.57199
 5.6548   4.58375
 5.6487   4.63996
 5.6425   4.76365
 5.6364   4.80415
 5.6303   4.72877
 5.6242   4.64142
 5.6181   4.63423
 5.6120   4.67958
 5.6059   4.78433
 5.5999   4.82290
 5.5938   4.85861
 5.5878   4.88023
 5.5818   4.97230
 5.5758   5.01988
 5.5698   4.91626
 5.5638   4.88043
 5.5578   4.94615
 5.5519   5.03166
 5.5460   5.05242
 5.5400   5.06694
 5.5341   5.12602
 5.5282   5.14558
 5.5223   5.13294
 5.5164   5.11549
 5.5106   5.11580
 5.5047   5.15092
 5.4989   5.21192
 5.4931   5.31534
 5.4873   5.29372
 5.4815   5.20758
 5.4757   5.27214
 5.4699   5.44576
 5.4641   5.53260
 5.4584   5.48871
 5.4527   5.42286
 5.4469   5.41749
 5.4412   5.39020
 5.4355   5.36854
 5.4298   5.43269
 5.4241   5.51813
 5.4185   5.50087
 5.4128   5.52088
 5.4072   5.61452
 5.4015   5.61589
 5.3959   5.55363
 5.3903   5.57816
 5.3847   5.55937
 5.3791   5.55045
 5.3735   5.62048
 5.3680   5.68112
 5.3624   5.65447
 5.3569   5.58853
 5.3514   5.62805
 5.3458   5.70100
 5.3403   5.70619
 5.3348   5.70076
 5.3294   5.63244
 5.3239   5.59043
 5.3184   5.70493
 5.3130   5.79588
 5.3075   5.85292
 5.3021   5.89388
 5.2967   5.81618
 5.2913   5.78899
 5.2859   5.88181
 5.2805   5.95540
 5.2751   6.01498
 5.2698   6.05236
 5.2644   6.07118
 5.2591   6.06216
 5.2538   6.17366
 5.2485   6.27489
 5.2431   6.29369
 5.2378   6.29985
 5.2326   6.36638
 5.2273   6.45358
 5.2220   6.43526
 5.2168   6.43432
 5.2115   6.49190
 5.2063   6.56497
 5.2011   6.60086
 5.1959   6.66604
 5.1907   6.80473
 5.1855   6.79587
 5.1803   6.82239
 5.1751   6.89538
 5.1700   6.91265
 5.1648   6.97695
 5.1597   7.08506
 5.1545   7.13185
 5.1494   7.08532
 5.1443   7.08205
 5.1392   7.14054
 5.1341   7.25055
 5.1291   7.30579
 5.1240   7.32853
 5.1189   7.33620
 5.1139   7.32117
 5.1088   7.32893
 5.1038   7.42715
 5.0988   7.44607
 5.0938   7.43121
 5.0888   7.47258
 5.0838   7.48593
 5.0788   7.51086
 5.0738   7.57146
 5.0689   7.58428
 5.0639   7.61047
 5.0590   7.70347
 5.0541   7.77881
 5.0491   7.75363
 5.0442   7.63287
 5.0393   7.60892
 5.0344   7.70137
 5.0296   7.73362
 5.0247   7.71214
 5.0198   7.72038
 5.0150   7.72679
 5.0101   7.76834
 5.0053   7.82746
 5.0004   7.73878
 4.9956   7.76068
 4.9908   7.90535
 4.9860   7.99197
 4.9812   8.00253
 4.9765   7.96897
 4.9717   7.93471
 4.9669   7.95094
 4.9622   8.01976
 4.9574   8.12717
 4.9527   8.12967
 4.9480   8.05925
 4.9432   8.05892
 4.9385   8.17786
 4.9338   8.24860
 4.9291   8.28810
 4.9245   8.36494
 4.9198   8.43624
 4.9151   8.49223
 4.9105   8.54559
 4.9058   8.52972
 4.9012   8.58486
 4.8966   8.69541
 4.8919   8.62344
 4.8873   8.56796
 4.8827   8.65334
 4.8781   8.71897
 4.8736   8.70871
 4.8690   8.68996
 4.8644   8.71704
 4.8599   8.79276
 4.8553   8.94320
 4.8508   8.97039
 4.8462   8.90358
 4.8417   8.91481
 4.8372   8.99273
 4.8327   8.99507
 4.8282   8.97280
 4.8237   9.00891
 4.8192   9.03482
 4.8147   8.97106
 4.8103   8.96743
 4.8058   8.96756
 4.8014   9.00220
 4.7969   9.06820
 4.7925   9.12587
 4.7881   9.08707
 4.7836   9.10438
 4.7792   9.10494
 4.7748   8.97399
 4.7704   9.01934
 4.7660   9.13938
 4.7617   9.11812
 4.7573   9.07600
 4.7530   9.09084
 4.7486   9.22680
 4.7443   9.27110
 4.7399   9.23355
 4.7356   9.22405
 4.7313   9.25884
 4.7270   9.19763
 4.7226   9.16496
 4.7184   9.25638
 4.7141   9.35226
 4.7098   9.29170
 4.7055   9.27422
 4.7012   9.42530
 4.6970   9.46346
 4.6927   9.40275
 4.6885   9.40601
 4.6842   9.53590
 4.6800   9.50450
 4.6758   9.44912
 4.6716   9.49821
 4.6674   9.53048
 4.6632   9.52440
 4.6590   9.50611
 4.6548   9.51216
 4.6506   9.56439
 4.6465   9.60087
 4.6423   9.64961
 4.6382   9.79451
 4.6340   9.80674
 4.6299   9.76984
 4.6258   9.75229
 4.6216   9.74124
 4.6175   9.80843
 4.6134   9.89394
 4.6093   9.89355
 4.6052   9.86261
 4.6011   9.90059
 4.5971   9.87921
 4.5930   9.95906
 4.5889  10.03110
 4.5849  10.09100
 4.5808  10.09560
 4.5768  10.08240
 4.5727  10.03440
 4.5687   9.98480
 4.5647  10.06800
 4.5607  10.14010
 4.5567  10.12620
 4.5526  10.11830
 4.5487  10.10670
 4.5447  10.14290
 4.5407  10.21740
 4.5367  10.19170
 4.5328  10.30280
 4.5288  10.42010
 4.5248  10.40450
 4.5209  10.37740
 4.5170  10.34830
 4.5130  10.34220
 4.5091  10.37290
 4.5052  10.42870
 4.5013  10.43360
 4.4974  10.50290
 4.4935  10.55430
 4.4896  10.61690
 4.4857  10.61010
 4.4818  10.66310
 4.4779  10.68510
 4.4741  10.64150
 4.4702  10.70190
 4.4664  10.73280
 4.4625  10.75790
 4.4587  10.75760
 4.4549  10.74750
 4.4510  10.72110
 4.4472  10.77150
 4.4434  10.82720
 4.4396  10.76520
 4.4358  10.81380
 4.4320  10.88700
 4.4282  10.92610
 4.4245  10.95690
 4.4207  11.00150
 4.4169  10.99800
 4.4132  11.07180
 4.4094  11.15740
 4.4057  11.10930
 4.4019  11.15880
 4.3982  11.26450
 4.3945  11.36050
 4.3907  11.30670
 4.3870  11.17800
 4.3833  11.18540
 4.3796  11.27530
 4.3759  11.41250
 4.3722  11.47750
 4.3685  11.45890
 4.3649  11.49220
 4.3612  11.47050
 4.3575  11.48140
 4.3539  11.50630
 4.3502  11.56080
 4.3466  11.57820
 4.3429  11.51360
 4.3393  11.61820
 4.3357  11.65140
 4.3320  11.61750
 4.3284  11.73240
 4.3248  11.84260
 4.3212  11.81330
 4.3176  11.75120
 4.3140  11.78640
 4.3105  11.74060
 4.3069  11.70520
 4.3033  11.74000
 4.2997  11.69890
 4.2962  11.69300
 4.2926  11.74770
 4.2890  11.76350
 4.2855  11.80510
 4.2820  11.91950
 4.2784  11.94170
 4.2749  11.85580
 4.2714  11.94150
 4.2679  12.05550
 4.2644  12.10940
 4.2609  12.19790
 4.2574  12.28120
 4.2539  12.28070
 4.2504  12.24430
 4.2469  12.10470
 4.2434  12.05230
 4.2400  12.05660
 4.2365  12.10800
 4.2330  12.01090
 4.2296  12.00950
 4.2261  12.18410
 4.2227  12.29640
 4.2193  12.35850
 4.2158  12.47000
 4.2124  12.59300
 4.2090  12.67340
 4.2056  12.72040
 4.2022  12.71890
 4.1988  12.81150
 4.1954  12.92690
 4.1920  12.94920
 4.1886  12.92710
 4.1852  12.98320
 4.1818  13.04370
 4.1785  13.04230
 4.1751  12.96640
 4.1717  12.90090
 4.1684  12.95130
 4.1650  13.14040
 4.1617  13.25670
 4.1584  13.18830
 4.1550  13.15430
 4.1517  13.19000
 4.1484  13.29200
 4.1451  13.35080
 4.1418  13.32130
 4.1384  13.31990
 4.1351  13.35220
 4.1319  13.38990
 4.1286  13.42740
 4.1253  13.45650
 4.1220  13.39300
 4.1187  13.37760
 4.1155  13.53970
 4.1122  13.59530
 4.1089  13.60830
 4.1057  13.61350
 4.1024  13.60760
 4.0992  13.72380
 4.0959  13.72750
 4.0927  13.60470
 4.0895  13.56500
 4.0863  13.56000
 4.0830  13.58150
 4.0798  13.66470
 4.0766  13.74630
 4.0734  13.86710
 4.0702  13.91930
 4.0670  13.84770
 4.0639  13.77270
 4.0607  13.85870
 4.0575  13.96560
 4.0543  13.96400
 4.0511  14.07990
 4.0480  14.10220
 4.0448  14.00350
 4.0417  14.05030
 4.0385  14.11960
 4.0354  14.09680
 4.0323  14.04540
 4.0291  14.06900
 4.0260  14.04450
 4.0229  13.96950
 4.0197  14.11800
 4.0166  14.27050
 4.0135  14.22300
 4.0104  14.18770
 4.0073  14.30280
 4.0042  14.32170
 4.0011  14.31630
 3.9981  14.33820
 3.9950  14.34640
 3.9919  14.27260
 3.9888  14.27660
 3.9857  14.25790
 3.9827  14.18640
 3.9796  14.23770
 3.9766  14.33180
 3.9735  14.38810
 3.9705  14.31230
 3.9675  14.31160
 3.9644  14.41190
 3.9614  14.46080
 3.9584  14.39650
 3.9554  14.30560
 3.9523  14.32800
 3.9493  14.39450
 3.9463  14.44020
 3.9433  14.45210
 3.9403  14.44050
 3.9373  14.45790
 3.9343  14.41720
 3.9314  14.31750
 3.9284  14.33870
 3.9254  14.44040
 3.9224  14.39250
 3.9195  14.33860
 3.9165  14.47130
 3.9136  14.57600
 3.9106  14.49660
 3.9077  14.39680
 3.9047  14.43740
 3.9018  14.51460
 3.8988  14.48600
 3.8959  14.53630
 3.8930  14.54330
 3.8901  14.51590
 3.8872  14.44870
 3.8842  14.50250
 3.8813  14.55000
 3.8784  14.51350
 3.8755  14.59670
 3.8726  14.55640
 3.8697  14.45240
 3.8669  14.50720
 3.8640  14.37920
 3.8611  14.25640
 3.8582  14.29360
 3.8554  14.49860
 3.8525  14.64030
 3.8496  14.57990
 3.8468  14.53460
 3.8439  14.48690
