Name: Glauberite Na_2Ca(SO_4)_2
Type: Mineral
Class: Sulfates
Subclass: 
Particle Size: 0-45um
Sample No.: SO-8A
Owner: JPL
Wavelength range: IR
Origin: USA, Arizona, Yavapai County, Campe Verde
Collected by Burminco
Description: 





Measurement: Hemispherical reflectance
First Column: X
Second Column: Y
X Units:  Wavelength (micrometers)
Y Units:  Reflectance (percent)
First X Value: 15.3853
Last X Value: 2.00032
Number of X Values: 2256
Additional information: so08aa.txt
 
15.3853	4.75932
15.3397	5.19425
15.2945	4.90176
15.2495	3.93882
15.2048	3.26306
15.1603	3.06075
15.1161	2.81198
15.0722	3.05175
15.0285	3.59233
14.9851	4.24497
14.9419	4.98571
14.8989	5.65051
14.8563	6.30169
14.8138	7.07448
14.7716	8.05567
14.7296	9.05971
14.6879	9.7847
14.6464	10.2782
14.6052	10.8289
14.5641	11.6266
14.5233	12.4611
14.4828	13.3215
14.4424	14.1097
14.4023	14.6277
14.3624	15.1562
14.3227	15.8469
14.2833	16.5407
14.244	17.249
14.205	17.7219
14.1662	18.044
14.1276	18.4147
14.0892	18.8194
14.051	19.1039
14.0131	19.3859
13.9753	19.6998
13.9377	19.8704
13.9004	20.0215
13.8632	20.3968
13.8262	20.8028
13.7895	21.1311
13.7529	21.4842
13.7165	21.8917
13.6803	22.1828
13.6443	22.3534
13.6085	22.4823
13.5729	22.5619
13.5374	22.5227
13.5022	22.6823
13.4671	22.7634
13.4322	22.6705
13.3975	22.5716
13.363	22.5555
13.3286	22.9007
13.2944	23.312
13.2604	23.5231
13.2266	23.6116
13.193	23.7314
13.1595	23.9264
13.1262	24.2216
13.093	24.5074
13.06	24.9045
13.0272	25.2987
12.9946	25.7126
12.9621	26.2164
12.9298	26.5658
12.8976	26.9162
12.8656	27.3844
12.8337	27.8145
12.8021	28.377
12.7705	28.9381
12.7391	29.3217
12.7079	29.7031
12.6769	30.1082
12.6459	30.4028
12.6152	30.7372
12.5845	31.1072
12.5541	31.5619
12.5238	31.9378
12.4936	32.2315
12.4635	32.6695
12.4337	33.1076
12.4039	33.4411
12.3743	33.792
12.3448	34.2367
12.3155	34.554
12.2863	34.6869
12.2573	34.7211
12.2284	34.8275
12.1996	34.9122
12.171	34.9693
12.1425	34.9156
12.1141	34.8863
12.0859	34.935
12.0578	34.9753
12.0298	35.0181
12.0019	35.1747
11.9742	35.2033
11.9466	35.1493
11.9192	35.168
11.8918	35.2834
11.8646	35.4848
11.8375	35.5763
11.8106	35.583
11.7837	35.6046
11.757	35.6516
11.7304	35.754
11.7039	35.8296
11.6776	35.7772
11.6513	35.9006
11.6252	35.9958
11.5992	35.9877
11.5733	35.9285
11.5475	36.0254
11.5219	36.0717
11.4963	35.9758
11.4709	35.8536
11.4455	35.6561
11.4203	35.4453
11.3952	35.1394
11.3702	34.8423
11.3454	34.6274
11.3206	34.464
11.2959	34.307
11.2714	34.2082
11.2469	34.1341
11.2226	34.2867
11.1983	34.4732
11.1742	34.5744
11.1502	34.4812
11.1263	34.19
11.1024	33.726
11.0787	33.2619
11.0551	32.8961
11.0316	32.6486
11.0081	32.4179
10.9848	32.1384
10.9616	31.8893
10.9385	31.7741
10.9154	31.5793
10.8925	31.2777
10.8697	30.9566
10.8469	30.776
10.8243	30.6341
10.8017	30.4197
10.7793	30.284
10.7569	30.1947
10.7346	30.2499
10.7125	30.323
10.6904	30.1993
10.6684	30.0312
10.6465	29.9112
10.6247	29.7915
10.6029	29.4984
10.5813	29.2638
10.5597	29.0814
10.5383	28.7205
10.5169	28.3342
10.4956	28.1352
10.4744	27.8415
10.4533	27.5454
10.4323	27.364
10.4113	27.0026
10.3904	26.5743
10.3697	26.1242
10.349	25.6889
10.3284	25.1598
10.3078	24.5717
10.2874	24.0805
10.267	23.5532
10.2467	22.8129
10.2265	21.7989
10.2064	20.8358
10.1863	20.0825
10.1663	19.5134
10.1464	19.2877
10.1266	18.9898
10.1069	18.4346
10.0872	17.7456
10.0676	16.9076
10.0481	16.059
10.0287	15.5374
10.0093	15.6232
9.99005	15.8177
9.97084	15.7264
9.95169	15.5444
9.93263	15.3823
9.91364	15.0845
9.89472	14.8333
9.87587	14.6199
9.8571	14.3862
9.83839	14.0787
9.81976	13.8354
9.80119	13.5833
9.78271	13.306
9.76428	13.1027
9.74592	12.8803
9.72764	12.7129
9.70943	12.6231
9.69128	12.404
9.6732	11.9385
9.65518	11.6309
9.63724	11.4401
9.61935	11.0867
9.60155	10.6489
9.5838	10.274
9.56611	10.0554
9.5485	9.83121
9.53094	9.42316
9.51345	9.12587
9.49604	9.00745
9.47867	8.78213
9.46137	8.43022
9.44414	8.09303
9.42697	7.81164
9.40986	7.53774
9.39281	7.33073
9.37583	7.07578
9.35891	6.87901
9.34204	6.85122
9.32524	6.71275
9.3085	6.47013
9.29182	6.29563
9.27519	6.23231
9.25863	6.32633
9.24213	6.50598
9.22568	6.78719
9.2093	7.0534
9.19297	7.39836
9.17669	7.58893
9.16048	7.84542
9.14433	8.08716
9.12823	8.18888
9.11218	8.4071
9.0962	8.74192
9.08027	9.18921
9.06439	9.53299
9.04858	9.76057
9.03281	9.57979
9.0171	9.0489
9.00145	8.71335
8.98585	8.8015
8.9703	9.15223
8.9548	9.52761
8.93937	10.0186
8.92398	10.4265
8.90865	10.9023
8.89337	11.6108
8.87814	12.4325
8.86296	13.2999
8.84784	14.1367
8.83277	14.857
8.81774	15.1897
8.80277	15.2211
8.78786	15.1032
8.77298	14.7837
8.75816	14.1323
8.7434	13.3005
8.72868	12.5575
8.714	12.0182
8.69938	12.2856
8.68481	13.0489
8.67029	13.7064
8.65581	14.0518
8.64139	13.9544
8.62701	13.5404
8.61268	13.1923
8.5984	13.0811
8.58416	12.9628
8.56997	12.8129
8.55583	12.5852
8.54174	12.4269
8.52769	12.2912
8.51368	12.0339
8.49973	11.8103
8.48582	11.5811
8.47195	11.47
8.45813	11.568
8.44436	11.7742
8.43062	11.9618
8.41693	12.0682
8.4033	12.3129
8.3897	12.7218
8.37614	13.1774
8.36264	13.6953
8.34917	14.2144
8.33574	14.5016
8.32236	14.5612
8.30903	14.5993
8.29573	14.3509
8.28248	13.978
8.26927	13.7737
8.2561	13.4366
8.24298	12.9294
8.2299	12.5626
8.21685	12.0908
8.20385	11.4493
8.19089	10.6378
8.17797	9.80938
8.16509	8.8806
8.15225	7.87163
8.13946	7.02394
8.1267	6.34686
8.11398	5.74525
8.10131	5.16043
8.08867	4.55589
8.07606	3.92596
8.0635	3.37585
8.05099	3.06227
8.0385	2.88557
8.02606	2.54706
8.01366	2.21938
8.00129	1.90807
7.98896	1.60711
7.97667	1.41673
7.96442	1.30163
7.9522	1.16169
7.94002	1.05714
7.92788	0.970139
7.91578	0.888588
7.90371	0.804511
7.89168	0.675229
7.87969	0.555645
7.86773	0.456427
7.85581	0.554694
7.84392	0.54804
7.83207	0.477726
7.82026	0.448972
7.80849	0.423679
7.79674	0.570036
7.78503	0.688684
7.77337	0.567055
7.76173	0.528793
7.75012	0.64363
7.73856	0.734192
7.72703	0.78469
7.71553	0.867376
7.70406	0.871849
7.69263	0.981371
7.68123	1.0585
7.66987	1.18524
7.65855	1.34858
7.64725	1.42242
7.63598	1.55195
7.62475	1.78077
7.61356	1.99361
7.60239	2.28513
7.59126	2.48673
7.58017	2.74492
7.5691	3.03449
7.55806	3.34552
7.54707	3.5989
7.5361	3.93416
7.52516	4.34163
7.51425	4.78023
7.50338	5.1699
7.49253	5.5261
7.48172	6.03845
7.47094	6.70329
7.46019	7.31617
7.44947	7.87511
7.43879	8.49611
7.42813	9.24878
7.4175	9.87769
7.4069	10.4256
7.39634	11.0299
7.3858	11.6466
7.37529	12.2257
7.36482	12.768
7.35437	13.3027
7.34396	13.8123
7.33357	14.2552
7.32321	14.7644
7.31288	15.2807
7.30258	15.7055
7.29231	16.1773
7.28207	16.802
7.27185	17.3519
7.26167	17.838
7.25152	18.3144
7.24139	18.8293
7.23129	19.4167
7.22122	20.0038
7.21117	20.5599
7.20116	20.9354
7.19117	21.2554
7.18121	21.7887
7.17128	22.3137
7.16137	22.6246
7.1515	22.9562
7.14164	23.3258
7.13182	23.7336
7.12203	24.2432
7.11225	24.6608
7.10251	25.0393
7.0928	25.5087
7.08311	26.1306
7.07344	26.7825
7.06381	27.4263
7.0542	28.2341
7.04461	29.0143
7.03506	29.4697
7.02552	30.0844
7.01601	30.7417
7.00653	31.3004
6.99708	31.8235
6.98765	32.2535
6.97824	32.5498
6.96886	32.9769
6.95951	33.363
6.95018	33.2258
6.94087	33.2311
6.9316	33.3994
6.92234	33.4272
6.91311	33.3955
6.90391	33.3878
6.89473	33.1992
6.88557	33.1801
6.87644	33.5054
6.86733	34.2935
6.85824	34.4861
6.84918	34.0833
6.84015	34.0862
6.83114	34.3441
6.82215	34.2607
6.81319	33.7879
6.80424	33.3875
6.79532	33.3631
6.78643	33.2472
6.77756	33.0012
6.76871	32.8878
6.75989	32.8264
6.75109	32.9414
6.74231	33.0672
6.73355	33.4078
6.72482	34.0361
6.71611	34.9055
6.70742	35.7637
6.69875	36.4021
6.69011	37.2688
6.68149	38.1865
6.67289	38.5511
6.66431	38.6592
6.65576	38.8835
6.64722	39.754
6.63871	40.8792
6.63022	40.8978
6.62175	40.6026
6.61331	40.868
6.60488	41.3695
6.59648	42.0142
6.5881	42.4742
6.57974	43.1093
6.5714	43.7567
6.56308	43.6518
6.55478	43.7426
6.54651	43.6927
6.53825	43.4883
6.53001	43.4143
6.5218	43.3745
6.51361	42.6698
6.50544	42.2521
6.49729	42.4036
6.48915	41.7184
6.48104	40.5909
6.47295	39.8705
6.46488	39.4985
6.45683	39.4463
6.4488	39.6464
6.44079	39.986
6.4328	40.4617
6.42482	40.9459
6.41687	41.7885
6.40894	41.5002
6.40103	40.4671
6.39314	40.0633
6.38526	39.796
6.37741	39.5557
6.36957	39.2875
6.36176	38.5422
6.35396	38.0783
6.34618	38.103
6.33843	37.4754
6.33069	36.7075
6.32297	36.412
6.31527	36.1927
6.30758	35.9811
6.29992	35.6834
6.29227	35.4707
6.28465	35.2926
6.27704	35.1245
6.26945	34.9021
6.26188	34.7445
6.25432	34.4994
6.24679	34.0613
6.23927	33.3715
6.23177	32.4431
6.22429	31.4983
6.21683	31.1674
6.20938	31.5673
6.20195	32.38
6.19454	33.1155
6.18715	33.673
6.17978	33.6609
6.17242	34.2385
6.16508	35.9403
6.15776	37.5455
6.15045	38.0945
6.14317	38.0813
6.1359	37.7668
6.12864	37.5674
6.12141	38.0371
6.11419	38.793
6.10699	38.3629
6.0998	37.497
6.09263	37.0789
6.08549	37.415
6.07835	38.6215
6.07123	39.7801
6.06413	40.3984
6.05705	42.0754
6.04998	45.0857
6.04293	46.902
6.0359	48.2331
6.02888	50.057
6.02187	51.6499
6.01489	52.882
6.00792	53.3818
6.00096	53.8523
5.99403	54.7889
5.98711	55.2923
5.9802	55.1424
5.97331	55.3666
5.96644	55.7121
5.95958	55.8989
5.95274	56.5501
5.94591	57.4336
5.9391	58.8722
5.9323	59.1784
5.92552	58.8404
5.91876	59.1994
5.91201	59.6895
5.90528	60.4204
5.89856	61.6197
5.89186	61.9462
5.88517	62.4688
5.8785	62.6427
5.87184	61.6064
5.8652	61.4998
5.85857	61.3328
5.85196	61.1281
5.84536	61.0854
5.83878	61.3494
5.83221	61.7913
5.82566	62.3596
5.81912	62.3566
5.81259	61.6967
5.80608	61.3958
5.79959	61.3338
5.79311	61.0543
5.78665	60.7756
5.78019	60.5253
5.77376	60.6102
5.76734	60.8923
5.76093	59.9381
5.75453	59.1524
5.74815	59.1643
5.74179	58.9255
5.73543	58.7488
5.7291	58.6935
5.72277	58.8033
5.71646	58.9426
5.71017	59.0712
5.70389	58.7563
5.69762	58.5536
5.69136	58.5122
5.68513	58.3146
5.6789	58.3596
5.67268	58.4327
5.66648	58.3162
5.6603	58.6011
5.65413	58.8665
5.64797	59.0935
5.64182	59.3916
5.63569	58.9944
5.62957	58.6845
5.62347	58.6413
5.61737	58.6271
5.61129	58.5834
5.60522	58.828
5.59917	59.2081
5.59313	59.5356
5.5871	60.168
5.58109	61.0615
5.57509	61.606
5.5691	61.9223
5.56312	62.516
5.55716	63.1342
5.55121	63.4679
5.54528	63.5448
5.53935	63.6937
5.53344	63.8001
5.52754	63.8736
5.52166	63.817
5.51578	63.7272
5.50992	63.6748
5.50407	63.7145
5.49823	63.8341
5.49241	64.0883
5.4866	64.4206
5.4808	64.7969
5.47501	64.983
5.46923	65.3471
5.46347	65.7045
5.45772	65.7163
5.45198	65.863
5.44625	66.2284
5.44054	66.6373
5.43484	67.0092
5.42914	67.5272
5.42347	68.2505
5.4178	68.4165
5.41214	68.5472
5.4065	68.9757
5.40087	69.4853
5.39525	69.9784
5.38964	70.4194
5.38404	70.8938
5.37846	71.3383
5.37288	71.699
5.36732	71.9949
5.36177	72.262
5.35623	72.652
5.35071	73.0633
5.34519	73.1531
5.33968	73.1991
5.33419	73.3315
5.32871	73.4845
5.32324	73.6147
5.31778	73.7514
5.31233	73.9093
5.30689	73.941
5.30147	73.9848
5.29605	74.1669
5.29065	74.3674
5.28525	74.3616
5.27987	74.4416
5.2745	74.5269
5.26914	74.527
5.26379	74.6164
5.25845	74.7746
5.25312	74.9241
5.24781	75.03
5.2425	75.0526
5.23721	75.1712
5.23192	75.2686
5.22665	75.3369
5.22138	75.4017
5.21613	75.6029
5.21089	75.6887
5.20566	75.6192
5.20044	75.6817
5.19522	75.6135
5.19002	75.5293
5.18483	75.5573
5.17965	75.5687
5.17448	75.6036
5.16933	75.5878
5.16418	75.5755
5.15904	75.5625
5.15391	75.5713
5.14879	75.641
5.14368	75.6169
5.13859	75.5075
5.1335	75.4307
5.12842	75.3443
5.12335	75.2923
5.1183	75.1563
5.11325	74.9943
5.10821	74.9054
5.10318	74.8728
5.09817	74.8523
5.09316	74.8166
5.08816	74.7366
5.08317	74.627
5.07819	74.4699
5.07322	74.3186
5.06826	74.1418
5.06331	73.916
5.05837	73.6288
5.05344	73.3134
5.04852	72.9329
5.04361	72.4227
5.03871	71.7737
5.03382	70.8571
5.02894	69.5694
5.02406	67.6672
5.0192	64.8755
5.01435	61.6751
5.0095	60.0154
5.00467	60.9899
4.99984	63.4491
4.99502	65.8595
4.99021	67.5889
4.98542	68.7471
4.98063	69.3723
4.97585	69.6261
4.97108	69.745
4.96632	69.7915
4.96156	69.7767
4.95682	69.7225
4.95209	69.5287
4.94736	69.2968
4.94264	69.0275
4.93794	68.7834
4.93324	68.5083
4.92855	68.2116
4.92387	67.8876
4.9192	67.5371
4.91453	67.1318
4.90988	66.7178
4.90524	66.1963
4.9006	65.6503
4.89597	65.141
4.89135	64.6376
4.88674	64.078
4.88214	63.381
4.87755	62.6076
4.87296	61.8628
4.86839	61.0782
4.86382	60.1941
4.85926	59.2195
4.85471	58.134
4.85017	56.9202
4.84564	55.5867
4.84111	54.2094
4.8366	52.6898
4.83209	51.0236
4.82759	49.2483
4.8231	47.1889
4.81862	44.7875
4.81415	42.0697
4.80968	39.0027
4.80522	35.5948
4.80077	32.0923
4.79633	28.7172
4.7919	25.6483
4.78747	23.2294
4.78306	21.3112
4.77865	19.8498
4.77425	19.0379
4.76986	18.6078
4.76547	18.3791
4.7611	18.3605
4.75673	18.4602
4.75237	18.3235
4.74802	18.0627
4.74367	17.6881
4.73934	17.2139
4.73501	16.7575
4.73069	16.3
4.72638	15.9351
4.72207	15.7109
4.71777	15.6568
4.71348	15.7013
4.7092	15.6798
4.70493	15.6531
4.70066	15.761
4.69641	16.0261
4.69216	16.5511
4.68791	17.3159
4.68368	18.1792
4.67945	18.924
4.67523	19.672
4.67102	20.6618
4.66682	21.9368
4.66262	23.3725
4.65843	24.6557
4.65425	25.4127
4.65007	25.6908
4.64591	25.8197
4.64175	25.9571
4.6376	26.0451
4.63345	26.0398
4.62932	25.9662
4.62519	25.9804
4.62106	26.1315
4.61695	26.4155
4.61284	26.8675
4.60874	27.3999
4.60465	27.9145
4.60056	28.5235
4.59648	29.1572
4.59241	29.5712
4.58835	29.7469
4.58429	29.7219
4.58024	29.5074
4.5762	28.9931
4.57216	28.2192
4.56814	27.5256
4.56411	26.8679
4.5601	26.4
4.55609	26.1992
4.55209	26.1824
4.5481	26.3399
4.54411	26.6524
4.54013	27.0406
4.53616	27.475
4.5322	27.8441
4.52824	28.2901
4.52429	28.6962
4.52034	29.0125
4.51641	29.3659
4.51247	29.8379
4.50855	30.3948
4.50463	31.0095
4.50072	31.7971
4.49682	32.5897
4.49292	33.0872
4.48903	33.487
4.48515	33.7415
4.48127	33.8078
4.4774	33.8048
4.47354	33.7965
4.46968	33.7091
4.46584	33.5841
4.46199	33.4716
4.45815	33.2641
4.45432	32.8859
4.4505	32.3954
4.44668	31.9009
4.44287	31.5255
4.43907	31.2959
4.43527	31.1751
4.43148	31.0606
4.4277	31.0451
4.42392	31.0901
4.42015	31.1272
4.41638	31.2396
4.41262	31.3344
4.40887	31.3862
4.40513	31.5571
4.40139	31.8295
4.39765	32.1565
4.39393	32.525
4.39021	32.9022
4.38649	33.1422
4.38278	33.2923
4.37908	33.4224
4.37539	33.461
4.3717	33.4341
4.36801	33.3428
4.36434	33.0906
4.36067	32.8189
4.357	32.674
4.35335	32.667
4.34969	32.7572
4.34605	33.0851
4.34241	33.6404
4.33877	34.183
4.33514	34.6917
4.33152	35.2097
4.32791	35.6393
4.3243	35.967
4.32069	36.2828
4.3171	36.5577
4.31351	36.8416
4.30992	37.2263
4.30634	37.7407
4.30277	38.281
4.2992	38.8873
4.29564	39.4471
4.29208	40.01
4.28853	40.5972
4.28499	41.2187
4.28145	41.8486
4.27792	42.5337
4.27439	43.3003
4.27087	44.1005
4.26735	44.985
4.26384	45.9341
4.26034	46.771
4.25684	47.544
4.25335	48.2766
4.24986	48.9185
4.24638	49.512
4.24291	50.1076
4.23944	50.8491
4.23598	51.7612
4.23252	52.773
4.22906	53.7959
4.22562	54.7599
4.22218	55.709
4.21874	56.6277
4.21531	57.5461
4.21189	58.4599
4.20847	59.3204
4.20506	60.1717
4.20165	60.9712
4.19825	61.6955
4.19485	62.3787
4.19146	62.9544
4.18807	63.4964
4.18469	64.0566
4.18132	64.6026
4.17795	65.2188
4.17458	65.865
4.17123	66.4906
4.16787	67.2095
4.16453	67.9043
4.16118	68.513
4.15785	69.0836
4.15451	69.5914
4.15119	70.1057
4.14787	70.6191
4.14455	71.1558
4.14124	71.6827
4.13794	72.1276
4.13464	72.5511
4.13134	72.9361
4.12805	73.3103
4.12477	73.6206
4.12149	73.9568
4.11822	74.3136
4.11495	74.6322
4.11168	74.8895
4.10843	75.1996
4.10517	75.5379
4.10192	75.7998
4.09868	76.0133
4.09545	76.2474
4.09221	76.5636
4.08899	76.8646
4.08576	77.0686
4.08255	77.2851
4.07933	77.5114
4.07613	77.7396
4.07292	77.9948
4.06973	78.2583
4.06654	78.4701
4.06335	78.6503
4.06017	78.8386
4.05699	78.9959
4.05382	79.1324
4.05065	79.2969
4.04749	79.5016
4.04433	79.7419
4.04118	80.0102
4.03803	80.1934
4.03489	80.3582
4.03175	80.5419
4.02862	80.6775
4.02549	80.7942
4.02237	80.8602
4.01925	81.0493
4.01614	81.2913
4.01303	81.4358
4.00993	81.5725
4.00683	81.6985
4.00373	81.7252
4.00064	81.8048
3.99756	81.8665
3.99448	81.8772
3.9914	81.9936
3.98833	82.1084
3.98527	82.0435
3.98221	81.9827
3.97915	81.942
3.9761	81.9737
3.97305	81.9742
3.97001	81.8517
3.96697	81.7978
3.96394	81.8218
3.96091	81.7529
3.95789	81.6614
3.95487	81.5875
3.95186	81.5717
3.94885	81.6244
3.94584	81.6601
3.94284	81.708
3.93984	81.7351
3.93685	81.7919
3.93386	81.8701
3.93088	81.8814
3.9279	81.896
3.92493	82.0234
3.92196	82.1964
3.919	82.2843
3.91604	82.3695
3.91308	82.4647
3.91013	82.5288
3.90718	82.5705
3.90424	82.615
3.9013	82.6913
3.89837	82.7881
3.89544	82.7985
3.89252	82.8165
3.8896	82.9012
3.88668	82.9741
3.88377	83.053
3.88086	83.1745
3.87796	83.2689
3.87506	83.2841
3.87217	83.3164
3.86928	83.3475
3.86639	83.3849
3.86351	83.3831
3.86064	83.4198
3.85776	83.4812
3.8549	83.437
3.85203	83.4399
3.84917	83.3725
3.84631	83.246
3.84346	83.1792
3.84062	83.2312
3.83777	83.345
3.83494	83.3507
3.8321	83.3782
3.82927	83.5344
3.82644	83.5454
3.82362	83.5608
3.82081	83.684
3.81799	83.7544
3.81518	83.7052
3.81238	83.6644
3.80958	83.677
3.80678	83.6517
3.80399	83.6689
3.8012	83.6862
3.79841	83.7167
3.79563	83.7317
3.79286	83.6943
3.79008	83.7358
3.78731	83.8574
3.78455	84.0082
3.78179	84.102
3.77903	84.2222
3.77628	84.3605
3.77353	84.5452
3.77079	84.8282
3.76805	85.0116
3.76531	85.1005
3.76258	85.2418
3.75985	85.3368
3.75713	85.4382
3.7544	85.5121
3.75169	85.5012
3.74898	85.5298
3.74627	85.6093
3.74356	85.6457
3.74086	85.6755
3.73816	85.7188
3.73547	85.7438
3.73278	85.7141
3.7301	85.7348
3.72741	85.7598
3.72474	85.7665
3.72206	85.7856
3.71939	85.7788
3.71673	85.7573
3.71406	85.8033
3.71141	85.8458
3.70875	85.8513
3.7061	85.8385
3.70345	85.7582
3.70081	85.6699
3.69817	85.7197
3.69553	85.6742
3.6929	85.6383
3.69027	85.6663
3.68765	85.658
3.68503	85.6626
3.68241	85.6579
3.6798	85.6349
3.67719	85.5964
3.67458	85.5795
3.67198	85.5217
3.66938	85.5095
3.66678	85.4724
3.66419	85.3822
3.66161	85.3223
3.65902	85.2777
3.65644	85.2674
3.65387	85.218
3.65129	85.1997
3.64872	85.2487
3.64616	85.2772
3.64359	85.2133
3.64103	85.1784
3.63848	85.2153
3.63593	85.228
3.63338	85.1898
3.63084	85.1065
3.6283	85.0328
3.62576	85.0731
3.62322	85.1286
3.62069	85.1196
3.61817	85.0867
3.61564	85.0298
3.61312	84.9516
3.61061	84.9164
3.6081	84.9285
3.60559	84.941
3.60308	84.9679
3.60058	84.928
3.59808	84.9183
3.59558	84.9115
3.59309	84.838
3.59061	84.7967
3.58812	84.772
3.58564	84.7833
3.58316	84.7181
3.58069	84.6313
3.57822	84.6033
3.57575	84.6067
3.57328	84.551
3.57082	84.509
3.56836	84.4656
3.56591	84.4243
3.56346	84.4035
3.56101	84.3671
3.55857	84.2376
3.55613	84.1576
3.55369	84.1529
3.55126	84.1131
3.54883	84.0243
3.5464	83.9599
3.54397	83.8787
3.54155	83.7994
3.53914	83.7307
3.53672	83.7004
3.53431	83.5892
3.5319	83.4376
3.5295	83.3616
3.5271	83.2605
3.5247	83.1228
3.52231	82.9953
3.51991	82.8669
3.51753	82.7836
3.51514	82.5371
3.51276	82.256
3.51038	81.9955
3.50801	81.7231
3.50563	81.5523
3.50327	81.49
3.5009	81.3866
3.49854	81.2939
3.49618	81.3844
3.49382	81.4684
3.49147	81.4601
3.48912	81.417
3.48677	81.3348
3.48443	81.2947
3.48209	81.2777
3.47975	81.2237
3.47742	81.1026
3.47509	81.0274
3.47276	80.9686
3.47044	80.8828
3.46812	80.9077
3.4658	80.9464
