Name: Cerussite PbCO_3
Type: Mineral
Class: Carbonates
Subclass: 
Particle Size: 45-125um
Sample No.: C-10A
Owner: JPL
Wavelength range: IR
Origin: USA, Arizona, Flux Mine
Collected by JPL
Description: 





Measurement: Hemispherical reflectance
First Column: X
Second Column: Y
X Units:  Wavelength (micrometers)
Y Units:  Reflectance (percent)
First X Value: 15.3853
Last X Value: 2.00032
Number of X Values: 2256
Additional information: c10aa.txt
 
15.3853	17.4747
15.3397	18.2306
15.2945	18.3199
15.2495	17.7413
15.2048	17.0677
15.1603	16.0665
15.1161	14.3873
15.0722	12.1839
15.0285	10.1457
14.9851	8.98824
14.9419	8.50145
14.8989	8.06211
14.8563	8.41895
14.8138	10.1687
14.7716	12.265
14.7296	11.5708
14.6879	7.89998
14.6464	4.66328
14.6052	3.93534
14.5641	5.16258
14.5233	6.82888
14.4828	8.51462
14.4424	10.2292
14.4023	11.7818
14.3624	11.5154
14.3227	9.37806
14.2833	11.1625
14.244	15.9284
14.205	18.9245
14.1662	20.1339
14.1276	20.5528
14.0892	20.8015
14.051	20.7123
14.0131	20.3696
13.9753	19.4959
13.9377	18.3166
13.9004	16.9639
13.8632	15.4191
13.8262	14.1068
13.7895	13.2186
13.7529	12.9495
13.7165	12.8952
13.6803	12.6772
13.6443	12.4739
13.6085	12.5739
13.5729	13.0531
13.5374	13.9896
13.5022	15.5002
13.4671	17.0169
13.4322	18.2817
13.3975	19.3798
13.363	20.1866
13.3286	20.536
13.2944	20.8166
13.2604	21.1691
13.2266	21.4208
13.193	21.5138
13.1595	21.4809
13.1262	21.156
13.093	20.6099
13.06	20.0177
13.0272	19.358
12.9946	18.7101
12.9621	18.184
12.9298	17.669
12.8976	17.093
12.8656	16.5518
12.8337	16.0867
12.8021	15.8871
12.7705	15.8383
12.7391	15.7748
12.7079	15.8625
12.6769	15.8893
12.6459	15.8663
12.6152	16.0022
12.5845	16.1637
12.5541	16.4021
12.5238	16.7062
12.4936	16.9533
12.4635	16.8702
12.4337	16.6255
12.4039	16.1984
12.3743	15.5757
12.3448	14.9983
12.3155	14.615
12.2863	14.3501
12.2573	13.7841
12.2284	12.7382
12.1996	11.4637
12.171	9.93328
12.1425	8.67155
12.1141	8.83466
12.0859	9.59268
12.0578	9.83097
12.0298	9.86668
12.0019	10.2152
11.9742	11.3973
11.9466	13.355
11.9192	14.6839
11.8918	14.4099
11.8646	12.2338
11.8375	9.25175
11.8106	7.43124
11.7837	7.05795
11.757	7.32662
11.7304	7.7458
11.7039	8.11057
11.6776	8.58044
11.6513	9.14523
11.6252	9.69164
11.5992	10.3519
11.5733	10.9551
11.5475	11.3391
11.5219	11.5394
11.4963	11.0862
11.4709	10.5322
11.4455	11.7304
11.4203	13.777
11.3952	15.0459
11.3702	15.9165
11.3454	16.7078
11.3206	17.4428
11.2959	18.1671
11.2714	18.8753
11.2469	19.6133
11.2226	20.2156
11.1983	20.8072
11.1742	21.4874
11.1502	22.2255
11.1263	22.8939
11.1024	23.4524
11.0787	23.98
11.0551	24.3954
11.0316	24.7042
11.0081	24.9861
10.9848	25.246
10.9616	25.395
10.9385	25.2922
10.9154	25.1122
10.8925	24.9365
10.8697	24.6501
10.8469	24.3821
10.8243	24.1454
10.8017	24.016
10.7793	23.8349
10.7569	23.6448
10.7346	23.5925
10.7125	23.4395
10.6904	23.2481
10.6684	22.9559
10.6465	22.3053
10.6247	21.4768
10.6029	20.7128
10.5813	20.0265
10.5597	19.4133
10.5383	18.9365
10.5169	18.5439
10.4956	18.2266
10.4744	18.1191
10.4533	18.0246
10.4323	17.8777
10.4113	17.6349
10.3904	17.4732
10.3697	17.4568
10.349	17.4483
10.3284	17.4397
10.3078	17.4382
10.2874	17.4827
10.267	17.5606
10.2467	17.3937
10.2265	16.8739
10.2064	15.8624
10.1863	14.5169
10.1663	12.9262
10.1464	11.4521
10.1266	10.54
10.1069	10.2286
10.0872	10.0557
10.0676	9.89199
10.0481	9.90339
10.0287	10.243
10.0093	10.6394
9.99005	11.0692
9.97084	11.4874
9.95169	12.2341
9.93263	13.4287
9.91364	14.5904
9.89472	15.4534
9.87587	16.3357
9.8571	17.2069
9.83839	17.8312
9.81976	18.1999
9.80119	18.3947
9.78271	18.4746
9.76428	18.4862
9.74592	18.3372
9.72764	17.5377
9.70943	15.5286
9.69128	15.2712
9.6732	16.8142
9.65518	17.0357
9.63724	16.4485
9.61935	15.369
9.60155	14.3166
9.5838	13.0275
9.56611	11.1706
9.5485	9.33425
9.53094	8.50328
9.51345	8.61252
9.49604	7.5528
9.47867	7.12747
9.46137	8.88839
9.44414	10.6541
9.42697	12.0553
9.40986	13.2177
9.39281	14.0307
9.37583	14.4628
9.35891	14.7725
9.34204	14.9776
9.32524	15.0328
9.3085	14.9912
9.29182	14.984
9.27519	14.7948
9.25863	14.4892
9.24213	14.0711
9.22568	13.5678
9.2093	12.9732
9.19297	12.0703
9.17669	11.0247
9.16048	9.98724
9.14433	9.02993
9.12823	8.43093
9.11218	8.15091
9.0962	7.96722
9.08027	7.72656
9.06439	7.35754
9.04858	7.075
9.03281	7.04111
9.0171	7.05477
9.00145	7.03425
8.98585	7.20946
8.9703	7.64901
8.9548	8.35536
8.93937	9.18213
8.92398	9.69533
8.90865	9.89359
8.89337	9.98391
8.87814	9.98881
8.86296	9.97973
8.84784	9.89662
8.83277	9.7971
8.81774	9.74514
8.80277	9.73713
8.78786	9.80791
8.77298	9.7891
8.75816	9.90543
8.7434	10.1404
8.72868	10.3301
8.714	10.4148
8.69938	10.3114
8.68481	10.1298
8.67029	10.1369
8.65581	10.273
8.64139	10.3695
8.62701	10.3904
8.61268	10.3719
8.5984	10.4494
8.58416	10.6911
8.56997	10.8443
8.55583	10.94
8.54174	10.8165
8.52769	10.7329
8.51368	10.6833
8.49973	10.687
8.48582	10.7278
8.47195	10.6317
8.45813	10.5352
8.44436	10.5256
8.43062	10.4878
8.41693	10.439
8.4033	10.3106
8.3897	10.1677
8.37614	10.0512
8.36264	9.89753
8.34917	9.69149
8.33574	9.43744
8.32236	9.32519
8.30903	9.23285
8.29573	9.17991
8.28248	9.17577
8.26927	8.98433
8.2561	8.86965
8.24298	8.84169
8.2299	8.87367
8.21685	8.85457
8.20385	8.68887
8.19089	8.58037
8.17797	8.5634
8.16509	8.48373
8.15225	8.37232
8.13946	8.4608
8.1267	8.53826
8.11398	8.34234
8.10131	8.14192
8.08867	8.16724
8.07606	8.24062
8.0635	8.03962
8.05099	7.84262
8.0385	7.81187
8.02606	7.78502
8.01366	7.71943
8.00129	7.68736
7.98896	7.60583
7.97667	7.48508
7.96442	7.38784
7.9522	7.39669
7.94002	7.39323
7.92788	7.33696
7.91578	7.32119
7.90371	7.34678
7.89168	7.25759
7.87969	7.13216
7.86773	7.18459
7.85581	7.21334
7.84392	7.12108
7.83207	7.062
7.82026	7.03973
7.80849	7.07576
7.79674	7.13204
7.78503	7.11502
7.77337	7.1032
7.76173	7.12336
7.75012	7.16627
7.73856	7.19836
7.72703	7.19201
7.71553	7.23764
7.70406	7.37239
7.69263	7.3018
7.68123	7.16615
7.66987	7.18468
7.65855	7.20031
7.64725	7.20405
7.63598	7.18356
7.62475	7.21023
7.61356	7.23538
7.60239	7.28475
7.59126	7.33497
7.58017	7.33238
7.5691	7.39305
7.55806	7.45371
7.54707	7.4562
7.5361	7.59072
7.52516	7.68546
7.51425	7.78749
7.50338	7.93071
7.49253	8.01024
7.48172	8.10583
7.47094	8.28469
7.46019	8.36773
7.44947	8.54217
7.43879	8.72624
7.42813	8.85103
7.4175	8.93359
7.4069	9.11719
7.39634	9.40086
7.3858	9.62384
7.37529	9.72436
7.36482	9.973
7.35437	10.2313
7.34396	10.4692
7.33357	10.7459
7.32321	11.0002
7.31288	11.3902
7.30258	11.8428
7.29231	12.3123
7.28207	12.9647
7.27185	13.6601
7.26167	14.3323
7.25152	15.0559
7.24139	15.7401
7.23129	16.3358
7.22122	16.7773
7.21117	17.2031
7.20116	17.5016
7.19117	17.5654
7.18121	17.5708
7.17128	17.5105
7.16137	17.3651
7.1515	17.2075
7.14164	16.8861
7.13182	16.3944
7.12203	15.8842
7.11225	15.3836
7.10251	14.8204
7.0928	14.2282
7.08311	13.6587
7.07344	13.2154
7.06381	12.9126
7.0542	12.6913
7.04461	12.557
7.03506	12.4735
7.02552	12.4873
7.01601	12.5556
7.00653	12.7322
6.99708	13.0108
6.98765	13.3131
6.97824	13.6595
6.96886	14.0398
6.95951	14.3952
6.95018	14.4142
6.94087	14.3789
6.9316	14.3231
6.92234	14.3102
6.91311	14.3335
6.90391	14.2315
6.89473	14.0585
6.88557	13.8348
6.87644	13.6648
6.86733	13.7757
6.85824	13.5027
6.84918	12.9893
6.84015	12.6947
6.83114	12.5591
6.82215	12.3032
6.81319	11.9558
6.80424	11.6422
6.79532	11.3908
6.78643	11.077
6.77756	10.6197
6.76871	10.1987
6.75989	9.75946
6.75109	9.3348
6.74231	8.79595
6.73355	8.19813
6.72482	7.66719
6.71611	7.26047
6.70742	6.69947
6.69875	5.92372
6.69011	5.39825
6.68149	4.96372
6.67289	4.36046
6.66431	3.84344
6.65576	3.43797
6.64722	3.16287
6.63871	2.81688
6.63022	2.48149
6.62175	2.26082
6.61331	2.06687
6.60488	1.89917
6.59648	1.75893
6.5881	1.65089
6.57974	1.59167
6.5714	1.5961
6.56308	1.55482
6.55478	1.56522
6.54651	1.63382
6.53825	1.67932
6.53001	1.6234
6.5218	1.52339
6.51361	1.52605
6.50544	1.55444
6.49729	1.52074
6.48915	1.54537
6.48104	1.62008
6.47295	1.58619
6.46488	1.57709
6.45683	1.60898
6.4488	1.62543
6.44079	1.66436
6.4328	1.69451
6.42482	1.68895
6.41687	1.8231
6.40894	1.92262
6.40103	1.93073
6.39314	1.89641
6.38526	1.89316
6.37741	1.90463
6.36957	1.90932
6.36176	1.94092
6.35396	2.05934
6.34618	2.15106
6.33843	2.09547
6.33069	2.14996
6.32297	2.3429
6.31527	2.52216
6.30758	2.54118
6.29992	2.59313
6.29227	2.73419
6.28465	2.80766
6.27704	2.86244
6.26945	2.90762
6.26188	2.9811
6.25432	3.17093
6.24679	3.36096
6.23927	3.42987
6.23177	3.47703
6.22429	3.54801
6.21683	3.6783
6.20938	3.8106
6.20195	3.90568
6.19454	4.00757
6.18715	4.27481
6.17978	4.46763
6.17242	4.64646
6.16508	4.90417
6.15776	5.20029
6.15045	5.39249
6.14317	5.56131
6.1359	5.83918
6.12864	6.14351
6.12141	6.40985
6.11419	6.84701
6.10699	7.16327
6.0998	7.40536
6.09263	7.69185
6.08549	8.08392
6.07835	8.56969
6.07123	9.05512
6.06413	9.46343
6.05705	9.99376
6.04998	10.7228
6.04293	11.0484
6.0359	11.2898
6.02888	11.7274
6.02187	12.2322
6.01489	12.7851
6.00792	13.2448
6.00096	13.6926
5.99403	14.234
5.98711	14.6414
5.9802	14.9157
5.97331	15.4212
5.96644	15.9245
5.95958	16.1537
5.95274	16.461
5.94591	17.004
5.9391	17.8239
5.9323	18.0991
5.92552	18.1371
5.91876	18.5093
5.91201	18.6798
5.90528	18.3939
5.89856	18.0284
5.89186	18.2518
5.88517	18.9416
5.8785	19.1771
5.87184	19.5213
5.8652	20.4203
5.85857	20.6613
5.85196	20.1831
5.84536	19.4308
5.83878	18.5563
5.83221	17.3078
5.82566	15.6057
5.81912	13.0191
5.81259	9.87675
5.80608	7.18037
5.79959	5.53727
5.79311	4.79579
5.78665	4.47237
5.78019	4.34614
5.77376	4.43017
5.76734	4.80367
5.76093	4.95698
5.75453	4.96211
5.74815	4.90155
5.74179	4.9114
5.73543	5.46154
5.7291	6.76395
5.72277	9.39763
5.71646	13.9221
5.71017	19.1982
5.70389	23.3163
5.69762	26.2237
5.69136	28.5912
5.68513	30.3476
5.6789	31.7557
5.67268	32.6456
5.66648	32.958
5.6603	33.1863
5.65413	33.2312
5.64797	33.3745
5.64182	33.6787
5.63569	33.7543
5.62957	34.0658
5.62347	34.713
5.61737	35.4247
5.61129	36.0269
5.60522	36.6887
5.59917	37.5891
5.59313	38.6544
5.5871	40.0335
5.58109	41.5202
5.57509	42.7051
5.5691	43.6686
5.56312	44.7291
5.55716	45.7787
5.55121	46.5969
5.54528	47.0193
5.53935	47.3294
5.53344	47.5324
5.52754	47.721
5.52166	47.8194
5.51578	47.751
5.50992	47.6446
5.50407	47.6231
5.49823	47.5731
5.49241	47.7267
5.4866	47.9354
5.4808	48.3042
5.47501	48.4942
5.46923	48.827
5.46347	49.2328
5.45772	49.4303
5.45198	49.7229
5.44625	50.2211
5.44054	50.7274
5.43484	51.2289
5.42914	51.8488
5.42347	52.6842
5.4178	52.9738
5.41214	53.1506
5.4065	53.5353
5.40087	53.9109
5.39525	54.302
5.38964	54.744
5.38404	55.1113
5.37846	55.4598
5.37288	55.7386
5.36732	55.9518
5.36177	56.1893
5.35623	56.5477
5.35071	56.8303
5.34519	56.7199
5.33968	56.5406
5.33419	56.5256
5.32871	56.5201
5.32324	56.5873
5.31778	56.7368
5.31233	56.766
5.30689	56.6838
5.30147	56.8251
5.29605	57.1505
5.29065	57.472
5.28525	57.6213
5.27987	57.8657
5.2745	58.1532
5.26914	58.4492
5.26379	58.7498
5.25845	59.1714
5.25312	59.6282
5.24781	60.0972
5.2425	60.5027
5.23721	60.9246
5.23192	61.3087
5.22665	61.6655
5.22138	61.9716
5.21613	62.3225
5.21089	62.509
5.20566	62.6355
5.20044	62.9056
5.19522	63.1463
5.19002	63.29
5.18483	63.4522
5.17965	63.5877
5.17448	63.6411
5.16933	63.6454
5.16418	63.7136
5.15904	63.6945
5.15391	63.7639
5.14879	63.8921
5.14368	63.9208
5.13859	63.898
5.1335	63.7751
5.12842	63.6622
5.12335	63.6956
5.1183	63.5639
5.11325	63.3821
5.10821	63.2722
5.10318	63.1165
5.09817	62.8415
5.09316	62.5729
5.08816	62.2856
5.08317	61.9793
5.07819	61.5718
5.07322	61.0823
5.06826	60.614
5.06331	60.1576
5.05837	59.5952
5.05344	59.0753
5.04852	58.5125
5.04361	57.8926
5.03871	57.3211
5.03382	56.7762
5.02894	56.1799
5.02406	55.5969
5.0192	55.0819
5.01435	54.5185
5.0095	54.0125
5.00467	53.5537
4.99984	53.0465
4.99502	52.4679
4.99021	51.9132
4.98542	51.3799
4.98063	50.7509
4.97585	50.1008
4.97108	49.525
4.96632	49.0448
4.96156	48.4395
4.95682	47.6718
4.95209	46.6904
4.94736	45.5758
4.94264	44.2555
4.93794	42.7115
4.93324	40.8653
4.92855	38.7734
4.92387	36.6713
4.9192	34.6301
4.91453	32.6857
4.90988	30.9614
4.90524	29.4659
4.9006	28.1977
4.89597	27.2475
4.89135	26.6387
4.88674	26.3848
4.88214	26.507
4.87755	26.9315
4.87296	27.5614
4.86839	28.3034
4.86382	29.0893
4.85926	30.0743
4.85471	31.1571
4.85017	32.1985
4.84564	33.2811
4.84111	34.5306
4.8366	35.8231
4.83209	37.1746
4.82759	38.5886
4.8231	39.935
4.81862	41.0661
4.81415	42.1123
4.80968	43.0413
4.80522	43.7768
4.80077	44.5027
4.79633	45.1004
4.7919	45.5861
4.78747	46.0026
4.78306	46.301
4.77865	46.405
4.77425	46.2528
4.76986	46.1936
4.76547	46.333
4.7611	46.5182
4.75673	47.0126
4.75237	47.8727
4.74802	48.6469
4.74367	49.0785
4.73934	49.4614
4.73501	49.8251
4.73069	50.1298
4.72638	50.3793
4.72207	50.6139
4.71777	50.9342
4.71348	51.1767
4.7092	51.2601
4.70493	51.3179
4.70066	51.2501
4.69641	51.0149
4.69216	50.692
4.68791	50.2803
4.68368	49.543
4.67945	48.5003
4.67523	47.2958
4.67102	46.008
4.66682	44.749
4.66262	43.8023
4.65843	43.092
4.65425	42.4824
4.65007	42.1701
4.64591	42.28
4.64175	42.6467
4.6376	43.3212
4.63345	44.2364
4.62932	45.4145
4.62519	47.0002
4.62106	48.7469
4.61695	50.2648
4.61284	51.4196
4.60874	52.2537
4.60465	52.7758
4.60056	53.0128
4.59648	53.1205
4.59241	53.0827
4.58835	53.0486
4.58429	53.0536
4.58024	53.0498
4.5762	53.0951
4.57216	53.2202
4.56814	53.3755
4.56411	53.4845
4.5601	53.5393
4.55609	53.5444
4.55209	53.4661
4.5481	53.2853
4.54411	53.0555
4.54013	52.9089
4.53616	52.7646
4.5322	52.5731
4.52824	52.3108
4.52429	52.1091
4.52034	51.8164
4.51641	51.3819
4.51247	50.967
4.50855	50.6188
4.50463	50.2579
4.50072	50.0681
4.49682	50.0296
4.49292	50.0177
4.48903	50.0601
4.48515	50.2144
4.48127	50.3872
4.4774	50.6197
4.47354	50.9341
4.46968	51.3013
4.46584	51.605
4.46199	51.865
4.45815	52.0667
4.45432	52.1538
4.4505	52.2054
4.44668	52.1547
4.44287	52.0288
4.43907	51.8859
4.43527	51.7892
4.43148	51.7116
4.4277	51.5572
4.42392	51.4051
4.42015	51.2757
4.41638	51.1318
4.41262	50.882
4.40887	50.6297
4.40513	50.412
4.40139	50.1464
4.39765	49.8255
4.39393	49.4479
4.39021	48.9911
4.38649	48.5173
4.38278	48.0413
4.37908	47.4961
4.37539	46.9917
4.3717	46.3805
4.36801	45.6709
4.36434	44.9249
4.36067	44.2069
4.357	43.4559
4.35335	42.6879
4.34969	41.8811
4.34605	40.957
4.34241	40.0347
4.33877	39.1697
4.33514	38.2783
4.33152	37.2887
4.32791	36.3603
4.3243	35.4568
4.32069	34.5542
4.3171	33.634
4.31351	32.6817
4.30992	31.8575
4.30634	30.9635
4.30277	29.9733
4.2992	29.1266
4.29564	28.2641
4.29208	27.2629
4.28853	26.299
4.28499	25.3041
4.28145	24.3138
4.27792	23.3649
4.27439	22.3906
4.27087	21.4585
4.26735	20.6945
4.26384	19.9711
4.26034	19.2711
4.25684	18.6963
4.25335	18.1668
4.24986	17.7023
4.24638	17.3169
4.24291	17.043
4.23944	16.7442
4.23598	16.4907
4.23252	16.2361
4.22906	15.9305
4.22562	15.5361
4.22218	15.1006
4.21874	14.6802
4.21531	14.2815
4.21189	13.8473
4.20847	13.3084
4.20506	12.7318
4.20165	12.2306
4.19825	11.7548
4.19485	11.2446
4.19146	10.7511
4.18807	10.213
4.18469	9.57257
4.18132	8.97631
4.17795	8.51631
4.17458	8.08513
4.17123	7.58413
4.16787	7.17739
4.16453	6.89713
4.16118	6.688
4.15785	6.51281
4.15451	6.40351
4.15119	6.22973
4.14787	6.16977
4.14455	6.22752
4.14124	6.29201
4.13794	6.42955
4.13464	6.64249
4.13134	6.82388
4.12805	6.97933
4.12477	7.19824
4.12149	7.46672
4.11822	7.75675
4.11495	8.09596
4.11168	8.46776
4.10843	8.82666
4.10517	9.18163
4.10192	9.50626
4.09868	9.76982
4.09545	10.0743
4.09221	10.4146
4.08899	10.6762
4.08576	10.909
4.08255	11.0774
4.07933	11.2211
4.07613	11.4161
4.07292	11.4597
4.06973	11.4454
4.06654	11.5704
4.06335	11.6415
4.06017	11.5556
4.05699	11.6525
4.05382	11.7152
4.05065	11.6335
4.04749	11.6596
4.04433	11.7835
4.04118	11.9091
4.03803	12.0781
4.03489	12.2932
4.03175	12.5667
4.02862	12.8118
4.02549	12.9848
4.02237	13.2392
4.01925	13.4612
4.01614	13.6088
4.01303	13.7855
4.00993	14.0223
4.00683	14.2081
4.00373	14.3251
4.00064	14.4256
3.99756	14.5715
3.99448	14.7537
3.9914	14.8604
3.98833	14.9879
3.98527	15.1846
3.98221	15.303
3.97915	15.4431
3.9761	15.6311
3.97305	15.8977
3.97001	16.1273
3.96697	16.2677
3.96394	16.4965
3.96091	16.8315
3.95789	17.2294
3.95487	17.6356
3.95186	18.0704
3.94885	18.5615
3.94584	19.2163
3.94284	19.8833
3.93984	20.7415
3.93685	21.776
3.93386	22.8149
3.93088	23.8884
3.9279	25.0828
3.92493	26.2846
3.92196	27.6199
3.919	28.9757
3.91604	30.2602
3.91308	31.4736
3.91013	32.5597
3.90718	33.5967
3.90424	34.5682
3.9013	35.4758
3.89837	36.2755
3.89544	36.9906
3.89252	37.6283
3.8896	38.1733
3.88668	38.718
3.88377	39.2036
3.88086	39.6631
3.87796	40.0932
3.87506	40.4662
3.87217	40.7407
3.86928	41.0102
3.86639	41.3909
3.86351	41.6923
3.86064	41.8458
3.85776	41.9862
3.8549	42.0681
3.85203	42.0626
3.84917	42.1247
3.84631	42.1633
3.84346	42.0817
3.84062	41.9853
3.83777	41.8996
3.83494	41.843
3.8321	41.6306
3.82927	41.4208
3.82644	41.2809
3.82362	41.0335
3.82081	40.7546
3.81799	40.555
3.81518	40.2803
3.81238	39.9315
3.80958	39.6083
3.80678	39.2574
3.80399	38.9414
3.8012	38.5727
3.79841	38.0748
3.79563	37.7031
3.79286	37.3629
3.79008	36.944
3.78731	36.4013
3.78455	35.8291
3.78179	35.3449
3.77903	34.847
3.77628	34.3185
3.77353	33.6924
3.77079	33.0751
3.76805	32.5318
3.76531	31.9745
3.76258	31.4401
3.75985	30.8503
3.75713	30.2447
3.7544	29.6433
3.75169	29.1238
3.74898	28.6738
3.74627	28.2025
3.74356	27.7143
3.74086	27.2499
3.73816	26.8725
3.73547	26.5132
3.73278	26.1322
3.7301	25.8233
3.72741	25.356
3.72474	24.8112
3.72206	24.3487
3.71939	23.9018
3.71673	23.3725
3.71406	22.8084
3.71141	22.262
3.70875	21.7086
3.7061	21.122
3.70345	20.502
3.70081	19.9236
3.69817	19.2089
3.69553	18.4077
3.6929	17.6817
3.69027	16.9492
3.68765	16.2771
3.68503	15.6371
3.68241	14.9206
3.6798	14.2027
3.67719	13.5633
3.67458	12.9706
3.67198	12.5304
3.66938	12.1323
3.66678	11.6064
3.66419	11.0902
3.66161	10.7263
3.65902	10.5089
3.65644	10.3658
3.65387	10.2024
3.65129	10.0553
3.64872	9.945
3.64616	9.92129
3.64359	10.0134
3.64103	10.154
3.63848	10.2152
3.63593	10.3219
3.63338	10.5336
3.63084	10.7054
3.6283	10.7331
3.62576	10.7585
3.62322	10.8897
3.62069	11.0027
3.61817	11.0187
3.61564	11.0168
3.61312	10.9551
3.61061	10.8918
3.6081	10.7261
3.60559	10.6011
3.60308	10.6279
3.60058	10.6712
3.59808	10.6439
3.59558	10.6233
3.59309	10.6893
3.59061	10.6855
3.58812	10.5979
3.58564	10.6177
3.58316	10.6525
3.58069	10.6937
3.57822	10.7899
3.57575	10.8058
3.57328	10.7517
3.57082	10.7014
3.56836	10.7297
3.56591	10.8336
3.56346	10.9508
3.56101	11.0147
3.55857	11.088
3.55613	11.1792
3.55369	11.3143
3.55126	11.4071
3.54883	11.5471
3.5464	11.6981
3.54397	11.8874
3.54155	12.113
3.53914	12.272
3.53672	12.3445
3.53431	12.5446
3.5319	12.8172
3.5295	13.0828
3.5271	13.367
3.5247	13.637
3.52231	13.9041
3.51991	14.2415
3.51753	14.6014
3.51514	14.9963
3.51276	15.4872
3.51038	15.9517
3.50801	16.3706
3.50563	16.9117
3.50327	17.4827
3.5009	18.143
3.49854	18.8171
3.49618	19.3276
3.49382	19.8309
3.49147	20.4814
3.48912	21.2519
3.48677	22.0347
3.48443	22.6623
3.48209	23.2146
3.47975	23.8764
3.47742	24.555
3.47509	25.1922
3.47276	25.942
3.47044	26.6374
3.46812	27.1136
3.4658	27.6362
3.46348	28.2849
