Name: Quartz SiO_2
Type: Mineral
Class: Silicates
Subclass: Tectosilicates
Particle Size: 125-500um
Sample No.: TS-1B
Owner: JPL
Wavelength range: VNIR-SWIR
Origin: Brazil, Minas Gerais.
Collected by:  Burminco
Description: Smoky quartz





Measurement: Hemispherical reflectance
First Column: X
Second Column: Y
X Units: Wavelength (micrometers)
Y Units: Reflectance (percent)
First X Value: 2.500
Last X Value: 0.400
Number of X Values: 2101
Additional information: ts01ba.txt

2.500  76.426780
2.499  76.362158
2.498  76.185058
2.497  76.366058
2.496  76.139547
2.495  76.268133
2.494  76.150186
2.493  76.187890
2.492  76.206925
2.491  76.128663
2.490  76.201423
2.489  76.338880
2.488  76.283077
2.487  76.281969
2.486  76.392002
2.485  76.194166
2.484  76.234924
2.483  76.203502
2.482  76.343487
2.481  76.407710
2.480  76.203611
2.479  76.432047
2.478  76.375910
2.477  76.311427
2.476  76.478708
2.475  76.584362
2.474  76.371260
2.473  76.384824
2.472  76.446680
2.471  76.653354
2.470  76.515728
2.469  76.507445
2.468  76.447573
2.467  76.528161
2.466  76.450939
2.465  76.545407
2.464  76.555170
2.463  76.592875
2.462  76.539838
2.461  76.699912
2.460  76.564987
2.459  76.585833
2.458  76.574583
2.457  76.605211
2.456  76.547082
2.455  76.559346
2.454  76.622799
2.453  76.654867
2.452  76.548797
2.451  76.563205
2.450  76.642020
2.449  76.620425
2.448  76.540178
2.447  76.656623
2.446  76.523645
2.445  76.650640
2.444  76.605884
2.443  76.628842
2.442  76.572197
2.441  76.651059
2.440  76.696573
2.439  76.642750
2.438  76.658240
2.437  76.641322
2.436  76.612769
2.435  76.642992
2.434  76.685163
2.433  76.735715
2.432  76.745982
2.431  76.749234
2.430  76.750382
2.429  76.688386
2.428  76.700019
2.427  76.695099
2.426  76.785447
2.425  76.772371
2.424  76.735201
2.423  76.778102
2.422  76.855047
2.421  76.773170
2.420  76.794023
2.419  76.908166
2.418  76.912444
2.417  76.875487
2.416  76.886944
2.415  76.935419
2.414  76.835291
2.413  76.871330
2.412  77.059795
2.411  77.079476
2.410  76.903786
2.409  76.927309
2.408  76.931202
2.407  76.945385
2.406  76.965348
2.405  76.990650
2.404  77.044842
2.403  77.004466
2.402  76.911261
2.401  77.026357
2.400  77.076526
2.399  77.018521
2.398  76.987607
2.397  77.080874
2.396  77.112689
2.395  77.141996
2.394  77.085611
2.393  77.121465
2.392  77.154589
2.391  77.101511
2.390  77.051672
2.389  77.163432
2.388  77.181137
2.387  77.245086
2.386  77.234598
2.385  77.203578
2.384  77.170745
2.383  77.279931
2.382  77.312699
2.381  77.230142
2.380  77.208226
2.379  77.292800
2.378  77.279450
2.377  77.258225
2.376  77.294101
2.375  77.319795
2.374  77.346813
2.373  77.422652
2.372  77.380075
2.371  77.400181
2.370  77.441969
2.369  77.443119
2.368  77.421131
2.367  77.485233
2.366  77.546049
2.365  77.499295
2.364  77.497703
2.363  77.532926
2.362  77.504497
2.361  77.502387
2.360  77.534248
2.359  77.536351
2.358  77.573955
2.357  77.545385
2.356  77.544969
2.355  77.592421
2.354  77.622899
2.353  77.601295
2.352  77.553456
2.351  77.518503
2.350  77.568180
2.349  77.648732
2.348  77.682183
2.347  77.662979
2.346  77.621438
2.345  77.641183
2.344  77.696756
2.343  77.672198
2.342  77.619310
2.341  77.624888
2.340  77.628843
2.339  77.659819
2.338  77.648520
2.337  77.665647
2.336  77.638472
2.335  77.616758
2.334  77.657357
2.333  77.651644
2.332  77.635332
2.331  77.631446
2.330  77.631011
2.329  77.666456
2.328  77.665661
2.327  77.584775
2.326  77.574298
2.325  77.611919
2.324  77.608893
2.323  77.569521
2.322  77.553564
2.321  77.521038
2.320  77.524212
2.319  77.515534
2.318  77.550296
2.317  77.516937
2.316  77.529799
2.315  77.557734
2.314  77.549128
2.313  77.514436
2.312  77.577998
2.311  77.519321
2.310  77.529918
2.309  77.510604
2.308  77.520395
2.307  77.519858
2.306  77.501956
2.305  77.542165
2.304  77.547505
2.303  77.496106
2.302  77.571658
2.301  77.526023
2.300  77.469912
2.299  77.479806
2.298  77.491000
2.297  77.494096
2.296  77.574511
2.295  77.534536
2.294  77.516679
2.293  77.484909
2.292  77.431802
2.291  77.469320
2.290  77.429318
2.289  77.422734
2.288  77.356858
2.287  77.396372
2.286  77.426284
2.285  77.422131
2.284  77.293548
2.283  77.321563
2.282  77.386674
2.281  77.367647
2.280  77.400847
2.279  77.363126
2.278  77.414619
2.277  77.374546
2.276  77.391688
2.275  77.312495
2.274  77.364661
2.273  77.369360
2.272  77.375118
2.271  77.309353
2.270  77.341433
2.269  77.304290
2.268  77.328838
2.267  77.317772
2.266  77.392476
2.265  77.342861
2.264  77.333658
2.263  77.354664
2.262  77.405291
2.261  77.227442
2.260  77.209187
2.259  77.257427
2.258  77.304439
2.257  77.392721
2.256  77.378566
2.255  77.302778
2.254  77.232253
2.253  77.298574
2.252  77.262563
2.251  77.242932
2.250  77.190555
2.249  77.197798
2.248  77.191729
2.247  77.257681
2.246  77.343339
2.245  77.226045
2.244  77.263135
2.243  77.314846
2.242  77.295783
2.241  77.245003
2.240  77.332931
2.239  77.303326
2.238  77.257979
2.237  77.216470
2.236  77.242155
2.235  77.291219
2.234  77.355070
2.233  77.340356
2.232  77.264923
2.231  77.238810
2.230  77.275739
2.229  77.265706
2.228  77.287257
2.227  77.297298
2.226  77.289274
2.225  77.187900
2.224  77.350451
2.223  77.362442
2.222  77.375414
2.221  77.386982
2.220  77.330789
2.219  77.339737
2.218  77.403107
2.217  77.408716
2.216  77.494780
2.215  77.361157
2.214  77.483887
2.213  77.412713
2.212  77.460827
2.211  77.395582
2.210  77.523842
2.209  77.530104
2.208  77.488963
2.207  77.452406
2.206  77.578255
2.205  77.508604
2.204  77.566908
2.203  77.576384
2.202  77.636435
2.201  77.656751
2.200  77.709029
2.199  77.686272
2.198  77.687333
2.197  77.635110
2.196  77.688186
2.195  77.738285
2.194  77.669882
2.193  77.701473
2.192  77.735915
2.191  77.659830
2.190  77.811605
2.189  77.763595
2.188  77.761116
2.187  77.755161
2.186  77.783970
2.185  77.856322
2.184  77.908531
2.183  77.836747
2.182  77.891167
2.181  77.881399
2.180  77.878658
2.179  77.848544
2.178  77.940082
2.177  77.874760
2.176  77.918961
2.175  77.912166
2.174  77.977820
2.173  77.986419
2.172  78.027133
2.171  78.098645
2.170  78.022965
2.169  78.111682
2.168  78.160064
2.167  78.133493
2.166  78.163517
2.165  78.169724
2.164  78.191492
2.163  78.195639
2.162  78.218276
2.161  78.272986
2.160  78.333485
2.159  78.350302
2.158  78.323687
2.157  78.393531
2.156  78.343976
2.155  78.343349
2.154  78.344687
2.153  78.445238
2.152  78.370911
2.151  78.402986
2.150  78.475985
2.149  78.473788
2.148  78.452640
2.147  78.500282
2.146  78.518934
2.145  78.467512
2.144  78.473323
2.143  78.465705
2.142  78.427818
2.141  78.466471
2.140  78.482197
2.139  78.397352
2.138  78.336590
2.137  78.400578
2.136  78.318686
2.135  78.357271
2.134  78.376552
2.133  78.279123
2.132  78.232021
2.131  78.281949
2.130  78.281639
2.129  78.200378
2.128  78.162645
2.127  78.159317
2.126  78.074753
2.125  78.036402
2.124  78.056716
2.123  77.985435
2.122  77.898247
2.121  77.818048
2.120  77.846038
2.119  77.846350
2.118  77.790570
2.117  77.781541
2.116  77.750117
2.115  77.662652
2.114  77.582360
2.113  77.542898
2.112  77.546561
2.111  77.478429
2.110  77.376212
2.109  77.330318
2.108  77.296016
2.107  77.277613
2.106  77.227052
2.105  77.193798
2.104  77.190242
2.103  77.147201
2.102  77.101873
2.101  77.052162
2.100  77.039794
2.099  77.065993
2.098  77.109118
2.097  77.132464
2.096  77.088900
2.095  76.995446
2.094  77.059401
2.093  77.120806
2.092  77.093162
2.091  77.091261
2.090  77.099402
2.089  77.109419
2.088  77.142059
2.087  77.129411
2.086  77.113053
2.085  77.128233
2.084  77.199959
2.083  77.239577
2.082  77.213467
2.081  77.182633
2.080  77.186332
2.079  77.190009
2.078  77.188860
2.077  77.217330
2.076  77.211016
2.075  77.216619
2.074  77.210155
2.073  77.223881
2.072  77.230563
2.071  77.226687
2.070  77.264924
2.069  77.293116
2.068  77.300913
2.067  77.338038
2.066  77.313771
2.065  77.305225
2.064  77.372167
2.063  77.352555
2.062  77.361906
2.061  77.379103
2.060  77.345329
2.059  77.350796
2.058  77.385803
2.057  77.383590
2.056  77.322523
2.055  77.324022
2.054  77.344962
2.053  77.314553
2.052  77.423061
2.051  77.477319
2.050  77.424906
2.049  77.407281
2.048  77.381456
2.047  77.432039
2.046  77.432028
2.045  77.429685
2.044  77.495565
2.043  77.494669
2.042  77.511727
2.041  77.536446
2.040  77.548825
2.039  77.576055
2.038  77.509001
2.037  77.517188
2.036  77.506209
2.035  77.548909
2.034  77.562198
2.033  77.542560
2.032  77.579010
2.031  77.557122
2.030  77.517053
2.029  77.514042
2.028  77.533804
2.027  77.525114
2.026  77.516722
2.025  77.529853
2.024  77.543166
2.023  77.498037
2.022  77.576687
2.021  77.596987
2.020  77.538594
2.019  77.519948
2.018  77.524481
2.017  77.555096
2.016  77.506317
2.015  77.512560
2.014  77.496036
2.013  77.482906
2.012  77.467512
2.011  77.481335
2.010  77.514772
2.009  77.535782
2.008  77.515495
2.007  77.544792
2.006  77.473765
2.005  77.463981
2.004  77.515743
2.003  77.547728
2.002  77.496146
2.001  77.585387
2.000  77.510196
1.999  77.466788
1.998  77.413217
1.997  77.454196
1.996  77.406834
1.995  77.451648
1.994  77.457782
1.993  77.380804
1.992  77.411198
1.991  77.399794
1.990  77.364576
1.989  77.393134
1.988  77.353196
1.987  77.324965
1.986  77.356803
1.985  77.362015
1.984  77.309803
1.983  77.293860
1.982  77.221285
1.981  77.257115
1.980  77.280995
1.979  77.306191
1.978  77.244045
1.977  77.300840
1.976  77.259024
1.975  77.279254
1.974  77.208888
1.973  77.269936
1.972  77.271346
1.971  77.252181
1.970  77.155679
1.969  77.222563
1.968  77.311920
1.967  77.228610
1.966  77.284204
1.965  77.247279
1.964  77.261282
1.963  77.220089
1.962  77.203060
1.961  77.206940
1.960  77.186434
1.959  77.149955
1.958  77.234543
1.957  77.227297
1.956  77.161947
1.955  77.266909
1.954  77.110533
1.953  77.216187
1.952  77.150220
1.951  77.199391
1.950  77.193891
1.949  77.176931
1.948  77.142497
1.947  77.232863
1.946  77.226177
1.945  77.129258
1.944  77.171147
1.943  77.250282
1.942  77.168797
1.941  77.297137
1.940  77.177760
1.939  77.190720
1.938  77.191983
1.937  77.203251
1.936  77.263184
1.935  77.188835
1.934  77.172889
1.933  77.265728
1.932  77.253657
1.931  77.243240
1.930  77.290312
1.929  77.286511
1.928  77.312513
1.927  77.266406
1.926  77.206288
1.925  77.286896
1.924  77.216164
1.923  77.299163
1.922  77.227367
1.921  77.301882
1.920  77.353752
1.919  77.277003
1.918  77.269448
1.917  77.336939
1.916  77.345717
1.915  77.294198
1.914  77.341870
1.913  77.347446
1.912  77.295656
1.911  77.391640
1.910  77.385450
1.909  77.414299
1.908  77.376948
1.907  77.318849
1.906  77.339891
1.905  77.400053
1.904  77.410859
1.903  77.474818
1.902  77.431016
1.901  77.407716
1.900  77.444223
1.899  77.392832
1.898  77.408048
1.897  77.510144
1.896  77.431214
1.895  77.525213
1.894  77.493503
1.893  77.516216
1.892  77.424090
1.891  77.489398
1.890  77.562056
1.889  77.473518
1.888  77.501984
1.887  77.533371
1.886  77.550613
1.885  77.570276
1.884  77.543602
1.883  77.530887
1.882  77.571655
1.881  77.562792
1.880  77.607457
1.879  77.640199
1.878  77.599893
1.877  77.580392
1.876  77.655254
1.875  77.579201
1.874  77.621028
1.873  77.669771
1.872  77.605373
1.871  77.612629
1.870  77.613199
1.869  77.599651
1.868  77.572337
1.867  77.594296
1.866  77.639810
1.865  77.678746
1.864  77.726506
1.863  77.623026
1.862  77.638378
1.861  77.652138
1.860  77.698943
1.859  77.593521
1.858  77.618643
1.857  77.650377
1.856  77.642849
1.855  77.654585
1.854  77.624868
1.853  77.572601
1.852  77.623353
1.851  77.649041
1.850  77.598696
1.849  77.633004
1.848  77.577455
1.847  77.654382
1.846  77.675921
1.845  77.700292
1.844  77.712270
1.843  77.689443
1.842  77.691665
1.841  77.685760
1.840  77.702403
1.839  77.626987
1.838  77.630359
1.837  77.678054
1.836  77.619539
1.835  77.614345
1.834  77.622125
1.833  77.656853
1.832  77.581273
1.831  77.653002
1.830  77.602381
1.829  77.640991
1.828  77.644344
1.827  77.664627
1.826  77.585620
1.825  77.620619
1.824  77.686552
1.823  77.699129
1.822  77.666508
1.821  77.658369
1.820  77.646606
1.819  77.639504
1.818  77.632754
1.817  77.654817
1.816  77.677629
1.815  77.643486
1.814  77.631290
1.813  77.652553
1.812  77.634372
1.811  77.673332
1.810  77.630980
1.809  77.685546
1.808  77.682067
1.807  77.650913
1.806  77.649046
1.805  77.635357
1.804  77.691006
1.803  77.678997
1.802  77.603363
1.801  77.645827
1.800  77.668358
1.799  77.699098
1.798  77.679506
1.797  77.673685
1.796  77.677971
1.795  77.685819
1.794  77.665913
1.793  77.602178
1.792  77.679633
1.791  77.695051
1.790  77.640800
1.789  77.640817
1.788  77.650342
1.787  77.666716
1.786  77.635925
1.785  77.542926
1.784  77.546060
1.783  77.600668
1.782  77.661662
1.781  77.618010
1.780  77.540720
1.779  77.611676
1.778  77.618736
1.777  77.592769
1.776  77.617610
1.775  77.624124
1.774  77.608485
1.773  77.578542
1.772  77.537393
1.771  77.532218
1.770  77.540229
1.769  77.554439
1.768  77.527016
1.767  77.529689
1.766  77.591840
1.765  77.568193
1.764  77.545203
1.763  77.559102
1.762  77.561645
1.761  77.552100
1.760  77.519749
1.759  77.513446
1.758  77.548040
1.757  77.572575
1.756  77.556778
1.755  77.535066
1.754  77.525073
1.753  77.518196
1.752  77.526514
1.751  77.531183
1.750  77.622567
1.749  77.599466
1.748  77.523217
1.747  77.546860
1.746  77.584098
1.745  77.573683
1.744  77.630068
1.743  77.573967
1.742  77.546212
1.741  77.589250
1.740  77.566825
1.739  77.540697
1.738  77.568293
1.737  77.574597
1.736  77.562185
1.735  77.558867
1.734  77.588564
1.733  77.639390
1.732  77.614985
1.731  77.566450
1.730  77.591896
1.729  77.628083
1.728  77.617807
1.727  77.602834
1.726  77.582332
1.725  77.593624
1.724  77.558368
1.723  77.570795
1.722  77.625651
1.721  77.627304
1.720  77.543626
1.719  77.573712
1.718  77.591728
1.717  77.659949
1.716  77.629945
1.715  77.563107
1.714  77.576178
1.713  77.518601
1.712  77.568665
1.711  77.535512
1.710  77.528836
1.709  77.518403
1.708  77.519874
1.707  77.556547
1.706  77.609119
1.705  77.603196
1.704  77.524546
1.703  77.494154
1.702  77.538673
1.701  77.591602
1.700  77.576802
1.699  77.484906
1.698  77.416527
1.697  77.475716
1.696  77.524249
1.695  77.450784
1.694  77.478732
1.693  77.477195
1.692  77.488917
1.691  77.466316
1.690  77.497748
1.689  77.499572
1.688  77.490373
1.687  77.426952
1.686  77.487118
1.685  77.474868
1.684  77.465322
1.683  77.421313
1.682  77.478995
1.681  77.484672
1.680  77.466646
1.679  77.492868
1.678  77.525885
1.677  77.457386
1.676  77.422888
1.675  77.526517
1.674  77.448785
1.673  77.444167
1.672  77.469286
1.671  77.437736
1.670  77.500036
1.669  77.478672
1.668  77.404111
1.667  77.363222
1.666  77.404980
1.665  77.353076
1.664  77.371449
1.663  77.358651
1.662  77.371824
1.661  77.472145
1.660  77.493305
1.659  77.324665
1.658  77.434940
1.657  77.484420
1.656  77.416833
1.655  77.499369
1.654  77.477506
1.653  77.397314
1.652  77.373991
1.651  77.364050
1.650  77.453615
1.649  77.448262
1.648  77.399224
1.647  77.357311
1.646  77.378765
1.645  77.483415
1.644  77.327102
1.643  77.321738
1.642  77.418453
1.641  77.378217
1.640  77.372984
1.639  77.420166
1.638  77.458121
1.637  77.305079
1.636  77.431544
1.635  77.294975
1.634  77.371184
1.633  77.341102
1.632  77.374871
1.631  77.316708
1.630  77.377340
1.629  77.333695
1.628  77.269179
1.627  77.324966
1.626  77.367148
1.625  77.387379
1.624  77.343947
1.623  77.351635
1.622  77.418218
1.621  77.304317
1.620  77.316747
1.619  77.314179
1.618  77.361185
1.617  77.293418
1.616  77.302910
1.615  77.344565
1.614  77.317025
1.613  77.261271
1.612  77.301100
1.611  77.336024
1.610  77.358898
1.609  77.320886
1.608  77.337367
1.607  77.356126
1.606  77.370495
1.605  77.326346
1.604  77.374099
1.603  77.425160
1.602  77.330323
1.601  77.360057
1.600  77.404552
1.599  77.324227
1.598  77.368736
1.597  77.311579
1.596  77.283014
1.595  77.244924
1.594  77.353634
1.593  77.270830
1.592  77.322153
1.591  77.301493
1.590  77.341659
1.589  77.344389
1.588  77.321470
1.587  77.310680
1.586  77.285593
1.585  77.288065
1.584  77.340055
1.583  77.296245
1.582  77.236232
1.581  77.218958
1.580  77.268874
1.579  77.286454
1.578  77.270508
1.577  77.302901
1.576  77.317389
1.575  77.236345
1.574  77.222747
1.573  77.217851
1.572  77.242795
1.571  77.229428
1.570  77.222369
1.569  77.200809
1.568  77.239233
1.567  77.143331
1.566  77.260744
1.565  77.262341
1.564  77.279942
1.563  77.243277
1.562  77.194685
1.561  77.172226
1.560  77.163175
1.559  77.182505
1.558  77.198643
1.557  77.172939
1.556  77.131854
1.555  77.119645
1.554  77.140165
1.553  77.165742
1.552  77.177439
1.551  77.160888
1.550  77.198855
1.549  77.208299
1.548  77.152722
1.547  77.144615
1.546  77.136706
1.545  77.126214
1.544  77.172237
1.543  77.195148
1.542  77.183643
1.541  77.167952
1.540  77.198690
1.539  77.139253
1.538  77.114643
1.537  77.094404
1.536  77.109904
1.535  77.135836
1.534  77.181364
1.533  77.133766
1.532  77.101803
1.531  77.062187
1.530  77.098146
1.529  77.063990
1.528  77.087734
1.527  77.038395
1.526  77.055553
1.525  77.076427
1.524  77.106109
1.523  77.101750
1.522  77.103722
1.521  77.093609
1.520  77.107460
1.519  77.117310
1.518  77.104744
1.517  77.098231
1.516  77.083570
1.515  77.105481
1.514  77.096850
1.513  77.038726
1.512  77.036154
1.511  77.096054
1.510  77.053937
1.509  77.011028
1.508  77.036980
1.507  77.063114
1.506  77.026456
1.505  77.005020
1.504  77.024750
1.503  76.989729
1.502  77.008681
1.501  77.046947
1.500  77.002860
1.499  76.989634
1.498  77.016266
1.497  77.007013
1.496  76.960319
1.495  76.961881
1.494  76.962343
1.493  76.969628
1.492  76.990321
1.491  76.992781
1.490  77.009348
1.489  76.980250
1.488  76.956130
1.487  76.959451
1.486  76.939895
1.485  76.954364
1.484  76.986485
1.483  76.980039
1.482  76.949731
1.481  76.939966
1.480  76.899748
1.479  76.895486
1.478  76.935841
1.477  76.959691
1.476  76.955106
1.475  76.976411
1.474  76.967694
1.473  76.977587
1.472  76.924425
1.471  76.911886
1.470  76.910340
1.469  76.920049
1.468  76.913348
1.467  76.906270
1.466  76.878858
1.465  76.854742
1.464  76.830384
1.463  76.879317
1.462  76.893058
1.461  76.876291
1.460  76.803472
1.459  76.882018
1.458  76.902983
1.457  76.841144
1.456  76.857466
1.455  76.860622
1.454  76.825898
1.453  76.875259
1.452  76.866490
1.451  76.860633
1.450  76.803121
1.449  76.847979
1.448  76.869338
1.447  76.853669
1.446  76.825623
1.445  76.923022
1.444  76.931035
1.443  76.937693
1.442  76.881775
1.441  76.927458
1.440  76.881014
1.439  76.853652
1.438  76.771313
1.437  76.819677
1.436  76.830704
1.435  76.847974
1.434  76.895742
1.433  76.875451
1.432  76.827208
1.431  76.817734
1.430  76.823618
1.429  76.823389
1.428  76.803399
1.427  76.790536
1.426  76.855499
1.425  76.784827
1.424  76.737051
1.423  76.789877
1.422  76.787991
1.421  76.742583
1.420  76.722406
1.419  76.765017
