Name: Anthophyllite (Mg,Fe^2+)_7Si_8O_22(OH)_2
Type: Mineral
Class: Silicates
Subclass: Inosilicates
Particle Size: 45-125um
Sample No.: IN-8A
Owner: JPL
Wavelength range: IR
Origin: USA, North Carolina
Collected by Ward's
Description: 





Measurement: Hemispherical reflectance
First Column: X
Second Column: Y
X Units:  Wavelength (micrometers)
Y Units:  Reflectance (percent)
First X Value: 15.3853
Last X Value: 2.00032
Number of X Values: 2256
Additional information: in08aa.txt
 
15.3853	4.66703
15.3397	4.94795
15.2945	4.95307
15.2495	4.76326
15.2048	4.97824
15.1603	5.314
15.1161	5.42064
15.0722	5.8232
15.0285	6.73409
14.9851	7.86538
14.9419	9.00131
14.8989	10.1172
14.8563	11.1053
14.8138	11.4577
14.7716	11.348
14.7296	11.0045
14.6879	10.3989
14.6464	9.51917
14.6052	8.63539
14.5641	7.72611
14.5233	6.51738
14.4828	5.20429
14.4424	3.97207
14.4023	3.00661
14.3624	2.25389
14.3227	1.84979
14.2833	1.65999
14.244	1.4755
14.205	1.18112
14.1662	1.09169
14.1276	1.22631
14.0892	1.32426
14.051	1.34658
14.0131	1.38485
13.9753	1.51414
13.9377	1.67381
13.9004	1.89596
13.8632	2.20875
13.8262	2.29341
13.7895	2.35346
13.7529	2.45707
13.7165	2.63146
13.6803	2.84734
13.6443	2.80803
13.6085	2.89702
13.5729	3.31076
13.5374	3.59003
13.5022	3.73894
13.4671	3.93249
13.4322	4.11894
13.3975	4.24125
13.363	4.24936
13.3286	4.2919
13.2944	4.35102
13.2604	4.30469
13.2266	4.36973
13.193	4.32969
13.1595	4.57762
13.1262	4.94943
13.093	4.98827
13.06	5.02039
13.0272	5.22243
12.9946	5.26171
12.9621	5.28874
12.9298	5.3543
12.8976	5.26402
12.8656	4.87203
12.8337	4.53579
12.8021	4.59446
12.7705	4.76518
12.7391	4.7347
12.7079	4.74298
12.6769	4.98774
12.6459	5.20807
12.6152	5.57096
12.5845	5.89733
12.5541	6.13923
12.5238	6.45173
12.4936	6.56006
12.4635	6.59884
12.4337	6.75499
12.4039	7.04614
12.3743	7.12222
12.3448	7.18815
12.3155	7.36781
12.2863	7.46767
12.2573	7.5842
12.2284	7.74056
12.1996	7.8012
12.171	7.91396
12.1425	8.11582
12.1141	8.41324
12.0859	8.61831
12.0578	8.80629
12.0298	8.98146
12.0019	9.11822
11.9742	9.06753
11.9466	9.11153
11.9192	9.20229
11.8918	9.22776
11.8646	9.17944
11.8375	9.15784
11.8106	9.20955
11.7837	9.24648
11.757	9.38218
11.7304	9.53433
11.7039	9.67199
11.6776	9.73445
11.6513	9.81226
11.6252	9.90178
11.5992	9.90548
11.5733	9.97937
11.5475	10.1783
11.5219	10.3939
11.4963	10.4718
11.4709	10.6609
11.4455	10.8703
11.4203	11.0282
11.3952	11.1642
11.3702	11.1737
11.3454	11.0889
11.3206	11.0597
11.2959	11.0863
11.2714	11.1228
11.2469	11.0614
11.2226	11.0427
11.1983	11.0529
11.1742	10.891
11.1502	10.637
11.1263	10.541
11.1024	10.5611
11.0787	10.6074
11.0551	10.6612
11.0316	10.6129
11.0081	10.4131
10.9848	10.1999
10.9616	10.2159
10.9385	10.3881
10.9154	10.462
10.8925	10.6044
10.8697	10.6723
10.8469	10.6925
10.8243	10.8751
10.8017	11.092
10.7793	11.2811
10.7569	11.3582
10.7346	11.3789
10.7125	11.3822
10.6904	11.433
10.6684	11.5512
10.6465	11.5849
10.6247	11.5355
10.6029	11.376
10.5813	11.353
10.5597	11.3383
10.5383	11.2913
10.5169	11.1737
10.4956	11.0592
10.4744	11.0133
10.4533	10.8323
10.4323	10.4798
10.4113	10.1985
10.3904	10.2217
10.3697	10.2272
10.349	10.0429
10.3284	9.98594
10.3078	10.0074
10.2874	10.1343
10.267	10.2651
10.2467	10.3568
10.2265	10.4428
10.2064	10.6841
10.1863	10.8633
10.1663	10.8696
10.1464	10.9478
10.1266	10.9608
10.1069	10.8579
10.0872	10.7692
10.0676	10.6896
10.0481	10.6903
10.0287	10.8437
10.0093	10.9958
9.99005	11.2338
9.97084	11.55
9.95169	11.9555
9.93263	12.6762
9.91364	13.6768
9.89472	14.7511
9.87587	15.9254
9.8571	17.2578
9.83839	18.6748
9.81976	19.9905
9.80119	21.0176
9.78271	21.7413
9.76428	22.3303
9.74592	22.8775
9.72764	23.3378
9.70943	23.6661
9.69128	23.8534
9.6732	24.0631
9.65518	24.2304
9.63724	24.236
9.61935	24.2739
9.60155	24.1981
9.5838	23.8664
9.56611	23.3855
9.5485	22.881
9.53094	22.2212
9.51345	21.3504
9.49604	20.4617
9.47867	20.1289
9.46137	20.3273
9.44414	20.8029
9.42697	21.4119
9.40986	22.0806
9.39281	22.6381
9.37583	23.0835
9.35891	23.3833
9.34204	23.6423
9.32524	23.8319
9.3085	23.8828
9.29182	23.9078
9.27519	23.9598
9.25863	23.8529
9.24213	23.5722
9.22568	23.2411
9.2093	23.0243
9.19297	22.7211
9.17669	22.4236
9.16048	22.2824
9.14433	22.3355
9.12823	22.5922
9.11218	22.7126
9.0962	22.5759
9.08027	22.506
9.06439	22.5183
9.04858	22.2817
9.03281	21.9885
9.0171	21.9261
9.00145	21.9441
8.98585	21.901
8.9703	21.7475
8.9548	21.6185
8.93937	21.4862
8.92398	21.1715
8.90865	20.8376
8.89337	20.4729
8.87814	20.2382
8.86296	20.1501
8.84784	19.9641
8.83277	19.7503
8.81774	19.6158
8.80277	19.467
8.78786	19.2678
8.77298	19.1605
8.75816	18.9794
8.7434	18.74
8.72868	18.3481
8.714	17.9038
8.69938	17.613
8.68481	17.1109
8.67029	16.324
8.65581	15.5141
8.64139	14.8422
8.62701	14.3122
8.61268	13.6987
8.5984	13.032
8.58416	12.3186
8.56997	11.7319
8.55583	11.0665
8.54174	10.3171
8.52769	9.64025
8.51368	9.24968
8.49973	8.8214
8.48582	8.10819
8.47195	7.58164
8.45813	7.18681
8.44436	6.86248
8.43062	6.43297
8.41693	5.96109
8.4033	5.61332
8.3897	5.3491
8.37614	4.95581
8.36264	4.57229
8.34917	4.36449
8.33574	4.06438
8.32236	3.78269
8.30903	3.5393
8.29573	3.33786
8.28248	3.13996
8.26927	3.00735
8.2561	2.95522
8.24298	2.85844
8.2299	2.77811
8.21685	2.64365
8.20385	2.50666
8.19089	2.36667
8.17797	2.36478
8.16509	2.30553
8.15225	2.1873
8.13946	2.15021
8.1267	2.25287
8.11398	2.31495
8.10131	2.21643
8.08867	2.26
8.07606	2.33833
8.0635	2.27494
8.05099	2.27752
8.0385	2.26822
8.02606	2.28703
8.01366	2.29125
8.00129	2.31648
7.98896	2.30362
7.97667	2.3826
7.96442	2.49845
7.9522	2.59496
7.94002	2.60589
7.92788	2.65075
7.91578	2.76371
7.90371	2.81629
7.89168	2.88494
7.87969	2.95746
7.86773	2.95638
7.85581	2.95731
7.84392	3.02912
7.83207	3.23502
7.82026	3.33744
7.80849	3.30493
7.79674	3.34743
7.78503	3.46256
7.77337	3.4894
7.76173	3.48185
7.75012	3.49278
7.73856	3.52743
7.72703	3.48617
7.71553	3.547
7.70406	3.7592
7.69263	3.86267
7.68123	3.88117
7.66987	3.9852
7.65855	4.02807
7.64725	4.03186
7.63598	4.00639
7.62475	4.07707
7.61356	4.2093
7.60239	4.28432
7.59126	4.3687
7.58017	4.51631
7.5691	4.62005
7.55806	4.64628
7.54707	4.68506
7.5361	4.83579
7.52516	4.99794
7.51425	5.16203
7.50338	5.23483
7.49253	5.28108
7.48172	5.33412
7.47094	5.48817
7.46019	5.68895
7.44947	5.7363
7.43879	5.76091
7.42813	5.76612
7.4175	5.84297
7.4069	5.95402
7.39634	5.96753
7.3858	6.03037
7.37529	6.19705
7.36482	6.35759
7.35437	6.54697
7.34396	6.70471
7.33357	6.75992
7.32321	6.80593
7.31288	6.94978
7.30258	7.13745
7.29231	7.27931
7.28207	7.37428
7.27185	7.44412
7.26167	7.48428
7.25152	7.56046
7.24139	7.56568
7.23129	7.65234
7.22122	7.76868
7.21117	7.79526
7.20116	7.72459
7.19117	7.71178
7.18121	7.83978
7.17128	8.04657
7.16137	8.1039
7.1515	8.28938
7.14164	8.40485
7.13182	8.43658
7.12203	8.59652
7.11225	8.78425
7.10251	8.86292
7.0928	8.98528
7.08311	9.10421
7.07344	9.14981
7.06381	9.20525
7.0542	9.43332
7.04461	9.728
7.03506	9.76949
7.02552	9.91743
7.01601	10.0859
7.00653	10.2274
6.99708	10.4497
6.98765	10.7069
6.97824	10.8507
6.96886	11.1374
6.95951	11.42
6.95018	11.393
6.94087	11.5732
6.9316	11.8276
6.92234	12.0629
6.91311	12.4077
6.90391	12.6443
6.89473	12.6654
6.88557	12.7721
6.87644	13.0221
6.86733	13.5237
6.85824	13.5542
6.84918	13.2484
6.84015	13.2644
6.83114	13.6532
6.82215	13.8582
6.81319	13.8204
6.80424	14.1118
6.79532	14.6855
6.78643	14.9911
6.77756	15.0613
6.76871	15.1545
6.75989	15.2257
6.75109	15.4631
6.74231	15.7402
6.73355	16.0797
6.72482	16.4541
6.71611	16.8397
6.70742	17.0139
6.69875	16.989
6.69011	17.2259
6.68149	17.57
6.67289	17.5338
6.66431	17.4147
6.65576	17.4076
6.64722	17.9178
6.63871	18.6047
6.63022	18.2577
6.62175	17.7153
6.61331	17.6016
6.60488	17.5514
6.59648	17.6407
6.5881	17.672
6.57974	17.8734
6.5714	18.0564
6.56308	17.6889
6.55478	17.4925
6.54651	17.3016
6.53825	17.1766
6.53001	17.2972
6.5218	17.5402
6.51361	17.4169
6.50544	17.6964
6.49729	18.6309
6.48915	18.8858
6.48104	18.5553
6.47295	18.3803
6.46488	18.1098
6.45683	18.1317
6.4488	18.2385
6.44079	18.2705
6.4328	18.4453
6.42482	18.7721
6.41687	19.6208
6.40894	19.3783
6.40103	18.5232
6.39314	18.3375
6.38526	18.2961
6.37741	18.5584
6.36957	18.8513
6.36176	18.6151
6.35396	18.6035
6.34618	19.0716
6.33843	18.8265
6.33069	18.3306
6.32297	18.3087
6.31527	18.3393
6.30758	18.2767
6.29992	18.2269
6.29227	18.2919
6.28465	18.3642
6.27704	18.3732
6.26945	18.2692
6.26188	18.2853
6.25432	18.2226
6.24679	18.0868
6.23927	18.0672
6.23177	18.0304
6.22429	17.8697
6.21683	17.7251
6.20938	17.6269
6.20195	17.4663
6.19454	17.5001
6.18715	17.78
6.17978	17.4324
6.17242	16.9888
6.16508	16.9604
6.15776	16.7403
6.15045	16.343
6.14317	16.0631
6.1359	15.627
6.12864	15.1327
6.12141	14.8727
6.11419	14.6403
6.10699	13.7761
6.0998	12.9352
6.09263	12.3838
6.08549	12.1031
6.07835	12.1259
6.07123	12.0854
6.06413	11.8079
6.05705	11.9346
6.04998	12.3632
6.04293	11.7224
6.0359	10.9742
6.02888	10.6306
6.02187	10.4175
6.01489	10.2607
6.00792	9.91975
6.00096	9.6523
5.99403	9.71197
5.98711	9.75168
5.9802	9.6414
5.97331	9.79631
5.96644	10.0988
5.95958	10.3226
5.95274	10.9305
5.94591	11.6859
5.9391	12.7082
5.9323	13.0877
5.92552	13.0669
5.91876	13.3392
5.91201	13.5412
5.90528	13.765
5.89856	14.1096
5.89186	13.838
5.88517	13.7214
5.8785	13.4658
5.87184	12.5739
5.8652	12.265
5.85857	12.0672
5.85196	11.9343
5.84536	11.9871
5.83878	12.248
5.83221	12.756
5.82566	13.4516
5.81912	13.9069
5.81259	13.9903
5.80608	14.1596
5.79959	14.3255
5.79311	14.4752
5.78665	14.7004
5.78019	14.9192
5.77376	15.2794
5.76734	15.7701
5.76093	15.4338
5.75453	15.1139
5.74815	15.2311
5.74179	15.0141
5.73543	14.8295
5.7291	14.7047
5.72277	14.5774
5.71646	14.4605
5.71017	14.3567
5.70389	13.881
5.69762	13.4781
5.69136	13.2438
5.68513	13.057
5.6789	13.0123
5.67268	12.882
5.66648	12.6499
5.6603	12.6953
5.65413	12.7935
5.64797	12.873
5.64182	13.0324
5.63569	12.9475
5.62957	12.8474
5.62347	12.7803
5.61737	12.702
5.61129	12.6289
5.60522	12.5857
5.59917	12.5539
5.59313	12.546
5.5871	12.6114
5.58109	12.704
5.57509	12.5858
5.5691	12.3914
5.56312	12.2822
5.55716	12.3161
5.55121	12.3672
5.54528	12.1798
5.53935	12.0629
5.53344	12.1041
5.52754	12.1348
5.52166	12.1023
5.51578	12.0992
5.50992	12.138
5.50407	12.0911
5.49823	12.0102
5.49241	12.0088
5.4866	12.0506
5.4808	12.158
5.47501	12.3022
5.46923	12.563
5.46347	12.7932
5.45772	12.9703
5.45198	13.3217
5.44625	13.8037
5.44054	14.196
5.43484	14.5258
5.42914	14.8987
5.42347	15.3314
5.4178	15.3311
5.41214	15.2415
5.4065	15.3198
5.40087	15.3209
5.39525	15.2033
5.38964	15.1056
5.38404	15.0796
5.37846	15.1673
5.37288	15.2711
5.36732	15.3131
5.36177	15.4097
5.35623	15.5604
5.35071	15.8457
5.34519	15.9701
5.33968	15.9491
5.33419	16.1278
5.32871	16.3881
5.32324	16.6475
5.31778	16.965
5.31233	17.2242
5.30689	17.4288
5.30147	17.598
5.29605	17.7185
5.29065	17.7713
5.28525	17.7328
5.27987	17.7553
5.2745	17.7156
5.26914	17.5903
5.26379	17.4456
5.25845	17.2613
5.25312	17.0379
5.24781	16.8885
5.2425	16.7302
5.23721	16.4584
5.23192	16.2392
5.22665	16.0717
5.22138	15.9499
5.21613	16.0049
5.21089	16.0391
5.20566	16.0792
5.20044	16.2779
5.19522	16.6564
5.19002	17.0804
5.18483	17.4893
5.17965	17.8491
5.17448	18.139
5.16933	18.4229
5.16418	18.6512
5.15904	18.8147
5.15391	18.9991
5.14879	19.1677
5.14368	19.2731
5.13859	19.3857
5.1335	19.4945
5.12842	19.7319
5.12335	20.0885
5.1183	20.4699
5.11325	20.8946
5.10821	21.4441
5.10318	22.0932
5.09817	22.8391
5.09316	23.6598
5.08816	24.4562
5.08317	25.2349
5.07819	25.8264
5.07322	26.3789
5.06826	26.8399
5.06331	27.2223
5.05837	27.5152
5.05344	27.8935
5.04852	28.2376
5.04361	28.4761
5.03871	28.6216
5.03382	28.7297
5.02894	28.818
5.02406	28.9374
5.0192	28.9665
5.01435	28.8695
5.0095	28.8443
5.00467	28.81
4.99984	28.7829
4.99502	28.7654
4.99021	28.7015
4.98542	28.6407
4.98063	28.6105
4.97585	28.537
4.97108	28.4872
4.96632	28.4744
4.96156	28.3258
4.95682	28.1702
4.95209	27.89
4.94736	27.6845
4.94264	27.6392
4.93794	27.7551
4.93324	28.0972
4.92855	28.4796
4.92387	28.9287
4.9192	29.3676
4.91453	29.7092
4.90988	30.0898
4.90524	30.5872
4.9006	31.0691
4.89597	31.4859
4.89135	32.0177
4.88674	32.5203
4.88214	32.9486
4.87755	33.3543
4.87296	33.7754
4.86839	34.1849
4.86382	34.5501
4.85926	34.8297
4.85471	35.0348
4.85017	35.2012
4.84564	35.352
4.84111	35.4507
4.8366	35.5537
4.83209	35.6819
4.82759	35.8203
4.8231	36.0148
4.81862	36.1634
4.81415	36.2165
4.80968	36.3308
4.80522	36.4559
4.80077	36.6069
4.79633	36.8176
4.7919	37.0495
4.78747	37.2299
4.78306	37.3507
4.77865	37.4908
4.77425	37.7516
4.76986	38.0265
4.76547	38.3243
4.7611	38.5997
4.75673	38.8251
4.75237	38.9834
4.74802	39.0837
4.74367	39.1942
4.73934	39.2816
4.73501	39.2417
4.73069	39.1288
4.72638	39.0181
4.72207	39.0191
4.71777	39.0486
4.71348	39.018
4.7092	39.0476
4.70493	39.082
4.70066	39.2038
4.69641	39.3199
4.69216	39.4198
4.68791	39.6313
4.68368	39.754
4.67945	39.8385
4.67523	39.9481
4.67102	40.0446
4.66682	40.0825
4.66262	40.1035
4.65843	40.1496
4.65425	40.2832
4.65007	40.3284
4.64591	40.3729
4.64175	40.6086
4.6376	40.9289
4.63345	41.2206
4.62932	41.5256
4.62519	41.833
4.62106	42.1436
4.61695	42.4397
4.61284	42.7589
4.60874	43.0417
4.60465	43.3203
4.60056	43.534
4.59648	43.726
4.59241	43.8946
4.58835	44.0546
4.58429	44.2191
4.58024	44.3127
4.5762	44.3684
4.57216	44.4541
4.56814	44.5586
4.56411	44.6713
4.5601	44.8387
4.55609	44.9571
4.55209	44.9951
4.5481	45.1013
4.54411	45.1765
4.54013	45.2268
4.53616	45.3136
4.5322	45.3621
4.52824	45.464
4.52429	45.5339
4.52034	45.5115
4.51641	45.5511
4.51247	45.6307
4.50855	45.6717
4.50463	45.7
4.50072	45.7319
4.49682	45.7947
4.49292	45.8075
4.48903	45.8273
4.48515	45.9452
4.48127	45.9974
4.4774	45.966
4.47354	45.9657
4.46968	46.0233
4.46584	46.0537
4.46199	46.1199
4.45815	46.2074
4.45432	46.2703
4.4505	46.312
4.44668	46.4339
4.44287	46.4615
4.43907	46.5733
4.43527	46.8453
4.43148	47.0001
4.4277	47.0397
4.42392	47.1216
4.42015	47.2597
4.41638	47.4114
4.41262	47.4551
4.40887	47.4702
4.40513	47.5515
4.40139	47.6437
4.39765	47.7883
4.39393	47.8702
4.39021	47.8752
4.38649	47.9181
4.38278	48.0271
4.37908	48.0706
4.37539	48.1384
4.3717	48.2104
4.36801	48.2433
4.36434	48.2983
4.36067	48.3215
4.357	48.316
4.35335	48.4032
4.34969	48.4996
4.34605	48.4853
4.34241	48.4845
4.33877	48.5608
4.33514	48.6839
4.33152	48.7694
4.32791	48.7735
4.3243	48.7531
4.32069	48.8426
4.3171	48.9358
4.31351	48.9935
4.30992	49.0812
4.30634	49.1412
4.30277	49.2117
4.2992	49.2682
4.29564	49.3514
4.29208	49.4775
4.28853	49.5721
4.28499	49.6059
4.28145	49.5596
4.27792	49.7025
4.27439	49.8158
4.27087	49.7839
4.26735	49.7325
4.26384	49.6807
4.26034	49.5714
4.25684	49.5624
4.25335	49.6898
4.24986	49.8166
4.24638	49.9279
4.24291	50.0719
4.23944	50.1911
4.23598	50.2493
4.23252	50.2973
4.22906	50.3359
4.22562	50.321
4.22218	50.2758
4.21874	50.1736
4.21531	50.0509
4.21189	49.965
4.20847	49.9456
4.20506	49.9434
4.20165	49.951
4.19825	49.8687
4.19485	49.8455
4.19146	49.8705
4.18807	49.8871
4.18469	49.8897
4.18132	49.8628
4.17795	49.8575
4.17458	49.9496
4.17123	49.9841
4.16787	49.9778
4.16453	49.9864
4.16118	49.9903
4.15785	49.9729
4.15451	50.0298
4.15119	50.0919
4.14787	50.1599
4.14455	50.1961
4.14124	50.2371
4.13794	50.2605
4.13464	50.2518
4.13134	50.2734
4.12805	50.3121
4.12477	50.3155
4.12149	50.3355
4.11822	50.379
4.11495	50.3829
4.11168	50.3171
4.10843	50.3103
4.10517	50.3968
4.10192	50.4304
4.09868	50.4231
4.09545	50.4449
4.09221	50.4578
4.08899	50.3978
4.08576	50.4184
4.08255	50.4844
4.07933	50.5082
4.07613	50.5322
4.07292	50.415
4.06973	50.346
4.06654	50.381
4.06335	50.411
4.06017	50.4963
4.05699	50.5684
4.05382	50.5723
4.05065	50.5175
4.04749	50.5168
4.04433	50.6212
4.04118	50.6351
4.03803	50.5411
4.03489	50.4898
4.03175	50.5455
4.02862	50.5951
4.02549	50.5825
4.02237	50.597
4.01925	50.5928
4.01614	50.6386
4.01303	50.6961
4.00993	50.6392
4.00683	50.568
4.00373	50.5831
4.00064	50.6968
3.99756	50.7363
3.99448	50.7542
3.9914	50.7553
3.98833	50.7881
3.98527	50.8229
3.98221	50.8184
3.97915	50.8424
3.9761	50.8867
3.97305	50.8655
3.97001	50.8093
3.96697	50.8062
3.96394	50.9027
3.96091	50.9245
3.95789	50.8528
3.95487	50.8198
3.95186	50.8497
3.94885	50.8212
3.94584	50.8352
3.94284	50.9202
3.93984	50.926
3.93685	50.8782
3.93386	50.8634
3.93088	50.9144
3.9279	50.9726
3.92493	50.9197
3.92196	50.9826
3.919	51.019
3.91604	50.9906
3.91308	50.917
3.91013	50.856
3.90718	50.917
3.90424	50.9443
3.9013	50.9232
3.89837	50.9783
3.89544	51.025
3.89252	51.0429
3.8896	50.9994
3.88668	50.9813
3.88377	51.0014
3.88086	50.9973
3.87796	50.987
3.87506	51.0013
3.87217	51.0109
3.86928	51.0211
3.86639	51.0216
3.86351	51.0893
3.86064	51.1428
3.85776	51.1121
3.8549	51.0415
3.85203	51.0513
3.84917	51.1229
3.84631	51.1365
3.84346	51.1158
3.84062	51.0933
3.83777	51.0762
3.83494	51.0795
3.8321	51.0874
3.82927	51.0884
3.82644	51.0556
3.82362	51.0461
3.82081	51.0745
3.81799	51.1042
3.81518	51.0554
3.81238	51.0966
3.80958	51.1319
3.80678	51.2142
3.80399	51.2595
3.8012	51.2317
3.79841	51.2125
3.79563	51.1814
3.79286	51.1672
3.79008	51.2412
3.78731	51.2559
3.78455	51.1954
3.78179	51.2358
3.77903	51.2933
3.77628	51.2689
3.77353	51.2951
3.77079	51.3637
3.76805	51.3464
3.76531	51.3488
3.76258	51.3418
3.75985	51.3205
3.75713	51.3282
3.7544	51.3472
3.75169	51.331
3.74898	51.2817
3.74627	51.2542
3.74356	51.283
3.74086	51.3142
3.73816	51.299
3.73547	51.2136
3.73278	51.223
3.7301	51.3025
3.72741	51.2766
3.72474	51.249
3.72206	51.2551
3.71939	51.3168
3.71673	51.295
3.71406	51.2534
3.71141	51.2406
3.70875	51.1944
3.7061	51.1181
3.70345	51.1123
3.70081	51.1508
3.69817	51.1323
3.69553	51.0579
3.6929	50.9135
3.69027	50.4663
3.68765	50.5125
3.68503	50.9443
3.68241	51.0524
3.6798	51.0575
3.67719	51.023
3.67458	51.0262
3.67198	51.024
3.66938	50.9875
3.66678	50.9566
3.66419	50.8938
3.66161	50.8003
3.65902	50.7444
3.65644	50.7623
3.65387	50.8047
3.65129	50.7727
3.64872	50.7225
3.64616	50.7259
3.64359	50.7022
3.64103	50.7097
3.63848	50.6623
3.63593	50.6224
3.63338	50.6869
3.63084	50.7062
3.6283	50.6464
3.62576	50.5652
3.62322	50.5949
3.62069	50.6297
3.61817	50.6131
3.61564	50.5991
3.61312	50.5355
3.61061	50.528
3.6081	50.5365
3.60559	50.5306
3.60308	50.4822
3.60058	50.4205
3.59808	50.3999
3.59558	50.3931
3.59309	50.429
3.59061	50.3859
3.58812	50.3161
3.58564	50.2869
3.58316	50.237
3.58069	50.1667
3.57822	50.1645
3.57575	50.1417
3.57328	50.1364
3.57082	50.121
3.56836	50.0981
3.56591	50.1169
3.56346	50.1305
3.56101	50.0758
3.55857	50.0363
3.55613	49.9948
3.55369	50.0204
3.55126	49.9963
3.54883	49.9284
3.5464	49.8244
3.54397	49.737
3.54155	49.73
3.53914	49.6885
3.53672	49.6414
3.53431	49.6085
3.5319	49.6
3.5295	49.5048
3.5271	49.44
3.5247	49.4361
3.52231	49.3721
3.51991	49.2067
3.51753	49.052
3.51514	48.9725
3.51276	48.8863
3.51038	48.7246
3.50801	48.5599
3.50563	48.4522
3.50327	48.4283
3.5009	48.3771
3.49854	48.3434
3.49618	48.3289
3.49382	48.2731
3.49147	48.2458
3.48912	48.2303
3.48677	48.2295
3.48443	48.1825
3.48209	48.0751
3.47975	48.0397
3.47742	48.0945
3.47509	48.1481
3.47276	48.1814
3.47044	48.137
3.46812	48.0765
3.4658	48.1308
3.46348	48.1546
