Name: Albite (Feldspar) (K,Na)AlSi_3O_8
Type: Mineral
Class: Silicates
Subclass: Tectosilicates
Particle Size: 125-500um
Sample No.: TS-6A
Owner: JPL
Wavelength range: IR
Origin: 
Collected by JPL
Description:   





Measurement: Hemispherical reflectance
First Column: X
Second Column: Y
X Units:  Wavelength (micrometers)
Y Units:  Reflectance (percent)
First X Value: 15.3853
Last X Value: 2.00032
Number of X Values: 2256
Additional information: ts06aa.txt
 
15.3853	4.41458
15.3397	4.18006
15.2945	3.65883
15.2495	3.1508
15.2048	2.63505
15.1603	2.03687
15.1161	1.69482
15.0722	1.88292
15.0285	1.84825
14.9851	1.71944
14.9419	1.54669
14.8989	1.5485
14.8563	1.60302
14.8138	1.59669
14.7716	1.61735
14.7296	1.74557
14.6879	2.01683
14.6464	2.21205
14.6052	2.02433
14.5641	2.09011
14.5233	2.33972
14.4828	2.19653
14.4424	2.01984
14.4023	2.15586
14.3624	2.37496
14.3227	2.44711
14.2833	2.44924
14.244	2.45435
14.205	2.56371
14.1662	2.55278
14.1276	2.5312
14.0892	2.61021
14.051	2.62379
14.0131	2.61553
13.9753	2.55562
13.9377	2.80916
13.9004	3.06235
13.8632	3.16969
13.8262	3.18799
13.7895	3.21433
13.7529	3.02981
13.7165	2.82121
13.6803	2.88069
13.6443	3.11169
13.6085	3.09867
13.5729	3.05301
13.5374	3.07265
13.5022	2.95403
13.4671	2.9484
13.4322	2.90451
13.3975	2.93134
13.363	3.1114
13.3286	3.0433
13.2944	2.99766
13.2604	3.04474
13.2266	3.20826
13.193	3.22951
13.1595	3.01454
13.1262	2.98213
13.093	2.90458
13.06	2.81518
13.0272	2.73792
12.9946	2.71531
12.9621	2.80445
12.9298	2.69095
12.8976	2.59753
12.8656	2.63725
12.8337	2.68509
12.8021	2.7976
12.7705	2.94173
12.7391	2.94288
12.7079	2.75888
12.6769	2.53596
12.6459	2.44548
12.6152	2.26022
12.5845	2.04365
12.5541	2.06033
12.5238	2.22683
12.4936	2.13641
12.4635	2.0635
12.4337	2.24815
12.4039	2.33605
12.3743	2.28764
12.3448	2.2941
12.3155	2.37712
12.2863	2.46694
12.2573	2.50522
12.2284	2.60147
12.1996	2.68388
12.171	2.79396
12.1425	2.7913
12.1141	2.94615
12.0859	3.04382
12.0578	3.01724
12.0298	3.1195
12.0019	3.15879
11.9742	3.27556
11.9466	3.48272
11.9192	3.48477
11.8918	3.51176
11.8646	3.58305
11.8375	3.61344
11.8106	3.65432
11.7837	3.71909
11.757	3.73839
11.7304	3.80244
11.7039	3.89666
11.6776	3.87464
11.6513	3.91751
11.6252	3.95012
11.5992	3.91149
11.5733	3.95276
11.5475	4.07639
11.5219	4.20442
11.4963	4.34201
11.4709	4.46481
11.4455	4.41265
11.4203	4.51704
11.3952	4.55287
11.3702	4.56552
11.3454	4.73533
11.3206	4.77428
11.2959	4.82443
11.2714	5.11569
11.2469	5.23701
11.2226	5.30404
11.1983	5.40409
11.1742	5.46295
11.1502	5.59946
11.1263	5.70737
11.1024	5.7783
11.0787	5.96293
11.0551	6.07294
11.0316	6.17581
11.0081	6.41687
10.9848	6.60354
10.9616	6.70101
10.9385	6.7471
10.9154	6.91823
10.8925	7.14706
10.8697	7.22374
10.8469	7.30876
10.8243	7.50189
10.8017	7.75247
10.7793	7.7855
10.7569	7.81435
10.7346	8.01184
10.7125	8.16112
10.6904	8.34908
10.6684	8.42999
10.6465	8.49306
10.6247	8.67415
10.6029	8.74961
10.5813	8.76394
10.5597	8.88821
10.5383	9.0717
10.5169	9.16212
10.4956	9.2701
10.4744	9.26885
10.4533	9.32186
10.4323	9.47782
10.4113	9.75322
10.3904	10.0312
10.3697	10.068
10.349	10.1048
10.3284	10.3948
10.3078	10.8542
10.2874	11.17
10.267	11.3394
10.2467	11.6117
10.2265	11.9319
10.2064	12.2639
10.1863	12.5116
10.1663	12.8215
10.1464	13.0384
10.1266	13.2433
10.1069	13.5256
10.0872	13.8269
10.0676	14.0604
10.0481	14.3663
10.0287	14.7615
10.0093	15.06
9.99005	15.3015
9.97084	15.5332
9.95169	15.6529
9.93263	15.8033
9.91364	15.9735
9.89472	16.0784
9.87587	16.2302
9.8571	16.2677
9.83839	16.322
9.81976	16.2043
9.80119	16.1305
9.78271	16.1068
9.76428	15.9331
9.74592	15.8231
9.72764	15.8352
9.70943	15.8791
9.69128	15.8324
9.6732	15.7514
9.65518	15.7319
9.63724	15.5138
9.61935	15.1106
9.60155	14.7565
9.5838	14.4578
9.56611	14.0133
9.5485	13.4492
9.53094	12.8466
9.51345	12.338
9.49604	11.9518
9.47867	11.4842
9.46137	11.0849
9.44414	10.7792
9.42697	10.3628
9.40986	9.89722
9.39281	9.65927
9.37583	9.49534
9.35891	9.37375
9.34204	9.38419
9.32524	9.26199
9.3085	8.92671
9.29182	8.86707
9.27519	9.00175
9.25863	9.13723
9.24213	9.30952
9.22568	9.4622
9.2093	9.48802
9.19297	9.40337
9.17669	9.4295
9.16048	9.47946
9.14433	9.61539
9.12823	9.63695
9.11218	9.59552
9.0962	9.53703
9.08027	9.72014
9.06439	9.9095
9.04858	9.95382
9.03281	10.0388
9.0171	10.1581
9.00145	10.3863
8.98585	10.6009
8.9703	10.6815
8.9548	10.756
8.93937	10.8624
8.92398	11.0292
8.90865	11.3114
8.89337	11.5123
8.87814	11.5377
8.86296	11.5529
8.84784	11.6232
8.83277	11.7835
8.81774	12.0828
8.80277	12.1923
8.78786	12.1858
8.77298	12.2892
8.75816	12.4189
8.7434	12.5026
8.72868	12.5264
8.714	12.4648
8.69938	12.5756
8.68481	12.5475
8.67029	12.6097
8.65581	12.6411
8.64139	12.3608
8.62701	12.2286
8.61268	12.2792
8.5984	12.3084
8.58416	12.2843
8.56997	12.3199
8.55583	12.3187
8.54174	12.2631
8.52769	12.1088
8.51368	12.0665
8.49973	12.0672
8.48582	12.0837
8.47195	12.0105
8.45813	11.8554
8.44436	11.832
8.43062	11.8462
8.41693	11.8129
8.4033	11.761
8.3897	11.5831
8.37614	11.313
8.36264	11.1217
8.34917	10.8657
8.33574	10.64
8.32236	10.354
8.30903	9.91047
8.29573	9.51364
8.28248	9.07461
8.26927	8.52785
8.2561	7.6698
8.24298	6.8946
8.2299	6.24257
8.21685	5.36241
8.20385	4.64072
8.19089	4.11817
8.17797	3.53492
8.16509	3.02435
8.15225	2.682
8.13946	2.29479
8.1267	1.89523
8.11398	1.57174
8.10131	1.39701
8.08867	1.17537
8.07606	0.996869
8.0635	0.90694
8.05099	0.829953
8.0385	0.657958
8.02606	0.508682
8.01366	0.488017
8.00129	0.457635
7.98896	0.39988
7.97667	0.352001
7.96442	0.335079
7.9522	0.392983
7.94002	0.315579
7.92788	0.230491
7.91578	0.228556
7.90371	0.247252
7.89168	0.252591
7.87969	0.217761
7.86773	0.0900937
7.85581	0.0573053
7.84392	0.09563
7.83207	0.187873
7.82026	0.255781
7.80849	0.267789
7.79674	0.219524
7.78503	0.293445
7.77337	0.347001
7.76173	0.248402
7.75012	0.135442
7.73856	0.190184
7.72703	0.223205
7.71553	0.198417
7.70406	0.167163
7.69263	0.197078
7.68123	0.262373
7.66987	0.244425
7.65855	0.243462
7.64725	0.251525
7.63598	0.211623
7.62475	0.2351
7.61356	0.26789
7.60239	0.230609
7.59126	0.244553
7.58017	0.311125
7.5691	0.332076
7.55806	0.247218
7.54707	0.223858
7.5361	0.326251
7.52516	0.369716
7.51425	0.358065
7.50338	0.3811
7.49253	0.366624
7.48172	0.330993
7.47094	0.292511
7.46019	0.293135
7.44947	0.382581
7.43879	0.430498
7.42813	0.419411
7.4175	0.368915
7.4069	0.382808
7.39634	0.458172
7.3858	0.475014
7.37529	0.42895
7.36482	0.440692
7.35437	0.431657
7.34396	0.391738
7.33357	0.397323
7.32321	0.540783
7.31288	0.579905
7.30258	0.414812
7.29231	0.384897
7.28207	0.516737
7.27185	0.561443
7.26167	0.468603
7.25152	0.457673
7.24139	0.509872
7.23129	0.601063
7.22122	0.584932
7.21117	0.566753
7.20116	0.582187
7.19117	0.569315
7.18121	0.643896
7.17128	0.677278
7.16137	0.637058
7.1515	0.666948
7.14164	0.715766
7.13182	0.743913
7.12203	0.774
7.11225	0.782624
7.10251	0.74248
7.0928	0.669712
7.08311	0.632423
7.07344	0.673883
7.06381	0.770171
7.0542	0.791867
7.04461	0.749701
7.03506	0.817854
7.02552	0.883795
7.01601	0.843837
7.00653	0.820312
6.99708	0.86645
6.98765	0.850261
6.97824	0.885737
6.96886	0.850999
6.95951	0.849844
6.95018	0.900994
6.94087	0.825217
6.9316	0.840006
6.92234	0.914617
6.91311	0.931448
6.90391	0.970785
6.89473	0.934345
6.88557	0.878763
6.87644	0.871536
6.86733	0.939215
6.85824	1.0017
6.84918	0.942402
6.84015	0.917635
6.83114	0.990855
6.82215	0.986521
6.81319	0.948891
6.80424	0.968956
6.79532	1.02222
6.78643	0.959276
6.77756	0.884062
6.76871	0.915864
6.75989	0.921572
6.75109	0.938361
6.74231	0.985056
6.73355	1.07028
6.72482	1.15774
6.71611	1.06805
6.70742	1.04196
6.69875	1.05756
6.69011	1.02715
6.68149	1.02766
6.67289	1.14511
6.66431	1.14875
6.65576	1.07993
6.64722	1.08217
6.63871	1.09416
6.63022	1.09193
6.62175	1.10006
6.61331	1.05084
6.60488	1.03675
6.59648	1.10052
6.5881	1.12016
6.57974	1.09105
6.5714	1.05434
6.56308	1.07806
6.55478	1.16703
6.54651	1.22259
6.53825	1.20165
6.53001	1.14361
6.5218	1.14436
6.51361	1.20193
6.50544	1.24635
6.49729	1.26787
6.48915	1.19364
6.48104	1.16378
6.47295	1.17222
6.46488	1.07895
6.45683	1.05871
6.4488	1.13459
6.44079	1.17439
6.4328	1.21943
6.42482	1.22558
6.41687	1.23734
6.40894	1.2626
6.40103	1.24603
6.39314	1.1486
6.38526	1.10726
6.37741	1.13115
6.36957	1.1525
6.36176	1.19688
6.35396	1.20346
6.34618	1.12775
6.33843	1.16028
6.33069	1.14876
6.32297	1.10617
6.31527	1.15104
6.30758	1.14247
6.29992	1.1606
6.29227	1.18353
6.28465	1.13094
6.27704	1.14049
6.26945	1.17923
6.26188	1.17517
6.25432	1.15512
6.24679	1.18705
6.23927	1.24609
6.23177	1.22214
6.22429	1.18786
6.21683	1.16264
6.20938	1.13718
6.20195	1.16895
6.19454	1.18656
6.18715	1.18527
6.17978	1.15927
6.17242	1.16007
6.16508	1.16867
6.15776	1.20235
6.15045	1.23893
6.14317	1.24985
6.1359	1.23024
6.12864	1.15861
6.12141	1.16716
6.11419	1.20387
6.10699	1.24767
6.0998	1.3267
6.09263	1.34445
6.08549	1.28078
6.07835	1.27692
6.07123	1.28677
6.06413	1.2613
6.05705	1.30568
6.04998	1.28042
6.04293	1.21497
6.0359	1.2068
6.02888	1.28979
6.02187	1.32162
6.01489	1.3335
6.00792	1.34434
6.00096	1.30419
5.99403	1.2669
5.98711	1.23564
5.9802	1.21618
5.97331	1.23809
5.96644	1.3098
5.95958	1.35432
5.95274	1.32086
5.94591	1.33002
5.9391	1.35376
5.9323	1.33021
5.92552	1.29849
5.91876	1.22001
5.91201	1.23063
5.90528	1.30179
5.89856	1.34887
5.89186	1.33488
5.88517	1.36919
5.8785	1.4298
5.87184	1.38741
5.8652	1.30416
5.85857	1.28737
5.85196	1.32684
5.84536	1.35005
5.83878	1.29139
5.83221	1.35361
5.82566	1.41308
5.81912	1.41023
5.81259	1.34815
5.80608	1.2866
5.79959	1.29627
5.79311	1.29593
5.78665	1.29879
5.78019	1.36569
5.77376	1.38687
5.76734	1.41062
5.76093	1.38962
5.75453	1.33111
5.74815	1.32657
5.74179	1.41271
5.73543	1.39703
5.7291	1.26474
5.72277	1.3456
5.71646	1.50546
5.71017	1.51908
5.70389	1.42521
5.69762	1.32133
5.69136	1.30631
5.68513	1.34675
5.6789	1.32849
5.67268	1.36483
5.66648	1.35425
5.6603	1.30235
5.65413	1.35485
5.64797	1.37744
5.64182	1.35855
5.63569	1.3379
5.62957	1.34199
5.62347	1.36556
5.61737	1.42865
5.61129	1.45138
5.60522	1.47335
5.59917	1.47913
5.59313	1.50637
5.5871	1.5276
5.58109	1.5175
5.57509	1.54181
5.5691	1.57928
5.56312	1.5558
5.55716	1.5362
5.55121	1.57209
5.54528	1.55471
5.53935	1.49185
5.53344	1.49212
5.52754	1.58098
5.52166	1.64525
5.51578	1.6645
5.50992	1.64044
5.50407	1.64497
5.49823	1.68192
5.49241	1.65817
5.4866	1.63634
5.4808	1.69511
5.47501	1.70109
5.46923	1.81329
5.46347	1.84012
5.45772	1.74058
5.45198	1.77053
5.44625	1.81743
5.44054	1.79676
5.43484	1.89003
5.42914	1.94808
5.42347	1.94578
5.4178	1.90837
5.41214	1.86844
5.4065	1.88771
5.40087	1.98051
5.39525	2.05774
5.38964	2.05886
5.38404	2.02411
5.37846	2.04649
5.37288	2.13843
5.36732	2.21768
5.36177	2.23968
5.35623	2.25941
5.35071	2.24175
5.34519	2.17876
5.33968	2.12379
5.33419	2.16687
5.32871	2.21071
5.32324	2.27082
5.31778	2.34276
5.31233	2.35065
5.30689	2.34792
5.30147	2.37308
5.29605	2.33967
5.29065	2.34375
5.28525	2.35926
5.27987	2.36509
5.2745	2.47875
5.26914	2.50903
5.26379	2.44707
5.25845	2.48356
5.25312	2.58132
5.24781	2.54659
5.2425	2.50815
5.23721	2.5603
5.23192	2.60033
5.22665	2.69015
5.22138	2.74655
5.21613	2.80333
5.21089	2.83275
5.20566	2.88017
5.20044	2.94168
5.19522	2.94571
5.19002	2.93273
5.18483	2.93044
5.17965	2.9807
5.17448	3.00897
5.16933	2.99991
5.16418	3.03501
5.15904	3.17744
5.15391	3.2566
5.14879	3.30473
5.14368	3.34924
5.13859	3.35552
5.1335	3.3607
5.12842	3.41093
5.12335	3.51401
5.1183	3.63571
5.11325	3.693
5.10821	3.71036
5.10318	3.75909
5.09817	3.8649
5.09316	3.96698
5.08816	4.11484
5.08317	4.21879
5.07819	4.26533
5.07322	4.30206
5.06826	4.38591
5.06331	4.55239
5.05837	4.58169
5.05344	4.60048
5.04852	4.75523
5.04361	4.91903
5.03871	4.95281
5.03382	5.00955
5.02894	5.13393
5.02406	5.25623
5.0192	5.37456
5.01435	5.42733
5.0095	5.46424
5.00467	5.5425
4.99984	5.68383
4.99502	5.79654
4.99021	5.90763
4.98542	5.96607
4.98063	5.98912
4.97585	6.0371
4.97108	6.17288
4.96632	6.28115
4.96156	6.29431
4.95682	6.31734
4.95209	6.38205
4.94736	6.49283
4.94264	6.54434
4.93794	6.52053
4.93324	6.56733
4.92855	6.67273
4.92387	6.6913
4.9192	6.66169
4.91453	6.75249
4.90988	6.79922
4.90524	6.80332
4.9006	6.88634
4.89597	6.96618
4.89135	7.02518
4.88674	7.01591
4.88214	7.01425
4.87755	7.13073
4.87296	7.25668
4.86839	7.22372
4.86382	7.2124
4.85926	7.3152
4.85471	7.35487
4.85017	7.36577
4.84564	7.43084
4.84111	7.51641
4.8366	7.59115
4.83209	7.60788
4.82759	7.64275
4.8231	7.73804
4.81862	7.77228
4.81415	7.79555
4.80968	7.73207
4.80522	7.69177
4.80077	7.76619
4.79633	7.86084
4.7919	7.8778
4.78747	7.89954
4.78306	7.95709
4.77865	8.00482
4.77425	8.10252
4.76986	8.19702
4.76547	8.191
4.7611	8.16859
4.75673	8.18594
4.75237	8.24733
4.74802	8.2605
4.74367	8.33962
4.73934	8.4558
4.73501	8.53362
4.73069	8.59459
4.72638	8.64896
4.72207	8.67114
4.71777	8.7802
4.71348	8.89715
4.7092	8.98837
4.70493	9.16368
4.70066	9.28113
4.69641	9.28921
4.69216	9.3184
4.68791	9.41361
4.68368	9.55563
4.67945	9.69597
4.67523	9.78673
4.67102	9.96418
4.66682	10.1282
4.66262	10.2344
4.65843	10.3485
4.65425	10.4918
4.65007	10.6479
4.64591	10.815
4.64175	10.9763
4.6376	11.2337
4.63345	11.4023
4.62932	11.4184
4.62519	11.554
4.62106	11.8024
4.61695	12.0302
4.61284	12.2848
4.60874	12.5573
4.60465	12.819
4.60056	12.9266
4.59648	13.0423
4.59241	13.2847
4.58835	13.5128
4.58429	13.6893
4.58024	13.877
4.5762	14.1364
4.57216	14.4163
4.56814	14.6259
4.56411	14.8439
4.5601	15.0418
4.55609	15.2733
4.55209	15.5172
4.5481	15.7686
4.54411	16.0429
4.54013	16.285
4.53616	16.5028
4.5322	16.7918
4.52824	17.1185
4.52429	17.3981
4.52034	17.6048
4.51641	17.8827
4.51247	18.0716
4.50855	18.3152
4.50463	18.6772
4.50072	18.8887
4.49682	19.0534
4.49292	19.3507
4.48903	19.693
4.48515	19.9626
4.48127	20.298
4.4774	20.6584
4.47354	20.8734
4.46968	21.0699
4.46584	21.3978
4.46199	21.712
4.45815	21.9538
4.45432	22.1858
4.4505	22.4667
4.44668	22.6462
4.44287	22.8515
4.43907	23.1941
4.43527	23.4664
4.43148	23.7032
4.4277	24.0056
4.42392	24.3163
4.42015	24.5944
4.41638	24.8049
4.41262	25.0315
4.40887	25.3647
4.40513	25.6724
4.40139	25.9596
4.39765	26.242
4.39393	26.526
4.39021	26.8615
4.38649	27.0972
4.38278	27.3555
4.37908	27.7017
4.37539	28.0094
4.3717	28.2883
4.36801	28.6226
4.36434	28.9884
4.36067	29.3761
4.357	29.6924
4.35335	29.988
4.34969	30.2415
4.34605	30.5186
4.34241	30.9058
4.33877	31.2804
4.33514	31.5437
4.33152	31.7628
4.32791	32.0854
4.3243	32.5314
4.32069	32.8736
4.3171	33.07
4.31351	33.317
4.30992	33.511
4.30634	33.7122
4.30277	34.0115
4.2992	34.3402
4.29564	34.5445
4.29208	34.8138
4.28853	35.1257
4.28499	35.4028
4.28145	35.647
4.27792	35.8923
4.27439	36.2611
4.27087	36.6441
4.26735	37.0696
4.26384	37.6237
4.26034	38.1939
4.25684	38.6284
4.25335	38.7676
4.24986	38.7418
4.24638	38.8152
4.24291	38.8583
4.23944	38.9924
4.23598	39.2363
4.23252	39.5529
4.22906	39.9438
4.22562	40.3364
4.22218	40.7208
4.21874	41.1893
4.21531	41.7114
4.21189	42.2268
4.20847	42.6417
4.20506	43.0044
4.20165	43.3931
4.19825	43.7259
4.19485	43.9762
4.19146	44.2015
4.18807	44.4242
4.18469	44.6601
4.18132	44.8402
4.17795	45.0383
4.17458	45.2035
4.17123	45.3685
4.16787	45.5445
4.16453	45.7363
4.16118	45.9363
4.15785	46.0115
4.15451	46.1181
4.15119	46.3218
4.14787	46.4923
4.14455	46.6028
4.14124	46.6664
4.13794	46.8391
4.13464	46.9948
4.13134	47.0541
4.12805	47.156
4.12477	47.2171
4.12149	47.2889
4.11822	47.3988
4.11495	47.5239
4.11168	47.6232
4.10843	47.6575
4.10517	47.648
4.10192	47.7197
4.09868	47.794
4.09545	47.882
4.09221	47.9364
4.08899	47.9552
4.08576	47.9932
4.08255	48.0713
4.07933	48.1216
4.07613	48.1661
4.07292	48.2276
4.06973	48.2361
4.06654	48.2873
4.06335	48.3375
4.06017	48.3263
4.05699	48.3309
4.05382	48.3433
4.05065	48.33
4.04749	48.2986
4.04433	48.2867
4.04118	48.2298
4.03803	48.0212
4.03489	47.9038
4.03175	47.9203
4.02862	47.8405
4.02549	47.7129
4.02237	47.6225
4.01925	47.5278
4.01614	47.3894
4.01303	47.2481
4.00993	47.0008
4.00683	46.6358
4.00373	46.2973
4.00064	45.9813
3.99756	45.683
3.99448	45.4251
3.9914	45.2168
3.98833	44.9552
3.98527	44.6981
3.98221	44.5725
3.97915	44.653
3.9761	44.8753
3.97305	45.0577
3.97001	45.2039
3.96697	45.2858
3.96394	45.4838
3.96091	45.8079
3.95789	46.1194
3.95487	46.4329
3.95186	46.8684
3.94885	47.2366
3.94584	47.654
3.94284	48.1313
3.93984	48.4831
3.93685	48.6925
3.93386	48.8481
3.93088	48.9155
3.9279	49.0308
3.92493	49.1582
3.92196	49.2325
3.919	49.3784
3.91604	49.4859
3.91308	49.6313
3.91013	49.6775
3.90718	49.7024
3.90424	49.753
3.9013	49.8602
3.89837	49.9786
3.89544	50.0491
3.89252	50.07
3.8896	50.128
3.88668	50.2167
3.88377	50.3411
3.88086	50.5448
3.87796	50.6418
3.87506	50.6603
3.87217	50.662
3.86928	50.7806
3.86639	50.918
3.86351	50.9039
3.86064	50.9168
3.85776	51.0006
3.8549	51.09
3.85203	51.1631
3.84917	51.2555
3.84631	51.3832
3.84346	51.6221
3.84062	51.8197
3.83777	51.9644
3.83494	52.1576
3.8321	52.3117
3.82927	52.4432
3.82644	52.5958
3.82362	52.8181
3.82081	53.0174
3.81799	53.1356
3.81518	53.2425
3.81238	53.4325
3.80958	53.6029
3.80678	53.7989
3.80399	53.9516
3.8012	54.1686
3.79841	54.3143
3.79563	54.4859
3.79286	54.7324
3.79008	54.8762
3.78731	54.9335
3.78455	55.0516
3.78179	55.2087
3.77903	55.2951
3.77628	55.3165
3.77353	55.3553
3.77079	55.468
3.76805	55.5301
3.76531	55.5862
3.76258	55.6321
3.75985	55.6127
3.75713	55.565
3.7544	55.6239
3.75169	55.7589
3.74898	55.8526
3.74627	55.8967
3.74356	55.9165
3.74086	55.8981
3.73816	55.8712
3.73547	55.8806
3.73278	55.9566
3.7301	55.9968
3.72741	56.0182
3.72474	56.0452
3.72206	56.0688
3.71939	56.0915
3.71673	56.1063
3.71406	56.1546
3.71141	56.1832
3.70875	56.1794
3.7061	56.1537
3.70345	56.1279
3.70081	56.1693
3.69817	56.2445
3.69553	56.2668
3.6929	56.2768
3.69027	56.3108
3.68765	56.3822
3.68503	56.3852
3.68241	56.3588
3.6798	56.3258
3.67719	56.3474
3.67458	56.3507
3.67198	56.3491
3.66938	56.3125
3.66678	56.2941
3.66419	56.2657
3.66161	56.233
3.65902	56.2187
3.65644	56.2223
3.65387	56.1898
3.65129	56.1895
3.64872	56.2419
3.64616	56.1837
3.64359	56.1094
3.64103	56.1395
3.63848	56.0986
3.63593	56.0783
3.63338	56.0425
3.63084	56.0189
3.6283	55.9906
3.62576	55.9614
3.62322	55.9392
3.62069	55.8897
3.61817	55.7925
3.61564	55.7251
3.61312	55.6677
3.61061	55.5868
3.6081	55.5732
3.60559	55.4854
3.60308	55.4108
3.60058	55.3889
3.59808	55.3525
3.59558	55.2637
3.59309	55.1319
3.59061	55.0912
3.58812	54.9913
3.58564	54.9168
3.58316	54.8338
3.58069	54.6449
3.57822	54.5072
3.57575	54.4242
3.57328	54.2485
3.57082	54.1494
3.56836	54.0854
3.56591	53.9593
3.56346	53.9145
3.56101	53.8312
3.55857	53.7447
3.55613	53.5758
3.55369	53.3799
3.55126	53.3504
3.54883	53.315
3.5464	53.0932
3.54397	52.8833
3.54155	52.7536
3.53914	52.5667
3.53672	52.4353
3.53431	52.2811
3.5319	52.0074
3.5295	51.7282
3.5271	51.442
3.5247	51.1388
3.52231	50.7967
3.51991	50.528
3.51753	50.2475
3.51514	49.8932
3.51276	49.5543
3.51038	49.2548
3.50801	49.0519
3.50563	48.7697
3.50327	48.5105
3.5009	48.2697
3.49854	48.0937
3.49618	47.9368
3.49382	47.7898
3.49147	47.6073
3.48912	47.5483
3.48677	47.4422
3.48443	47.2942
3.48209	47.1538
3.47975	46.9604
