Name: Sepiolite Mg_4Si_6O_15(OH)_2.6H_2O
Type: Mineral
Class: Silicates
Subclass: Phyllosilicates
Particle Size: 125-500um
Sample No.: PS-5A
Owner: JPL
Wavelength range: IR
Origin: USA, Nevada, Two Crows
Collected by Clay Mineral Society
Description: 





Measurement: Hemispherical reflectance
First Column: X
Second Column: Y
X Units:  Wavelength (micrometers)
Y Units:  Reflectance (percent)
First X Value: 15.3853
Last X Value: 2.00032
Number of X Values: 2256
Additional information: ps05aa.txt
 
15.3853	0.582131
15.3397	0.639971
15.2945	0.634419
15.2495	0.578949
15.2048	0.468241
15.1603	0.501999
15.1161	0.417581
15.0722	0.346185
15.0285	0.167563
14.9851	0.311104
14.9419	0.22502
14.8989	0.159682
14.8563	0.386894
14.8138	0.312224
14.7716	0.232048
14.7296	0.301044
14.6879	0.199603
14.6464	0.106671
14.6052	0.0504817
14.5641	0.0909436
14.5233	0.23153
14.4828	0.42126
14.4424	0.207763
14.4023	0.0771709
14.3624	0.25393
14.3227	0.321143
14.2833	0.121963
14.244	0.0430273
14.205	0.360872
14.1662	0.377753
14.1276	0.309663
14.0892	0.552575
14.051	0.546694
14.0131	0.454386
13.9753	0.343158
13.9377	0.257384
13.9004	0.15548
13.8632	0.182564
13.8262	0.210241
13.7895	0.299
13.7529	0.531755
13.7165	0.504345
13.6803	0.477128
13.6443	0.420408
13.6085	0.365089
13.5729	0.322577
13.5374	0.369866
13.5022	0.410526
13.4671	0.53654
13.4322	0.600163
13.3975	0.540113
13.363	0.414894
13.3286	0.404693
13.2944	0.508415
13.2604	0.654841
13.2266	0.766412
13.193	0.653752
13.1595	0.465952
13.1262	0.433722
13.093	0.527267
13.06	0.512281
13.0272	0.590231
12.9946	0.576023
12.9621	0.554219
12.9298	0.524636
12.8976	0.622129
12.8656	0.640146
12.8337	0.57082
12.8021	0.52919
12.7705	0.557231
12.7391	0.628388
12.7079	0.688923
12.6769	0.552453
12.6459	0.405698
12.6152	0.375221
12.5845	0.43713
12.5541	0.470776
12.5238	0.575506
12.4936	0.704125
12.4635	0.667081
12.4337	0.50682
12.4039	0.442696
12.3743	0.611178
12.3448	0.640622
12.3155	0.609244
12.2863	0.750589
12.2573	0.865049
12.2284	0.763968
12.1996	0.754207
12.171	0.771684
12.1425	0.647846
12.1141	0.622316
12.0859	0.748355
12.0578	0.877524
12.0298	0.922804
12.0019	1.11353
11.9742	1.12609
11.9466	0.897671
11.9192	0.816139
11.8918	0.812762
11.8646	1.03547
11.8375	1.28566
11.8106	1.15844
11.7837	0.98978
11.757	0.995538
11.7304	0.894696
11.7039	0.854278
11.6776	0.9812
11.6513	1.02606
11.6252	0.954027
11.5992	0.976475
11.5733	1.11503
11.5475	1.19732
11.5219	1.17746
11.4963	1.18626
11.4709	1.20093
11.4455	1.21235
11.4203	1.19275
11.3952	1.18683
11.3702	1.18302
11.3454	1.19714
11.3206	1.17602
11.2959	1.18519
11.2714	1.28575
11.2469	1.43494
11.2226	1.44617
11.1983	1.41264
11.1742	1.44155
11.1502	1.51911
11.1263	1.67339
11.1024	1.72318
11.0787	1.738
11.0551	1.7351
11.0316	1.77758
11.0081	1.76058
10.9848	1.83269
10.9616	1.98984
10.9385	2.00204
10.9154	1.99448
10.8925	1.93932
10.8697	1.9024
10.8469	1.9703
10.8243	2.21006
10.8017	2.30058
10.7793	2.22731
10.7569	2.24422
10.7346	2.25993
10.7125	2.30811
10.6904	2.45166
10.6684	2.55766
10.6465	2.47905
10.6247	2.40524
10.6029	2.5176
10.5813	2.67982
10.5597	2.67647
10.5383	2.71423
10.5169	2.90787
10.4956	3.00975
10.4744	3.04795
10.4533	3.20375
10.4323	3.39415
10.4113	3.50576
10.3904	3.58407
10.3697	3.81596
10.349	4.03806
10.3284	4.31895
10.3078	4.69029
10.2874	4.91237
10.267	5.14809
10.2467	5.59565
10.2265	5.90354
10.2064	5.82934
10.1863	5.60453
10.1663	5.21682
10.1464	4.71649
10.1266	4.33659
10.1069	3.91645
10.0872	3.56738
10.0676	3.43489
10.0481	3.45843
10.0287	3.67613
10.0093	3.86734
9.99005	4.27504
9.97084	4.79583
9.95169	5.12074
9.93263	5.55224
9.91364	5.94944
9.89472	6.33823
9.87587	6.65174
9.8571	6.85414
9.83839	7.01973
9.81976	7.23258
9.80119	7.74345
9.78271	8.20664
9.76428	8.45085
9.74592	8.70875
9.72764	8.86685
9.70943	9.09392
9.69128	9.23609
9.6732	9.12448
9.65518	9.13006
9.63724	8.94598
9.61935	8.43477
9.60155	8.03172
9.5838	7.80637
9.56611	7.48546
9.5485	6.95614
9.53094	6.68016
9.51345	6.59402
9.49604	6.59364
9.47867	6.69739
9.46137	6.66832
9.44414	6.44108
9.42697	5.96896
9.40986	5.43744
9.39281	4.98345
9.37583	4.49216
9.35891	4.01743
9.34204	3.59717
9.32524	3.00412
9.3085	2.42619
9.29182	2.15555
9.27519	2.04646
9.25863	2.0794
9.24213	2.28051
9.22568	2.30308
9.2093	2.21734
9.19297	2.1671
9.17669	2.16934
9.16048	2.27079
9.14433	2.38403
9.12823	2.32362
9.11218	2.32215
9.0962	2.2723
9.08027	2.15956
9.06439	1.94546
9.04858	1.74969
9.03281	1.64465
9.0171	1.56129
9.00145	1.43456
8.98585	1.29241
8.9703	1.19599
8.9548	1.20121
8.93937	1.26656
8.92398	1.26082
8.90865	1.23212
8.89337	1.15839
8.87814	1.01366
8.86296	1.02826
8.84784	0.999468
8.83277	0.871187
8.81774	0.78593
8.80277	0.675121
8.78786	0.571837
8.77298	0.690575
8.75816	0.864128
8.7434	0.737233
8.72868	0.587133
8.714	0.446631
8.69938	0.515816
8.68481	0.523894
8.67029	0.431556
8.65581	0.408663
8.64139	0.425872
8.62701	0.369414
8.61268	0.364624
8.5984	0.377856
8.58416	0.460809
8.56997	0.496781
8.55583	0.328196
8.54174	0.154377
8.52769	0.125657
8.51368	0.239814
8.49973	0.24943
8.48582	0.211551
8.47195	0.197479
8.45813	0.193147
8.44436	0.247804
8.43062	0.320771
8.41693	0.291314
8.4033	0.289427
8.3897	0.244985
8.37614	0.19704
8.36264	0.213369
8.34917	0.206488
8.33574	0.192586
8.32236	0.123886
8.30903	0.0685531
8.29573	0.207395
8.28248	0.255377
8.26927	0.259825
8.2561	0.294811
8.24298	0.446428
8.2299	0.421599
8.21685	0.245038
8.20385	0.153707
8.19089	0.282857
8.17797	0.305591
8.16509	0.173576
8.15225	0.187446
8.13946	0.238447
8.1267	0.240441
8.11398	0.189938
8.10131	0.108956
8.08867	0.130749
8.07606	0.174137
8.0635	0.147164
8.05099	0.133876
8.0385	0.134131
8.02606	0.14383
8.01366	0.156369
8.00129	0.125332
7.98896	0.168812
7.97667	0.210981
7.96442	0.156988
7.9522	0.10893
7.94002	0.162703
7.92788	0.16458
7.91578	0.0590865
7.90371	0.0307262
7.89168	0.0965248
7.87969	0.153551
7.86773	0.158033
7.85581	0.191934
7.84392	0.182611
7.83207	0.159051
7.82026	0.186632
7.80849	0.177486
7.79674	0.196432
7.78503	0.302101
7.77337	0.222311
7.76173	0.139768
7.75012	0.184825
7.73856	0.233562
7.72703	0.159748
7.71553	0.154482
7.70406	0.232826
7.69263	0.175693
7.68123	0.161785
7.66987	0.262693
7.65855	0.280784
7.64725	0.166322
7.63598	0.163476
7.62475	0.270514
7.61356	0.36618
7.60239	0.394971
7.59126	0.320909
7.58017	0.21403
7.5691	0.283241
7.55806	0.267785
7.54707	0.267417
7.5361	0.313679
7.52516	0.366687
7.51425	0.396297
7.50338	0.329719
7.49253	0.368963
7.48172	0.414451
7.47094	0.367835
7.46019	0.380609
7.44947	0.471702
7.43879	0.482429
7.42813	0.45271
7.4175	0.439443
7.4069	0.366236
7.39634	0.405308
7.3858	0.452248
7.37529	0.483452
7.36482	0.475414
7.35437	0.411376
7.34396	0.414121
7.33357	0.471973
7.32321	0.491485
7.31288	0.496344
7.30258	0.552327
7.29231	0.550002
7.28207	0.482096
7.27185	0.454875
7.26167	0.459452
7.25152	0.512105
7.24139	0.581695
7.23129	0.649953
7.22122	0.613474
7.21117	0.578756
7.20116	0.623838
7.19117	0.576109
7.18121	0.569439
7.17128	0.617678
7.16137	0.597799
7.1515	0.578029
7.14164	0.581636
7.13182	0.691487
7.12203	0.730592
7.11225	0.650083
7.10251	0.629787
7.0928	0.706223
7.08311	0.788307
7.07344	0.819202
7.06381	0.759971
7.0542	0.82293
7.04461	0.900852
7.03506	0.832216
7.02552	0.719828
7.01601	0.6967
7.00653	0.810036
6.99708	0.9057
6.98765	0.909256
6.97824	0.91745
6.96886	0.84237
6.95951	0.778433
6.95018	0.791803
6.94087	0.884509
6.9316	0.935064
6.92234	0.975623
6.91311	0.994563
6.90391	0.983843
6.89473	0.956956
6.88557	0.976106
6.87644	0.955316
6.86733	0.854892
6.85824	0.898167
6.84918	1.08381
6.84015	1.12761
6.83114	1.04731
6.82215	0.945424
6.81319	0.970865
6.80424	1.04609
6.79532	1.02293
6.78643	1.01412
6.77756	1.01777
6.76871	1.05025
6.75989	1.13822
6.75109	1.19214
6.74231	1.13204
6.73355	1.02727
6.72482	0.963912
6.71611	1.0292
6.70742	1.1565
6.69875	1.23914
6.69011	1.23992
6.68149	1.15784
6.67289	1.16718
6.66431	1.17665
6.65576	1.17701
6.64722	1.25727
6.63871	1.24071
6.63022	1.18981
6.62175	1.18229
6.61331	1.19308
6.60488	1.22961
6.59648	1.27685
6.5881	1.235
6.57974	1.16612
6.5714	1.18442
6.56308	1.1955
6.55478	1.14854
6.54651	1.18175
6.53825	1.2028
6.53001	1.24146
6.5218	1.22076
6.51361	1.19243
6.50544	1.21135
6.49729	1.26381
6.48915	1.40022
6.48104	1.32898
6.47295	1.20156
6.46488	1.17858
6.45683	1.2395
6.4488	1.30279
6.44079	1.25946
6.4328	1.20242
6.42482	1.17326
6.41687	1.19426
6.40894	1.23174
6.40103	1.23042
6.39314	1.17944
6.38526	1.1556
6.37741	1.16398
6.36957	1.04615
6.36176	0.939009
6.35396	0.984551
6.34618	1.04341
6.33843	1.02885
6.33069	0.983008
6.32297	0.970051
6.31527	0.972118
6.30758	0.945617
6.29992	0.920503
6.29227	0.852227
6.28465	0.811849
6.27704	0.801177
6.26945	0.760897
6.26188	0.701462
6.25432	0.629331
6.24679	0.661661
6.23927	0.769581
6.23177	0.729436
6.22429	0.680967
6.21683	0.594152
6.20938	0.512496
6.20195	0.525748
6.19454	0.520974
6.18715	0.511819
6.17978	0.515568
6.17242	0.39087
6.16508	0.345722
6.15776	0.497913
6.15045	0.529913
6.14317	0.354081
6.1359	0.28554
6.12864	0.374703
6.12141	0.445948
6.11419	0.447794
6.10699	0.412156
6.0998	0.40243
6.09263	0.402566
6.08549	0.430676
6.07835	0.386852
6.07123	0.378191
6.06413	0.419317
6.05705	0.452749
6.04998	0.416099
6.04293	0.425593
6.0359	0.44793
6.02888	0.412014
6.02187	0.304992
6.01489	0.314569
6.00792	0.322195
6.00096	0.259651
5.99403	0.334776
5.98711	0.368237
5.9802	0.343377
5.97331	0.297871
5.96644	0.28163
5.95958	0.380944
5.95274	0.418994
5.94591	0.41329
5.9391	0.406469
5.9323	0.435655
5.92552	0.492629
5.91876	0.494171
5.91201	0.494477
5.90528	0.49541
5.89856	0.539594
5.89186	0.559352
5.88517	0.587184
5.8785	0.677987
5.87184	0.817231
5.8652	0.869922
5.85857	0.876267
5.85196	0.917716
5.84536	0.991197
5.83878	1.03768
5.83221	1.09297
5.82566	1.18083
5.81912	1.30035
5.81259	1.35077
5.80608	1.38972
5.79959	1.44216
5.79311	1.50889
5.78665	1.50872
5.78019	1.55922
5.77376	1.63452
5.76734	1.66138
5.76093	1.68793
5.75453	1.77562
5.74815	1.91719
5.74179	1.97168
5.73543	1.97261
5.7291	1.99946
5.72277	1.97151
5.71646	1.91922
5.71017	1.92087
5.70389	1.98039
5.69762	2.03722
5.69136	2.03629
5.68513	2.05145
5.6789	2.14035
5.67268	2.18779
5.66648	2.20952
5.6603	2.28204
5.65413	2.24783
5.64797	2.19561
5.64182	2.21133
5.63569	2.31249
5.62957	2.38976
5.62347	2.32187
5.61737	2.33839
5.61129	2.35653
5.60522	2.35253
5.59917	2.41251
5.59313	2.47158
5.5871	2.52556
5.58109	2.4931
5.57509	2.47349
5.5691	2.50959
5.56312	2.53126
5.55716	2.5482
5.55121	2.58457
5.54528	2.68457
5.53935	2.71372
5.53344	2.76685
5.52754	2.81472
5.52166	2.82205
5.51578	2.87917
5.50992	2.95057
5.50407	2.87411
5.49823	2.88859
5.49241	2.99948
5.4866	3.04174
5.4808	3.07059
5.47501	3.20042
5.46923	3.22675
5.46347	3.16515
5.45772	3.20711
5.45198	3.26255
5.44625	3.34919
5.44054	3.44507
5.43484	3.52713
5.42914	3.53622
5.42347	3.56762
5.4178	3.59437
5.41214	3.59772
5.4065	3.59266
5.40087	3.69575
5.39525	3.79749
5.38964	3.79244
5.38404	3.7272
5.37846	3.68025
5.37288	3.70291
5.36732	3.82035
5.36177	3.81065
5.35623	3.81785
5.35071	3.79354
5.34519	3.77311
5.33968	3.76513
5.33419	3.76172
5.32871	3.82787
5.32324	3.83392
5.31778	3.8049
5.31233	3.78062
5.30689	3.72427
5.30147	3.67919
5.29605	3.63398
5.29065	3.63142
5.28525	3.68393
5.27987	3.66384
5.2745	3.6644
5.26914	3.69722
5.26379	3.59442
5.25845	3.47393
5.25312	3.49418
5.24781	3.53423
5.2425	3.49301
5.23721	3.45142
5.23192	3.53782
5.22665	3.66866
5.22138	3.67942
5.21613	3.64714
5.21089	3.63158
5.20566	3.69318
5.20044	3.84379
5.19522	3.902
5.19002	3.92731
5.18483	3.90402
5.17965	3.98092
5.17448	4.11489
5.16933	4.15941
5.16418	4.24537
5.15904	4.34678
5.15391	4.36028
5.14879	4.35973
5.14368	4.42335
5.13859	4.44444
5.1335	4.43953
5.12842	4.49356
5.12335	4.56095
5.1183	4.60428
5.11325	4.56038
5.10821	4.4776
5.10318	4.51015
5.09817	4.61587
5.09316	4.58517
5.08816	4.47691
5.08317	4.47199
5.07819	4.55122
5.07322	4.5646
5.06826	4.5244
5.06331	4.45369
5.05837	4.36544
5.05344	4.34093
5.04852	4.36541
5.04361	4.44319
5.03871	4.45871
5.03382	4.40708
5.02894	4.41462
5.02406	4.48777
5.0192	4.46926
5.01435	4.44762
5.0095	4.48063
5.00467	4.55674
4.99984	4.55999
4.99502	4.52437
4.99021	4.52831
4.98542	4.51633
4.98063	4.55963
4.97585	4.62064
4.97108	4.70319
4.96632	4.73919
4.96156	4.72664
4.95682	4.78358
4.95209	4.78078
4.94736	4.74694
4.94264	4.80347
4.93794	4.86807
4.93324	4.83584
4.92855	4.73082
4.92387	4.66509
4.9192	4.69461
4.91453	4.7324
4.90988	4.7354
4.90524	4.79987
4.9006	4.79952
4.89597	4.76163
4.89135	4.77532
4.88674	4.81427
4.88214	4.86924
4.87755	4.84568
4.87296	4.79215
4.86839	4.77981
4.86382	4.77506
4.85926	4.74206
4.85471	4.74456
4.85017	4.77641
4.84564	4.80942
4.84111	4.84425
4.8366	4.84923
4.83209	4.85311
4.82759	4.88172
4.8231	4.9309
4.81862	4.90934
4.81415	4.87012
4.80968	4.84269
4.80522	4.87764
4.80077	4.92993
4.79633	4.9174
4.7919	4.96981
4.78747	5.03098
4.78306	5.01286
4.77865	5.01353
4.77425	5.02215
4.76986	5.12905
4.76547	5.11259
4.7611	5.07696
4.75673	5.13482
4.75237	5.18033
4.74802	5.19685
4.74367	5.2071
4.73934	5.19729
4.73501	5.20559
4.73069	5.19444
4.72638	5.27434
4.72207	5.29941
4.71777	5.32274
4.71348	5.34143
4.7092	5.34969
4.70493	5.42998
4.70066	5.5118
4.69641	5.49285
4.69216	5.43271
4.68791	5.55031
4.68368	5.69505
4.67945	5.74122
4.67523	5.70625
4.67102	5.68548
4.66682	5.71082
4.66262	5.77146
4.65843	5.90529
4.65425	5.98621
4.65007	6.01255
4.64591	6.07182
4.64175	6.07352
4.6376	6.07307
4.63345	6.07258
4.62932	6.12507
4.62519	6.14931
4.62106	6.11689
4.61695	6.1306
4.61284	6.22704
4.60874	6.29393
4.60465	6.37046
4.60056	6.415
4.59648	6.39948
4.59241	6.41766
4.58835	6.49802
4.58429	6.58832
4.58024	6.58103
4.5762	6.51726
4.57216	6.58049
4.56814	6.66812
4.56411	6.6161
4.5601	6.60924
4.55609	6.63853
4.55209	6.66727
4.5481	6.61125
4.54411	6.62241
4.54013	6.70849
4.53616	6.77264
4.5322	6.82087
4.52824	6.73617
4.52429	6.70645
4.52034	6.72516
4.51641	6.71287
4.51247	6.73173
4.50855	6.75312
4.50463	6.74421
4.50072	6.67895
4.49682	6.64706
4.49292	6.71425
4.48903	6.71847
4.48515	6.65883
4.48127	6.70719
4.4774	6.74975
4.47354	6.73417
4.46968	6.78196
4.46584	6.74833
4.46199	6.76156
4.45815	6.77612
4.45432	6.78135
4.4505	6.87451
4.44668	6.91124
4.44287	6.98333
4.43907	7.05009
4.43527	7.10595
4.43148	7.11047
4.4277	7.14585
4.42392	7.2696
4.42015	7.36017
4.41638	7.40844
4.41262	7.47907
4.40887	7.60902
4.40513	7.63151
4.40139	7.71473
4.39765	7.84141
4.39393	7.88657
4.39021	7.97456
4.38649	8.12953
4.38278	8.23047
4.37908	8.31433
4.37539	8.4319
4.3717	8.48414
4.36801	8.57228
4.36434	8.71677
4.36067	8.7947
4.357	8.91436
4.35335	9.02417
4.34969	9.13235
4.34605	9.21081
4.34241	9.34899
4.33877	9.45783
4.33514	9.57302
4.33152	9.64563
4.32791	9.7297
4.3243	9.86194
4.32069	9.98794
4.3171	10.1071
4.31351	10.2365
4.30992	10.3185
4.30634	10.4829
4.30277	10.6515
4.2992	10.7315
4.29564	10.8442
4.29208	10.9628
4.28853	11.1355
4.28499	11.2322
4.28145	11.3729
4.27792	11.5111
4.27439	11.5529
4.27087	11.6845
4.26735	11.8273
4.26384	11.9613
4.26034	12.0714
4.25684	12.1878
4.25335	12.3399
4.24986	12.5184
4.24638	12.6778
4.24291	12.7955
4.23944	12.872
4.23598	12.9538
4.23252	13.1474
4.22906	13.3647
4.22562	13.4683
4.22218	13.5874
4.21874	13.7027
4.21531	13.7568
4.21189	13.9602
4.20847	14.1385
4.20506	14.2372
4.20165	14.3518
4.19825	14.4758
4.19485	14.5765
4.19146	14.6663
4.18807	14.883
4.18469	15.0505
4.18132	15.1155
4.17795	15.258
4.17458	15.3926
4.17123	15.4316
4.16787	15.5031
4.16453	15.6795
4.16118	15.7609
4.15785	15.8064
4.15451	15.9388
4.15119	16.0674
4.14787	16.1949
4.14455	16.3107
4.14124	16.3561
4.13794	16.3918
4.13464	16.5458
4.13134	16.7268
4.12805	16.8308
4.12477	16.8912
4.12149	16.9767
4.11822	17.0452
4.11495	17.1404
4.11168	17.1988
4.10843	17.2279
4.10517	17.3678
4.10192	17.5488
4.09868	17.6615
4.09545	17.6773
4.09221	17.7118
4.08899	17.8205
4.08576	18.0237
4.08255	18.0935
4.07933	18.0961
4.07613	18.2312
4.07292	18.4084
4.06973	18.5529
4.06654	18.6053
4.06335	18.7537
4.06017	18.9529
4.05699	19.0858
4.05382	19.203
4.05065	19.2756
4.04749	19.4469
4.04433	19.6473
4.04118	19.7818
4.03803	19.8816
4.03489	20.0543
4.03175	20.2408
4.02862	20.3331
4.02549	20.4372
4.02237	20.5843
4.01925	20.7276
4.01614	20.9111
4.01303	21.048
4.00993	21.1438
4.00683	21.2323
4.00373	21.3639
4.00064	21.5518
3.99756	21.6926
3.99448	21.7905
3.9914	21.9444
3.98833	22.0446
3.98527	22.065
3.98221	22.1171
3.97915	22.2061
3.9761	22.266
3.97305	22.4115
3.97001	22.5538
3.96697	22.5964
3.96394	22.6745
3.96091	22.7548
3.95789	22.8947
3.95487	22.9599
3.95186	23.0282
3.94885	23.1728
3.94584	23.2556
3.94284	23.2873
3.93984	23.317
3.93685	23.3574
3.93386	23.4664
3.93088	23.4877
3.9279	23.5099
3.92493	23.6191
3.92196	23.6784
3.919	23.7292
3.91604	23.7924
3.91308	23.8683
3.91013	23.9483
3.90718	23.9766
3.90424	23.9943
3.9013	24.0189
3.89837	24.1009
3.89544	24.1433
3.89252	24.1423
3.8896	24.1203
3.88668	24.0824
3.88377	24.1079
3.88086	24.1567
3.87796	24.0613
3.87506	24.0132
3.87217	24.1147
3.86928	24.1367
3.86639	24.1578
3.86351	24.2667
3.86064	24.2321
3.85776	24.1545
3.8549	24.2195
3.85203	24.2126
3.84917	24.1746
3.84631	24.1666
3.84346	24.1219
3.84062	24.0571
3.83777	24.1019
3.83494	24.093
3.8321	24.0201
3.82927	23.9019
3.82644	23.7979
3.82362	23.6708
3.82081	23.6194
3.81799	23.6667
3.81518	23.6354
3.81238	23.497
3.80958	23.4001
3.80678	23.464
3.80399	23.5497
3.8012	23.5803
3.79841	23.5551
3.79563	23.4698
3.79286	23.3532
3.79008	23.3036
3.78731	23.2415
3.78455	23.2345
3.78179	23.178
3.77903	23.1082
3.77628	23.0797
3.77353	22.9796
3.77079	22.8845
3.76805	22.8167
3.76531	22.7103
3.76258	22.6156
3.75985	22.5643
3.75713	22.4564
3.7544	22.3206
3.75169	22.2827
3.74898	22.266
3.74627	22.1613
3.74356	22.0411
3.74086	21.9542
3.73816	21.8141
3.73547	21.6668
3.73278	21.5921
3.7301	21.5658
3.72741	21.5522
3.72474	21.4954
3.72206	21.3872
3.71939	21.2025
3.71673	21.039
3.71406	20.9046
3.71141	20.7299
3.70875	20.5833
3.7061	20.4739
3.70345	20.4283
3.70081	20.3778
3.69817	20.137
3.69553	19.9
3.6929	19.8078
3.69027	19.7328
3.68765	19.6381
3.68503	19.4943
3.68241	19.3864
3.6798	19.2406
3.67719	18.9759
3.67458	18.7955
3.67198	18.7359
3.66938	18.6442
3.66678	18.4528
3.66419	18.2172
3.66161	18.0903
3.65902	18.0094
3.65644	17.8883
3.65387	17.7194
3.65129	17.5477
3.64872	17.3392
3.64616	17.2084
3.64359	17.1238
3.64103	17.0788
3.63848	16.9379
3.63593	16.7582
3.63338	16.622
3.63084	16.4516
3.6283	16.2851
3.62576	16.1255
3.62322	16.0071
3.62069	15.9062
3.61817	15.7284
3.61564	15.6065
3.61312	15.4974
3.61061	15.2711
3.6081	15.0744
3.60559	14.9622
3.60308	14.8397
3.60058	14.7139
3.59808	14.5844
3.59558	14.4855
3.59309	14.3566
3.59061	14.1403
3.58812	13.9773
3.58564	13.8585
3.58316	13.7465
3.58069	13.6353
3.57822	13.4767
3.57575	13.2823
3.57328	13.0706
3.57082	12.8968
3.56836	12.7414
3.56591	12.6063
3.56346	12.4632
3.56101	12.3399
3.55857	12.1909
3.55613	11.9957
3.55369	11.7757
3.55126	11.6572
3.54883	11.5559
3.5464	11.3762
3.54397	11.3111
3.54155	11.2533
3.53914	11.1382
3.53672	10.9219
3.53431	10.7366
3.5319	10.5784
3.5295	10.387
3.5271	10.2331
3.5247	10.1037
3.52231	9.94088
