Name: Epidote Ca_2(Al,Fe^3+)_3O.SiO_4.Si_2O_7.OH
Type: Mineral
Class: Silicates
Subclass: Sorosilicate
Particle Size: 0-45um
Sample No.: SS-1C
Owner: JPL
Wavelength range: IR
Origin: USA, Colorado
Collected by Ward's
Description: 





Measurement: Hemispherical reflectance
First Column: X
Second Column: Y
X Units:  Wavelength (micrometers)
Y Units:  Reflectance (percent)
First X Value: 15.3853
Last X Value: 2.00032
Number of X Values: 2256
Additional information: ss01ca.txt
 
15.3853	4.42873
15.3397	4.39445
15.2945	4.11385
15.2495	3.96621
15.2048	4.09153
15.1603	3.91964
15.1161	3.69996
15.0722	3.7202
15.0285	3.73612
14.9851	3.65486
14.9419	3.69922
14.8989	3.79393
14.8563	3.54532
14.8138	3.44235
14.7716	3.64724
14.7296	3.8083
14.6879	3.86793
14.6464	3.77398
14.6052	3.70961
14.5641	3.80284
14.5233	3.93509
14.4828	3.85324
14.4424	3.82643
14.4023	3.79533
14.3624	3.66365
14.3227	3.61725
14.2833	3.6332
14.244	3.77883
14.205	4.03034
14.1662	4.14223
14.1276	4.20583
14.0892	4.29879
14.051	4.1878
14.0131	3.9773
13.9753	3.93036
13.9377	4.09051
13.9004	4.24168
13.8632	4.27184
13.8262	4.35506
13.7895	4.53521
13.7529	4.68531
13.7165	4.96813
13.6803	5.12958
13.6443	5.2178
13.6085	5.29079
13.5729	5.48989
13.5374	5.71387
13.5022	5.89497
13.4671	5.9953
13.4322	5.91712
13.3975	5.93229
13.363	5.87035
13.3286	5.54514
13.2944	5.31306
13.2604	5.06476
13.2266	5.01324
13.193	5.25527
13.1595	5.52871
13.1262	5.72755
13.093	5.93441
13.06	6.19498
13.0272	6.17339
12.9946	6.12978
12.9621	6.19931
12.9298	6.25441
12.8976	6.29456
12.8656	6.44899
12.8337	6.58819
12.8021	6.70844
12.7705	6.86647
12.7391	7.08285
12.7079	7.19413
12.6769	7.17591
12.6459	7.30848
12.6152	7.5255
12.5845	7.51223
12.5541	7.57196
12.5238	7.57678
12.4936	7.56421
12.4635	7.45614
12.4337	7.45289
12.4039	7.60749
12.3743	7.62054
12.3448	7.73079
12.3155	7.81319
12.2863	7.68878
12.2573	7.54187
12.2284	7.38349
12.1996	7.29754
12.171	7.43022
12.1425	7.4351
12.1141	7.31057
12.0859	7.25956
12.0578	7.24097
12.0298	7.23164
12.0019	7.17259
11.9742	7.19376
11.9466	7.10514
11.9192	6.99902
11.8918	6.9905
11.8646	7.00714
11.8375	6.83687
11.8106	6.59831
11.7837	6.61497
11.757	6.79392
11.7304	6.99791
11.7039	7.14112
11.6776	7.25439
11.6513	7.15773
11.6252	7.16106
11.5992	7.21517
11.5733	7.01709
11.5475	6.91636
11.5219	6.89159
11.4963	6.82389
11.4709	6.85247
11.4455	6.99166
11.4203	7.09868
11.3952	7.24137
11.3702	7.50367
11.3454	7.6282
11.3206	7.57933
11.2959	7.66771
11.2714	7.93777
11.2469	7.96435
11.2226	7.79654
11.1983	7.72289
11.1742	7.78089
11.1502	7.63735
11.1263	7.336
11.1024	7.18241
11.0787	7.13114
11.0551	6.9632
11.0316	6.74966
11.0081	6.48819
10.9848	6.26721
10.9616	6.19769
10.9385	6.16191
10.9154	6.05533
10.8925	5.8231
10.8697	5.51934
10.8469	5.32817
10.8243	5.14245
10.8017	5.14325
10.7793	5.32171
10.7569	5.532
10.7346	5.88055
10.7125	6.11309
10.6904	6.27073
10.6684	6.56202
10.6465	6.78674
10.6247	6.77824
10.6029	6.93806
10.5813	7.33475
10.5597	7.70549
10.5383	8.0224
10.5169	8.30613
10.4956	8.50646
10.4744	8.66235
10.4533	8.7263
10.4323	8.71689
10.4113	8.72002
10.3904	8.64507
10.3697	8.52997
10.349	8.46662
10.3284	8.33507
10.3078	8.11716
10.2874	8.0503
10.267	8.08979
10.2467	7.93257
10.2265	7.85145
10.2064	7.7944
10.1863	7.72527
10.1663	7.58072
10.1464	7.43835
10.1266	7.45952
10.1069	7.35499
10.0872	7.14367
10.0676	6.84061
10.0481	6.53302
10.0287	6.26942
10.0093	5.97157
9.99005	5.56409
9.97084	5.19667
9.95169	5.00557
9.93263	4.89265
9.91364	4.6175
9.89472	4.3745
9.87587	4.2688
9.8571	4.1705
9.83839	4.10683
9.81976	4.0007
9.80119	4.02018
9.78271	4.13279
9.76428	4.27279
9.74592	4.45579
9.72764	4.42795
9.70943	4.45229
9.69128	4.63561
9.6732	4.80403
9.65518	4.97022
9.63724	5.16631
9.61935	5.25435
9.60155	5.32162
9.5838	5.47972
9.56611	5.51315
9.5485	5.68595
9.53094	5.88263
9.51345	5.93235
9.49604	6.06973
9.47867	6.10303
9.46137	6.10348
9.44414	5.97339
9.42697	6.01039
9.40986	6.23786
9.39281	6.39382
9.37583	6.39581
9.35891	6.34046
9.34204	6.31591
9.32524	6.36542
9.3085	6.38472
9.29182	6.38867
9.27519	6.42807
9.25863	6.44282
9.24213	6.56484
9.22568	6.6342
9.2093	6.62425
9.19297	6.65701
9.17669	6.53239
9.16048	6.43598
9.14433	6.32803
9.12823	6.22076
9.11218	6.23137
9.0962	6.21842
9.08027	6.17841
9.06439	6.08842
9.04858	5.99733
9.03281	5.96704
9.0171	5.91507
9.00145	5.98787
8.98585	6.15418
8.9703	6.16713
8.9548	6.19324
8.93937	6.17749
8.92398	6.08518
8.90865	6.06598
8.89337	6.11394
8.87814	6.10135
8.86296	6.11639
8.84784	6.25974
8.83277	6.37869
8.81774	6.37533
8.80277	6.34314
8.78786	6.34449
8.77298	6.39374
8.75816	6.51325
8.7434	6.60324
8.72868	6.53916
8.714	6.27372
8.69938	6.08633
8.68481	5.97078
8.67029	5.991
8.65581	5.8121
8.64139	5.58888
8.62701	5.47943
8.61268	5.35307
8.5984	5.37916
8.58416	5.37805
8.56997	5.47272
8.55583	5.43072
8.54174	5.35668
8.52769	5.43385
8.51368	5.29829
8.49973	5.18774
8.48582	5.32324
8.47195	5.3885
8.45813	5.39321
8.44436	5.36631
8.43062	5.30988
8.41693	5.3528
8.4033	5.61682
8.3897	5.76257
8.37614	5.79026
8.36264	5.87645
8.34917	6.04728
8.33574	6.21559
8.32236	6.36049
8.30903	6.55547
8.29573	6.72863
8.28248	6.8582
8.26927	6.96389
8.2561	7.16103
8.24298	7.46517
8.2299	7.66316
8.21685	7.76901
8.20385	7.88019
8.19089	8.06442
8.17797	8.36858
8.16509	8.56342
8.15225	8.66804
8.13946	8.75445
8.1267	8.73463
8.11398	8.8321
8.10131	8.97612
8.08867	9.12894
8.07606	9.26297
8.0635	9.3997
8.05099	9.61126
8.0385	9.74796
8.02606	9.8051
8.01366	9.9035
8.00129	10.1134
7.98896	10.3805
7.97667	10.641
7.96442	10.9918
7.9522	11.279
7.94002	11.3941
7.92788	11.5447
7.91578	11.7718
7.90371	11.901
7.89168	11.9253
7.87969	12.1042
7.86773	12.4434
7.85581	12.7139
7.84392	12.9167
7.83207	13.0387
7.82026	13.0624
7.80849	13.1622
7.79674	13.3317
7.78503	13.5488
7.77337	13.7734
7.76173	13.964
7.75012	14.1169
7.73856	14.3233
7.72703	14.5634
7.71553	14.7364
7.70406	14.8661
7.69263	14.9764
7.68123	15.1054
7.66987	15.2087
7.65855	15.2305
7.64725	15.2548
7.63598	15.247
7.62475	15.2956
7.61356	15.3319
7.60239	15.3417
7.59126	15.4784
7.58017	15.6096
7.5691	15.6365
7.55806	15.6452
7.54707	15.7586
7.5361	15.8767
7.52516	15.9262
7.51425	15.9629
7.50338	15.9852
7.49253	15.9911
7.48172	16.0544
7.47094	16.052
7.46019	15.9317
7.44947	15.8247
7.43879	15.803
7.42813	15.6514
7.4175	15.5688
7.4069	15.4753
7.39634	15.3115
7.3858	15.1932
7.37529	15.0774
7.36482	15.0011
7.35437	14.8289
7.34396	14.5483
7.33357	14.1931
7.32321	13.8818
7.31288	13.6317
7.30258	13.4652
7.29231	13.281
7.28207	13.039
7.27185	12.8652
7.26167	12.8106
7.25152	12.6718
7.24139	12.3752
7.23129	12.1341
7.22122	11.9902
7.21117	11.9006
7.20116	11.6717
7.19117	11.4554
7.18121	11.2964
7.17128	11.174
7.16137	11.0441
7.1515	11.0544
7.14164	11.1211
7.13182	11.0867
7.12203	11.14
7.11225	11.2901
7.10251	11.4636
7.0928	11.5567
7.08311	11.4742
7.07344	11.3578
7.06381	11.3191
7.0542	11.3301
7.04461	11.338
7.03506	11.164
7.02552	10.9893
7.01601	10.8615
7.00653	10.8332
6.99708	10.9239
6.98765	10.8441
6.97824	10.7138
6.96886	10.6997
6.95951	10.7594
6.95018	10.6603
6.94087	10.5778
6.9316	10.5845
6.92234	10.5446
6.91311	10.6121
6.90391	10.7996
6.89473	10.8423
6.88557	10.8442
6.87644	10.957
6.86733	11.0929
6.85824	11.1611
6.84918	11.2156
6.84015	11.2527
6.83114	11.3145
6.82215	11.386
6.81319	11.4155
6.80424	11.5133
6.79532	11.6932
6.78643	11.8554
6.77756	11.9063
6.76871	11.9433
6.75989	12.0383
6.75109	12.206
6.74231	12.3331
6.73355	12.5085
6.72482	12.7199
6.71611	12.942
6.70742	13.0739
6.69875	13.2454
6.69011	13.51
6.68149	13.8284
6.67289	14.056
6.66431	14.195
6.65576	14.3092
6.64722	14.7067
6.63871	15.3227
6.63022	15.4816
6.62175	15.5264
6.61331	15.8149
6.60488	16.1334
6.59648	16.5343
6.5881	16.9004
6.57974	17.3372
6.5714	17.752
6.56308	18.0449
6.55478	18.4808
6.54651	18.8195
6.53825	19.0745
6.53001	19.3554
6.5218	19.8834
6.51361	20.1842
6.50544	20.5007
6.49729	21.303
6.48915	21.8552
6.48104	22.0361
6.47295	22.2416
6.46488	22.4488
6.45683	22.7288
6.4488	23.0902
6.44079	23.4423
6.4328	23.7881
6.42482	24.0738
6.41687	24.4517
6.40894	24.2266
6.40103	23.8092
6.39314	23.7256
6.38526	23.6715
6.37741	23.6736
6.36957	23.6895
6.36176	23.4173
6.35396	23.1965
6.34618	23.136
6.33843	22.7039
6.33069	22.2034
6.32297	21.9592
6.31527	21.7134
6.30758	21.4819
6.29992	21.2624
6.29227	21.0502
6.28465	20.9042
6.27704	20.7869
6.26945	20.654
6.26188	20.5973
6.25432	20.5099
6.24679	20.3215
6.23927	20.0608
6.23177	19.883
6.22429	19.6853
6.21683	19.5292
6.20938	19.3416
6.20195	19.1804
6.19454	19.1194
6.18715	19.1149
6.17978	18.7842
6.17242	18.4786
6.16508	18.3148
6.15776	18.1719
6.15045	17.9908
6.14317	17.8982
6.1359	17.6782
6.12864	17.5219
6.12141	17.654
6.11419	17.8132
6.10699	17.6959
6.0998	17.6035
6.09263	17.7443
6.08549	18.0234
6.07835	18.4007
6.07123	18.6803
6.06413	18.668
6.05705	18.9806
6.04998	19.6545
6.04293	19.6628
6.0359	19.4113
6.02888	19.386
6.02187	19.5626
6.01489	19.8062
6.00792	19.818
6.00096	19.9408
5.99403	20.1474
5.98711	20.2033
5.9802	20.1708
5.97331	20.203
5.96644	20.2469
5.95958	20.2156
5.95274	20.2822
5.94591	20.3426
5.9391	20.7375
5.9323	20.8777
5.92552	20.8009
5.91876	21.0181
5.91201	21.2639
5.90528	21.5573
5.89856	22.0961
5.89186	22.3735
5.88517	22.7265
5.8785	23.0652
5.87184	23.0677
5.8652	23.3598
5.85857	23.4668
5.85196	23.6044
5.84536	23.8295
5.83878	24.2057
5.83221	24.6614
5.82566	25.0362
5.81912	25.1514
5.81259	25.0637
5.80608	25.1661
5.79959	25.418
5.79311	25.5149
5.78665	25.5823
5.78019	25.7152
5.77376	26.0199
5.76734	26.4311
5.76093	26.2826
5.75453	26.1925
5.74815	26.4224
5.74179	26.451
5.73543	26.4809
5.7291	26.5415
5.72277	26.7054
5.71646	26.9191
5.71017	27.0398
5.70389	26.8846
5.69762	26.8522
5.69136	27.0189
5.68513	27.0548
5.6789	27.1858
5.67268	27.2942
5.66648	27.2393
5.6603	27.4018
5.65413	27.5079
5.64797	27.5683
5.64182	27.7801
5.63569	27.6645
5.62957	27.4759
5.62347	27.4365
5.61737	27.3745
5.61129	27.2084
5.60522	26.9857
5.59917	26.5793
5.59313	25.8516
5.5871	24.9215
5.58109	23.9571
5.57509	23.3846
5.5691	23.2398
5.56312	23.4349
5.55716	24.1117
5.55121	25.3576
5.54528	26.8373
5.53935	28.2631
5.53344	29.3005
5.52754	30.0848
5.52166	30.6389
5.51578	30.9913
5.50992	31.2894
5.50407	31.5901
5.49823	31.7964
5.49241	32.0748
5.4866	32.299
5.4808	32.5729
5.47501	32.7171
5.46923	33.0236
5.46347	33.393
5.45772	33.4609
5.45198	33.5649
5.44625	33.8386
5.44054	33.9869
5.43484	33.9981
5.42914	34.1103
5.42347	34.3842
5.4178	34.367
5.41214	34.1763
5.4065	34.0797
5.40087	33.9403
5.39525	33.823
5.38964	33.7146
5.38404	33.5359
5.37846	33.3529
5.37288	33.1619
5.36732	32.9989
5.36177	32.9316
5.35623	32.8903
5.35071	32.8735
5.34519	32.7834
5.33968	32.7138
5.33419	32.7526
5.32871	32.8474
5.32324	32.9669
5.31778	33.0977
5.31233	33.2715
5.30689	33.3567
5.30147	33.4748
5.29605	33.6487
5.29065	33.7478
5.28525	33.8072
5.27987	33.9242
5.2745	34.0486
5.26914	34.0829
5.26379	34.1179
5.25845	34.2876
5.25312	34.4723
5.24781	34.6145
5.2425	34.7575
5.23721	34.9666
5.23192	35.1905
5.22665	35.4227
5.22138	35.5942
5.21613	35.8103
5.21089	35.9924
5.20566	36.0384
5.20044	36.0297
5.19522	36.0763
5.19002	36.2266
5.18483	36.4028
5.17965	36.4947
5.17448	36.549
5.16933	36.626
5.16418	36.731
5.15904	36.8027
5.15391	36.8969
5.14879	36.94
5.14368	36.9837
5.13859	37.023
5.1335	37.0387
5.12842	37.0888
5.12335	37.1036
5.1183	37.1081
5.11325	37.1413
5.10821	37.1076
5.10318	37.0217
5.09817	37.0306
5.09316	37.0651
5.08816	37.0723
5.08317	37.1188
5.07819	37.1006
5.07322	37.0354
5.06826	37.0137
5.06331	37.0719
5.05837	37.1344
5.05344	37.1136
5.04852	37.1515
5.04361	37.2172
5.03871	37.242
5.03382	37.2766
5.02894	37.2509
5.02406	37.2838
5.0192	37.4037
5.01435	37.4574
5.0095	37.4074
5.00467	37.4033
4.99984	37.378
4.99502	37.2861
4.99021	37.1126
4.98542	36.8518
4.98063	36.5972
4.97585	36.3904
4.97108	36.1793
4.96632	36.0329
4.96156	35.8912
4.95682	35.855
4.95209	35.8747
4.94736	35.8939
4.94264	35.9268
4.93794	36.0185
4.93324	36.223
4.92855	36.3745
4.92387	36.4848
4.9192	36.633
4.91453	36.8087
4.90988	36.9631
4.90524	37.1152
4.9006	37.2129
4.89597	37.2313
4.89135	37.2308
4.88674	37.2379
4.88214	37.4382
4.87755	37.7897
4.87296	38.1342
4.86839	38.5881
4.86382	39.0222
4.85926	39.4212
4.85471	39.8663
4.85017	40.2376
4.84564	40.474
4.84111	40.7132
4.8366	40.9526
4.83209	41.0973
4.82759	41.2086
4.8231	41.3394
4.81862	41.4727
4.81415	41.6163
4.80968	41.731
4.80522	41.8947
4.80077	42.2117
4.79633	42.5416
4.7919	42.8162
4.78747	43.1586
4.78306	43.5009
4.77865	43.8297
4.77425	44.2002
4.76986	44.5862
4.76547	44.896
4.7611	45.1697
4.75673	45.5646
4.75237	45.9333
4.74802	46.2273
4.74367	46.4548
4.73934	46.6362
4.73501	46.8205
4.73069	47.0227
4.72638	47.2121
4.72207	47.218
4.71777	47.1696
4.71348	47.1854
4.7092	47.1715
4.70493	47.1887
4.70066	47.1987
4.69641	47.2058
4.69216	47.1914
4.68791	47.2436
4.68368	47.3406
4.67945	47.3899
4.67523	47.4885
4.67102	47.614
4.66682	47.6847
4.66262	47.7568
4.65843	47.8208
4.65425	47.8998
4.65007	47.9726
4.64591	48.046
4.64175	48.2109
4.6376	48.3541
4.63345	48.3991
4.62932	48.4378
4.62519	48.5268
4.62106	48.6285
4.61695	48.7326
4.61284	48.8126
4.60874	48.8555
4.60465	48.982
4.60056	49.1194
4.59648	49.244
4.59241	49.4481
4.58835	49.7004
4.58429	49.9117
4.58024	50.1451
4.5762	50.3853
4.57216	50.5726
4.56814	50.7639
4.56411	51.0013
4.5601	51.1643
4.55609	51.4061
4.55209	51.6732
4.5481	51.7933
4.54411	51.8722
4.54013	52.0472
4.53616	52.1877
4.5322	52.3099
4.52824	52.4516
4.52429	52.5712
4.52034	52.6753
4.51641	52.7716
4.51247	52.9231
4.50855	53.0091
4.50463	53.0401
4.50072	53.1871
4.49682	53.3551
4.49292	53.4998
4.48903	53.5566
4.48515	53.6161
4.48127	53.6995
4.4774	53.8731
4.47354	54.042
4.46968	54.0768
4.46584	54.0448
4.46199	54.1243
4.45815	54.2843
4.45432	54.3838
4.4505	54.4472
4.44668	54.5059
4.44287	54.5315
4.43907	54.5972
4.43527	54.6912
4.43148	54.7729
4.4277	54.8367
4.42392	54.9083
4.42015	54.993
4.41638	55.0279
4.41262	55.036
4.40887	55.0701
4.40513	55.1428
4.40139	55.1837
4.39765	55.1796
4.39393	55.2471
4.39021	55.3406
4.38649	55.4418
4.38278	55.5315
4.37908	55.5782
4.37539	55.5867
4.3717	55.6013
4.36801	55.6446
4.36434	55.6837
4.36067	55.7284
4.357	55.764
4.35335	55.8011
4.34969	55.8238
4.34605	55.8789
4.34241	55.9023
4.33877	55.9189
4.33514	56.0006
4.33152	56.0967
4.32791	56.1837
4.3243	56.2405
4.32069	56.2878
4.3171	56.2906
4.31351	56.3134
4.30992	56.3393
4.30634	56.4117
4.30277	56.4579
4.2992	56.5477
4.29564	56.6648
4.29208	56.6982
4.28853	56.7663
4.28499	56.8205
4.28145	56.7822
4.27792	56.8054
4.27439	56.8737
4.27087	56.9144
4.26735	56.9157
4.26384	56.9125
4.26034	56.8297
4.25684	56.7487
4.25335	56.8559
4.24986	57.0113
4.24638	57.1082
4.24291	57.2207
4.23944	57.3026
4.23598	57.3383
4.23252	57.337
4.22906	57.3618
4.22562	57.3525
4.22218	57.2875
4.21874	57.2622
4.21531	57.3092
4.21189	57.2599
4.20847	57.1723
4.20506	57.2152
4.20165	57.2205
4.19825	57.1815
4.19485	57.2185
4.19146	57.2672
4.18807	57.2987
4.18469	57.304
4.18132	57.2784
4.17795	57.2927
4.17458	57.3402
4.17123	57.305
4.16787	57.315
4.16453	57.3468
4.16118	57.4029
4.15785	57.4116
4.15451	57.4028
4.15119	57.4264
4.14787	57.4419
4.14455	57.4813
4.14124	57.4794
4.13794	57.433
4.13464	57.4107
4.13134	57.4285
4.12805	57.4413
4.12477	57.4773
4.12149	57.5348
4.11822	57.5047
4.11495	57.4487
4.11168	57.4093
4.10843	57.4028
4.10517	57.3864
4.10192	57.3609
4.09868	57.4156
4.09545	57.411
4.09221	57.3546
4.08899	57.351
4.08576	57.3041
4.08255	57.2389
4.07933	57.1533
4.07613	57.1123
4.07292	57.1278
4.06973	57.0308
4.06654	56.9736
4.06335	56.9408
4.06017	56.8138
4.05699	56.6846
4.05382	56.5154
4.05065	56.2849
4.04749	56.0817
4.04433	55.8226
4.04118	55.4734
4.03803	54.9974
4.03489	54.5696
4.03175	54.173
4.02862	53.6693
4.02549	53.2012
4.02237	52.7569
4.01925	52.2785
4.01614	51.7395
4.01303	51.146
4.00993	50.3987
4.00683	49.5249
4.00373	48.6532
4.00064	47.8526
3.99756	46.972
3.99448	46.0992
3.9914	45.2703
3.98833	44.5609
3.98527	44.0987
3.98221	43.8577
3.97915	43.7207
3.9761	43.7548
3.97305	43.9561
3.97001	44.2069
3.96697	44.4946
3.96394	44.8756
3.96091	45.3742
3.95789	46.0323
3.95487	46.7792
3.95186	47.5853
3.94885	48.4199
3.94584	49.2287
3.94284	50.0121
3.93984	50.7261
3.93685	51.2465
3.93386	51.5188
3.93088	51.6153
3.9279	51.7663
3.92493	51.938
3.92196	52.1046
3.919	52.2303
3.91604	52.3791
3.91308	52.5172
3.91013	52.5693
3.90718	52.6034
3.90424	52.7268
3.9013	52.748
3.89837	52.7713
3.89544	52.8612
3.89252	52.8689
3.8896	52.8823
3.88668	52.9439
3.88377	53
3.88086	53.0243
3.87796	53.0473
3.87506	53.0492
3.87217	53.1122
3.86928	53.1531
3.86639	53.1386
3.86351	53.1925
3.86064	53.2397
3.85776	53.2687
3.8549	53.327
3.85203	53.3796
3.84917	53.4331
3.84631	53.4616
3.84346	53.5415
3.84062	53.6791
3.83777	53.8605
3.83494	54.0767
3.8321	54.3241
3.82927	54.5746
3.82644	54.8227
3.82362	55.0437
3.82081	55.2178
3.81799	55.4516
3.81518	55.6738
3.81238	55.9024
3.80958	56.0604
3.80678	56.2362
3.80399	56.4923
3.8012	56.7251
3.79841	56.8276
3.79563	56.9753
3.79286	57.1621
3.79008	57.3063
3.78731	57.4022
3.78455	57.447
3.78179	57.4228
3.77903	57.434
3.77628	57.4852
3.77353	57.4659
3.77079	57.4857
3.76805	57.5072
3.76531	57.4737
3.76258	57.4336
3.75985	57.3995
3.75713	57.4166
3.7544	57.3601
3.75169	57.2578
3.74898	57.2403
3.74627	57.2079
3.74356	57.1762
3.74086	57.2493
3.73816	57.1808
3.73547	57.1619
3.73278	57.2101
3.7301	57.1421
3.72741	57.1242
3.72474	57.0937
3.72206	57.0247
3.71939	57.0333
3.71673	56.9733
3.71406	56.918
3.71141	56.9094
3.70875	56.9195
3.7061	56.8694
3.70345	56.7554
3.70081	56.7002
3.69817	56.6947
3.69553	56.6403
3.6929	56.5869
3.69027	56.5658
3.68765	56.5366
3.68503	56.4768
3.68241	56.4216
3.6798	56.4266
3.67719	56.4131
3.67458	56.3572
3.67198	56.3148
3.66938	56.3312
3.66678	56.2676
3.66419	56.197
3.66161	56.1661
3.65902	56.1656
3.65644	56.116
3.65387	56.0196
3.65129	55.9829
3.64872	55.9914
3.64616	56.008
3.64359	55.9874
3.64103	55.9631
3.63848	55.9351
3.63593	55.8048
3.63338	55.6397
3.63084	55.6092
3.6283	55.5566
3.62576	55.5017
3.62322	55.5197
3.62069	55.5578
3.61817	55.5535
3.61564	55.4523
3.61312	55.3605
3.61061	55.2784
3.6081	55.197
3.60559	55.1713
3.60308	55.1336
3.60058	55.0838
3.59808	54.9904
3.59558	54.9028
3.59309	54.8082
3.59061	54.6979
3.58812	54.5908
3.58564	54.5726
3.58316	54.532
3.58069	54.4742
3.57822	54.3437
3.57575	54.2095
3.57328	54.1285
3.57082	54.004
3.56836	53.9024
3.56591	53.8604
3.56346	53.8243
3.56101	53.7592
3.55857	53.6908
3.55613	53.6018
3.55369	53.5117
3.55126	53.3606
3.54883	53.2106
3.5464	53.1434
3.54397	53.007
3.54155	52.8037
3.53914	52.5706
3.53672	52.3337
3.53431	52.1122
3.5319	51.8343
3.5295	51.5977
3.5271	51.3069
3.5247	50.8906
3.52231	50.4117
3.51991	49.9543
3.51753	49.5077
3.51514	49.0899
3.51276	48.6845
3.51038	48.2635
3.50801	47.946
3.50563	47.6944
3.50327	47.4279
3.5009	47.1006
3.49854	46.8405
3.49618	46.6486
3.49382	46.5096
3.49147	46.2944
3.48912	46.0337
3.48677	45.7143
3.48443	45.4645
3.48209	45.2985
3.47975	45.1548
3.47742	45.0985
3.47509	45.2056
3.47276	45.4812
3.47044	45.8394
3.46812	46.2913
3.4658	46.6546
