Name: Gypsum CaSO_4.2H_2O
Type: Mineral
Class: Sulfates
Subclass: 
Particle Size: 45-125um
Sample No.: SO-2B
Owner: JPL
Wavelength range: IR
Origin: USA, Utah
Collected by Ward's
Description: 





Measurement: Hemispherical reflectance
First Column: X
Second Column: Y
X Units:  Wavelength (micrometers)
Y Units:  Reflectance (percent)
First X Value: 15.3853
Last X Value: 2.00032
Number of X Values: 2256
Additional information: so02ba.txt
 
15.3853	2.21314
15.3397	2.15406
15.2945	2.20755
15.2495	2.57903
15.2048	3.03281
15.1603	3.33934
15.1161	3.70902
15.0722	4.51834
15.0285	5.43935
14.9851	6.28553
14.9419	7.35351
14.8989	7.89359
14.8563	8.2022
14.8138	8.55478
14.7716	8.5485
14.7296	8.36114
14.6879	7.95028
14.6464	7.21237
14.6052	6.24627
14.5641	5.06354
14.5233	3.92618
14.4828	3.09743
14.4424	2.5042
14.4023	2.20616
14.3624	1.89803
14.3227	1.69956
14.2833	1.60934
14.244	1.58224
14.205	1.72453
14.1662	1.68361
14.1276	1.40782
14.0892	1.3699
14.051	1.4173
14.0131	1.47587
13.9753	1.60937
13.9377	1.55443
13.9004	1.49358
13.8632	1.42973
13.8262	1.48755
13.7895	1.56648
13.7529	1.49999
13.7165	1.49597
13.6803	1.62162
13.6443	1.61711
13.6085	1.68241
13.5729	1.77558
13.5374	1.70834
13.5022	1.90256
13.4671	2.07047
13.4322	1.97369
13.3975	1.80116
13.363	1.77336
13.3286	1.93423
13.2944	2.01962
13.2604	2.12562
13.2266	2.16798
13.193	2.15369
13.1595	2.08572
13.1262	2.11302
13.093	2.27816
13.06	2.39225
13.0272	2.25198
12.9946	2.25263
12.9621	2.3735
12.9298	2.43267
12.8976	2.45477
12.8656	2.40074
12.8337	2.36173
12.8021	2.47556
12.7705	2.40245
12.7391	2.41081
12.7079	2.3659
12.6769	2.24837
12.6459	2.36144
12.6152	2.53199
12.5845	2.57321
12.5541	2.54221
12.5238	2.4976
12.4936	2.66132
12.4635	2.68332
12.4337	2.5289
12.4039	2.47773
12.3743	2.65196
12.3448	2.76088
12.3155	2.80224
12.2863	2.80586
12.2573	2.613
12.2284	2.47338
12.1996	2.52599
12.171	2.58478
12.1425	2.63607
12.1141	2.65683
12.0859	2.63605
12.0578	2.73715
12.0298	2.79177
12.0019	2.83488
11.9742	2.88797
11.9466	2.80044
11.9192	2.65821
11.8918	2.6197
11.8646	2.76002
11.8375	2.9135
11.8106	2.98796
11.7837	3.01735
11.757	2.79232
11.7304	2.735
11.7039	2.77267
11.6776	2.80573
11.6513	2.79171
11.6252	2.69028
11.5992	2.70581
11.5733	2.86277
11.5475	2.9703
11.5219	2.96942
11.4963	2.95139
11.4709	2.94737
11.4455	2.89047
11.4203	2.94814
11.3952	3.03209
11.3702	2.99056
11.3454	2.95072
11.3206	2.83376
11.2959	2.73483
11.2714	2.85955
11.2469	2.98964
11.2226	3.05889
11.1983	3.06074
11.1742	2.99795
11.1502	2.92193
11.1263	2.94976
11.1024	3.01457
11.0787	3.06569
11.0551	2.96049
11.0316	2.9483
11.0081	3.05995
10.9848	3.08462
10.9616	3.00244
10.9385	3.11281
10.9154	3.29759
10.8925	3.21774
10.8697	3.0357
10.8469	3.00248
10.8243	3.04647
10.8017	3.08829
10.7793	3.09215
10.7569	3.12317
10.7346	3.17801
10.7125	3.23362
10.6904	3.2256
10.6684	3.23605
10.6465	3.17457
10.6247	3.1037
10.6029	3.0625
10.5813	3.06495
10.5597	3.1296
10.5383	3.08744
10.5169	3.11048
10.4956	3.21775
10.4744	3.21892
10.4533	3.23118
10.4323	3.32487
10.4113	3.26798
10.3904	3.1882
10.3697	3.22977
10.349	3.23795
10.3284	3.244
10.3078	3.24824
10.2874	3.21189
10.267	3.19407
10.2467	3.24772
10.2265	3.27462
10.2064	3.24624
10.1863	3.25075
10.1663	3.24522
10.1464	3.32714
10.1266	3.39364
10.1069	3.34736
10.0872	3.37223
10.0676	3.40988
10.0481	3.40162
10.0287	3.22441
10.0093	3.13744
9.99005	3.39187
9.97084	3.52037
9.95169	3.45029
9.93263	3.43527
9.91364	3.48809
9.89472	3.51334
9.87587	3.56701
9.8571	3.657
9.83839	3.63881
9.81976	3.57083
9.80119	3.57827
9.78271	3.72372
9.76428	3.84503
9.74592	3.90865
9.72764	3.9653
9.70943	3.95242
9.69128	3.93566
9.6732	4.06345
9.65518	4.05542
9.63724	3.98661
9.61935	4.03036
9.60155	4.12977
9.5838	4.17096
9.56611	4.13614
9.5485	4.21678
9.53094	4.43558
9.51345	4.42216
9.49604	4.33799
9.47867	4.40697
9.46137	4.3924
9.44414	4.47884
9.42697	4.84898
9.40986	4.91372
9.39281	4.88728
9.37583	5.11627
9.35891	5.24789
9.34204	5.31923
9.32524	5.4324
9.3085	5.46352
9.29182	5.60413
9.27519	5.84298
9.25863	6.01299
9.24213	6.15603
9.22568	6.4221
9.2093	6.68142
9.19297	6.97386
9.17669	7.2506
9.16048	7.56874
9.14433	8.01727
9.12823	8.41667
9.11218	8.86735
9.0962	9.45815
9.08027	9.94555
9.06439	10.6408
9.04858	11.5483
9.03281	12.4306
9.0171	13.4297
9.00145	14.4296
8.98585	15.1896
8.9703	16.0215
8.9548	16.8067
8.93937	17.3922
8.92398	18.0369
8.90865	18.6345
8.89337	19.0454
8.87814	19.484
8.86296	20.0591
8.84784	20.551
8.83277	21.0335
8.81774	21.7757
8.80277	22.455
8.78786	22.9511
8.77298	23.6038
8.75816	24.0892
8.7434	24.4414
8.72868	24.7561
8.714	24.89
8.69938	24.7546
8.68481	24.7139
8.67029	24.6274
8.65581	24.4466
8.64139	24.2943
8.62701	24.1092
8.61268	23.9302
8.5984	23.7959
8.58416	23.5086
8.56997	23.1174
8.55583	22.544
8.54174	21.7627
8.52769	20.7807
8.51368	19.7423
8.49973	18.896
8.48582	18.1046
8.47195	17.3736
8.45813	16.8212
8.44436	16.0386
8.43062	15.1102
8.41693	14.5421
8.4033	13.987
8.3897	13.3424
8.37614	12.8579
8.36264	12.3221
8.34917	11.8486
8.33574	11.3252
8.32236	10.4779
8.30903	9.57582
8.29573	8.70825
8.28248	7.75089
8.26927	6.76576
8.2561	5.76894
8.24298	4.88321
8.2299	4.24225
8.21685	3.64244
8.20385	3.07134
8.19089	2.64653
8.17797	2.15588
8.16509	1.83491
8.15225	1.59744
8.13946	1.41832
8.1267	1.31583
8.11398	1.1574
8.10131	1.03912
8.08867	0.898143
8.07606	0.703271
8.0635	0.562899
8.05099	0.505933
8.0385	0.566138
8.02606	0.46587
8.01366	0.385022
8.00129	0.329514
7.98896	0.331004
7.97667	0.357593
7.96442	0.299931
7.9522	0.28239
7.94002	0.306141
7.92788	0.36221
7.91578	0.336375
7.90371	0.326092
7.89168	0.363951
7.87969	0.432457
7.86773	0.442521
7.85581	0.448511
7.84392	0.425228
7.83207	0.389923
7.82026	0.411635
7.80849	0.443134
7.79674	0.490648
7.78503	0.468742
7.77337	0.518435
7.76173	0.511349
7.75012	0.489044
7.73856	0.529358
7.72703	0.624695
7.71553	0.688373
7.70406	0.683019
7.69263	0.574127
7.68123	0.53862
7.66987	0.677696
7.65855	0.801403
7.64725	0.857494
7.63598	0.902677
7.62475	0.904376
7.61356	0.916766
7.60239	0.987918
7.59126	0.975323
7.58017	0.971737
7.5691	1.05584
7.55806	1.07582
7.54707	1.13848
7.5361	1.18003
7.52516	1.1814
7.51425	1.26167
7.50338	1.35981
7.49253	1.5386
7.48172	1.60553
7.47094	1.58647
7.46019	1.64016
7.44947	1.69529
7.43879	1.7484
7.42813	1.77202
7.4175	1.78973
7.4069	1.9043
7.39634	2.01968
7.3858	2.13619
7.37529	2.25473
7.36482	2.30089
7.35437	2.35879
7.34396	2.42656
7.33357	2.48232
7.32321	2.61807
7.31288	2.74891
7.30258	2.83219
7.29231	2.85152
7.28207	2.87708
7.27185	2.98109
7.26167	3.13952
7.25152	3.22324
7.24139	3.30863
7.23129	3.39432
7.22122	3.4628
7.21117	3.60382
7.20116	3.71537
7.19117	3.80483
7.18121	3.83877
7.17128	3.88364
7.16137	3.9655
7.1515	4.09577
7.14164	4.18922
7.13182	4.20283
7.12203	4.28714
7.11225	4.44901
7.10251	4.54546
7.0928	4.62364
7.08311	4.68857
7.07344	4.82182
7.06381	4.96282
7.0542	5.09071
7.04461	5.17134
7.03506	5.16825
7.02552	5.26031
7.01601	5.30433
7.00653	5.37334
6.99708	5.51199
6.98765	5.62636
6.97824	5.69799
6.96886	5.72073
6.95951	5.75258
6.95018	5.70098
6.94087	5.75931
6.9316	5.9023
6.92234	5.99348
6.91311	6.04369
6.90391	6.08097
6.89473	6.06232
6.88557	6.08508
6.87644	6.1924
6.86733	6.33694
6.85824	6.37394
6.84918	6.34733
6.84015	6.37529
6.83114	6.38051
6.82215	6.30487
6.81319	6.2875
6.80424	6.39361
6.79532	6.587
6.78643	6.73343
6.77756	6.69212
6.76871	6.62726
6.75989	6.64959
6.75109	6.62144
6.74231	6.52469
6.73355	6.4957
6.72482	6.63414
6.71611	6.77373
6.70742	6.82767
6.69875	6.78509
6.69011	6.76842
6.68149	6.7699
6.67289	6.6751
6.66431	6.49599
6.65576	6.44065
6.64722	6.54317
6.63871	6.64133
6.63022	6.48535
6.62175	6.3796
6.61331	6.36968
6.60488	6.18604
6.59648	6.04169
6.5881	5.98248
6.57974	5.90383
6.5714	5.87895
6.56308	5.77205
6.55478	5.63306
6.54651	5.47339
6.53825	5.51453
6.53001	5.52777
6.5218	5.52673
6.51361	5.42354
6.50544	5.4204
6.49729	5.51934
6.48915	5.43695
6.48104	5.40528
6.47295	5.3873
6.46488	5.31101
6.45683	5.26835
6.4488	5.26435
6.44079	5.35094
6.4328	5.36726
6.42482	5.32377
6.41687	5.39856
6.40894	5.27424
6.40103	5.02396
6.39314	4.92773
6.38526	4.89966
6.37741	4.79309
6.36957	4.69082
6.36176	4.60108
6.35396	4.52572
6.34618	4.52646
6.33843	4.37062
6.33069	4.17844
6.32297	4.01538
6.31527	3.88465
6.30758	3.86489
6.29992	3.78857
6.29227	3.6954
6.28465	3.59205
6.27704	3.4707
6.26945	3.34517
6.26188	3.20398
6.25432	3.09779
6.24679	3.0712
6.23927	3.13654
6.23177	3.11762
6.22429	2.97829
6.21683	2.92419
6.20938	3.02496
6.20195	3.0984
6.19454	3.26942
6.18715	3.61531
6.17978	3.80268
6.17242	3.89917
6.16508	3.86177
6.15776	3.55751
6.15045	3.07216
6.14317	2.50332
6.1359	2.07888
6.12864	1.77867
6.12141	1.58583
6.11419	1.56953
6.10699	1.6744
6.0998	1.75381
6.09263	1.90022
6.08549	1.99743
6.07835	2.10091
6.07123	2.24866
6.06413	2.32846
6.05705	2.37368
6.04998	2.52423
6.04293	2.55
6.0359	2.60386
6.02888	2.67131
6.02187	2.70861
6.01489	2.70908
6.00792	2.64239
6.00096	2.70644
5.99403	2.81826
5.98711	2.80422
5.9802	2.68122
5.97331	2.64714
5.96644	2.53289
5.95958	2.39225
5.95274	2.35023
5.94591	2.30333
5.9391	2.28208
5.9323	2.24011
5.92552	2.18167
5.91876	2.21419
5.91201	2.41178
5.90528	2.70165
5.89856	3.04867
5.89186	3.31931
5.88517	3.56259
5.8785	3.81832
5.87184	3.97113
5.8652	4.12711
5.85857	4.29139
5.85196	4.62032
5.84536	4.89139
5.83878	5.01871
5.83221	5.20228
5.82566	5.58962
5.81912	5.88716
5.81259	5.92403
5.80608	5.94255
5.79959	6.04648
5.79311	6.21375
5.78665	6.49452
5.78019	6.71976
5.77376	6.97525
5.76734	7.23954
5.76093	7.34878
5.75453	7.51561
5.74815	7.76477
5.74179	7.90055
5.73543	8.04959
5.7291	8.2759
5.72277	8.53517
5.71646	8.75146
5.71017	8.9086
5.70389	8.95501
5.69762	9.16479
5.69136	9.42048
5.68513	9.59114
5.6789	9.83149
5.67268	10.0901
5.66648	10.1347
5.6603	10.2359
5.65413	10.3955
5.64797	10.6245
5.64182	10.8997
5.63569	10.9901
5.62957	11.0657
5.62347	11.2015
5.61737	11.3961
5.61129	11.5448
5.60522	11.746
5.59917	11.8793
5.59313	11.9625
5.5871	12.1712
5.58109	12.4255
5.57509	12.4954
5.5691	12.5414
5.56312	12.6526
5.55716	12.7814
5.55121	13.0297
5.54528	13.2257
5.53935	13.3575
5.53344	13.5869
5.52754	13.8548
5.52166	14.1019
5.51578	14.3584
5.50992	14.6639
5.50407	14.9929
5.49823	15.2617
5.49241	15.492
5.4866	15.7121
5.4808	15.9051
5.47501	16.1038
5.46923	16.3627
5.46347	16.5179
5.45772	16.5428
5.45198	16.6465
5.44625	16.7801
5.44054	16.8649
5.43484	16.9698
5.42914	17.1481
5.42347	17.4662
5.4178	17.5799
5.41214	17.6276
5.4065	17.6586
5.40087	17.647
5.39525	17.637
5.38964	17.7066
5.38404	17.8193
5.37846	17.8975
5.37288	17.9523
5.36732	18.0063
5.36177	18.0536
5.35623	18.1672
5.35071	18.3174
5.34519	18.3183
5.33968	18.3205
5.33419	18.4009
5.32871	18.4738
5.32324	18.604
5.31778	18.6494
5.31233	18.7085
5.30689	18.7796
5.30147	18.8479
5.29605	18.9619
5.29065	19.044
5.28525	19.0629
5.27987	19.1584
5.2745	19.231
5.26914	19.322
5.26379	19.3742
5.25845	19.4153
5.25312	19.5
5.24781	19.592
5.2425	19.6822
5.23721	19.7708
5.23192	19.8291
5.22665	19.824
5.22138	19.8321
5.21613	19.8664
5.21089	19.822
5.20566	19.7796
5.20044	19.7434
5.19522	19.6561
5.19002	19.5484
5.18483	19.4791
5.17965	19.4145
5.17448	19.3738
5.16933	19.2916
5.16418	19.1344
5.15904	18.9752
5.15391	18.9201
5.14879	18.9251
5.14368	18.8562
5.13859	18.7311
5.1335	18.6117
5.12842	18.5968
5.12335	18.5881
5.1183	18.5042
5.11325	18.4306
5.10821	18.3764
5.10318	18.3058
5.09817	18.2051
5.09316	18.1109
5.08816	18.1138
5.08317	18.1143
5.07819	18.021
5.07322	17.8802
5.06826	17.8126
5.06331	17.808
5.05837	17.8356
5.05344	17.8614
5.04852	17.823
5.04361	17.7454
5.03871	17.7133
5.03382	17.7368
5.02894	17.7189
5.02406	17.7476
5.0192	17.7404
5.01435	17.649
5.0095	17.6033
5.00467	17.5901
4.99984	17.5254
4.99502	17.464
4.99021	17.3416
4.98542	17.0968
4.98063	16.7273
4.97585	16.4768
4.97108	16.5347
4.96632	16.7977
4.96156	17.1264
4.95682	17.3018
4.95209	17.2956
4.94736	17.2042
4.94264	17.1494
4.93794	17.1036
4.93324	17.0611
4.92855	16.9639
4.92387	16.8059
4.9192	16.722
4.91453	16.5997
4.90988	16.4454
4.90524	16.2808
4.9006	16.0659
4.89597	15.8854
4.89135	15.7171
4.88674	15.6027
4.88214	15.4301
4.87755	15.2317
4.87296	15.0997
4.86839	14.9373
4.86382	14.7375
4.85926	14.5544
4.85471	14.4009
4.85017	14.2924
4.84564	14.1142
4.84111	13.8578
4.8366	13.6081
4.83209	13.3781
4.82759	13.0752
4.8231	12.8106
4.81862	12.5716
4.81415	12.3442
4.80968	12.0354
4.80522	11.6573
4.80077	11.2781
4.79633	10.8581
4.7919	10.3551
4.78747	9.91711
4.78306	9.47921
4.77865	8.9474
4.77425	8.39525
4.76986	7.83215
4.76547	7.25441
4.7611	6.63668
4.75673	5.99396
4.75237	5.53795
4.74802	5.18444
4.74367	4.83041
4.73934	4.50178
4.73501	4.26438
4.73069	4.17052
4.72638	4.19906
4.72207	4.30324
4.71777	4.36217
4.71348	4.44617
4.7092	4.51131
4.70493	4.50103
4.70066	4.49893
4.69641	4.5443
4.69216	4.58315
4.68791	4.61144
4.68368	4.6227
4.67945	4.66752
4.67523	4.67086
4.67102	4.67015
4.66682	4.759
4.66262	4.90475
4.65843	5.07964
4.65425	5.16979
4.65007	5.14895
4.64591	5.19823
4.64175	5.23196
4.6376	5.16908
4.63345	5.0397
4.62932	4.97129
4.62519	5.00534
4.62106	5.06311
4.61695	4.97855
4.61284	4.89133
4.60874	4.79636
4.60465	4.65082
4.60056	4.62725
4.59648	4.56295
4.59241	4.39996
4.58835	4.28468
4.58429	4.21388
4.58024	4.14405
4.5762	4.03506
4.57216	3.89972
4.56814	3.76462
4.56411	3.6483
4.5601	3.56516
4.55609	3.45781
4.55209	3.38342
4.5481	3.32019
4.54411	3.23295
4.54013	3.226
4.53616	3.23695
4.5322	3.15173
4.52824	3.16394
4.52429	3.22447
4.52034	3.17283
4.51641	3.1229
4.51247	3.22095
4.50855	3.25083
4.50463	3.17356
4.50072	3.12122
4.49682	3.02667
4.49292	3.02351
4.48903	3.11354
4.48515	3.16235
4.48127	3.11369
4.4774	3.14349
4.47354	3.1603
4.46968	3.10894
4.46584	3.11959
4.46199	3.20617
4.45815	3.24475
4.45432	3.22339
4.4505	3.31117
4.44668	3.34639
4.44287	3.32013
4.43907	3.36609
4.43527	3.41292
4.43148	3.42442
4.4277	3.44563
4.42392	3.62177
4.42015	3.8467
4.41638	3.88602
4.41262	3.87145
4.40887	3.95166
4.40513	4.06827
4.40139	4.10828
4.39765	4.16659
4.39393	4.26424
4.39021	4.38532
4.38649	4.44533
4.38278	4.4847
4.37908	4.55971
4.37539	4.65635
4.3717	4.77564
4.36801	4.84365
4.36434	4.94317
4.36067	4.99771
4.357	5.16284
4.35335	5.2613
4.34969	5.26079
4.34605	5.34193
4.34241	5.47095
4.33877	5.56403
4.33514	5.74926
4.33152	5.99926
4.32791	6.13307
4.3243	6.20414
4.32069	6.39142
4.3171	6.71856
4.31351	6.95722
4.30992	7.13288
4.30634	7.41084
4.30277	7.69345
4.2992	7.91433
4.29564	8.25141
4.29208	8.5961
4.28853	8.82658
4.28499	9.04342
4.28145	9.36509
4.27792	9.73158
4.27439	10.0514
4.27087	10.3271
4.26735	10.6146
4.26384	10.8636
4.26034	11.1211
4.25684	11.4735
4.25335	11.7586
4.24986	12.0021
4.24638	12.356
4.24291	12.7721
4.23944	13.0252
4.23598	13.2311
4.23252	13.4926
4.22906	13.8119
4.22562	14.1059
4.22218	14.3823
4.21874	14.7367
4.21531	15.0306
4.21189	15.2499
4.20847	15.5014
4.20506	15.7768
4.20165	16.1249
4.19825	16.4574
4.19485	16.7296
4.19146	16.9492
4.18807	17.2144
4.18469	17.4939
4.18132	17.8263
4.17795	18.1358
4.17458	18.4063
4.17123	18.6652
4.16787	18.9895
4.16453	19.3119
4.16118	19.51
4.15785	19.7569
4.15451	19.9734
4.15119	20.2009
4.14787	20.5314
4.14455	20.7997
4.14124	21.0026
4.13794	21.2982
4.13464	21.6059
4.13134	21.7684
4.12805	21.95
4.12477	22.2982
4.12149	22.6645
4.11822	22.92
4.11495	23.1358
4.11168	23.3763
4.10843	23.6333
4.10517	23.9023
4.10192	24.2319
4.09868	24.5565
4.09545	24.7816
4.09221	25.0451
4.08899	25.3142
4.08576	25.568
4.08255	25.8886
4.07933	26.1666
4.07613	26.3837
4.07292	26.6195
4.06973	26.9553
4.06654	27.2533
4.06335	27.5307
4.06017	27.7949
4.05699	28.0701
4.05382	28.2464
4.05065	28.5032
4.04749	28.7669
4.04433	29.0157
4.04118	29.3546
4.03803	29.6795
4.03489	29.849
4.03175	30.0328
4.02862	30.3282
4.02549	30.597
4.02237	30.8236
4.01925	31.055
4.01614	31.2259
4.01303	31.3656
4.00993	31.6071
4.00683	31.8444
4.00373	31.8984
4.00064	32.003
3.99756	32.2212
3.99448	32.3886
3.9914	32.459
3.98833	32.3798
3.98527	32.1982
3.98221	31.941
3.97915	31.6668
3.9761	31.4712
3.97305	31.5588
3.97001	31.8903
3.96697	32.3714
3.96394	32.9837
3.96091	33.5015
3.95789	33.981
3.95487	34.4632
3.95186	34.8485
3.94885	35.1873
3.94584	35.5162
3.94284	35.7756
3.93984	35.9709
3.93685	36.1937
3.93386	36.4169
3.93088	36.6478
3.9279	36.9212
3.92493	37.14
3.92196	37.2999
3.919	37.3619
3.91604	37.4322
3.91308	37.5522
3.91013	37.6391
3.90718	37.7525
3.90424	37.9192
3.9013	38.0047
3.89837	38.1017
3.89544	38.1623
3.89252	38.1791
3.8896	38.0788
3.88668	37.8294
3.88377	37.5196
3.88086	37.1244
3.87796	36.6316
3.87506	36.2911
3.87217	36.3178
3.86928	36.693
3.86639	37.2085
3.86351	37.8373
3.86064	38.3438
3.85776	38.6295
3.8549	38.8921
3.85203	39.1635
3.84917	39.3048
3.84631	39.415
3.84346	39.4586
3.84062	39.5403
3.83777	39.61
3.83494	39.665
3.8321	39.7269
3.82927	39.7795
3.82644	39.767
3.82362	39.8491
3.82081	39.891
3.81799	39.8606
3.81518	39.8542
3.81238	39.8443
3.80958	39.812
3.80678	39.8493
3.80399	39.8335
3.8012	39.8306
3.79841	39.8435
3.79563	39.7968
3.79286	39.7494
3.79008	39.7549
3.78731	39.7507
3.78455	39.7499
3.78179	39.7159
3.77903	39.6799
3.77628	39.752
3.77353	39.8289
3.77079	39.809
3.76805	39.7283
3.76531	39.6766
3.76258	39.7124
3.75985	39.7426
3.75713	39.6586
3.7544	39.5867
3.75169	39.6056
3.74898	39.5731
3.74627	39.5441
3.74356	39.5308
3.74086	39.4429
3.73816	39.3716
3.73547	39.3456
3.73278	39.3124
3.7301	39.3539
3.72741	39.2732
3.72474	39.2045
3.72206	39.1914
3.71939	39.199
3.71673	39.1664
3.71406	39.1173
3.71141	39.1382
3.70875	39.15
3.7061	39.1666
3.70345	39.1735
3.70081	39.0467
3.69817	38.9624
3.69553	38.959
3.6929	38.9267
3.69027	38.8483
3.68765	38.6962
3.68503	38.564
3.68241	38.4938
3.6798	38.3915
3.67719	38.2644
3.67458	38.1465
3.67198	38.061
3.66938	37.9057
3.66678	37.8166
3.66419	37.7909
3.66161	37.6771
3.65902	37.5333
3.65644	37.3347
3.65387	37.0985
3.65129	36.9545
3.64872	36.8045
3.64616	36.6697
3.64359	36.6343
3.64103	36.5597
3.63848	36.4294
3.63593	36.1961
3.63338	35.9962
3.63084	35.8983
3.6283	35.7681
3.62576	35.6875
3.62322	35.5317
3.62069	35.2963
3.61817	35.1357
3.61564	34.9772
3.61312	34.7379
3.61061	34.5354
3.6081	34.4009
3.60559	34.2504
3.60308	34.0536
3.60058	33.8239
3.59808	33.6307
3.59558	33.4539
3.59309	33.2498
3.59061	33.0348
3.58812	32.8047
3.58564	32.6774
3.58316	32.568
3.58069	32.3712
3.57822	32.2173
3.57575	32.1413
3.57328	32.0151
3.57082	31.8656
3.56836	31.7451
3.56591	31.6733
3.56346	31.538
3.56101	31.349
3.55857	31.1789
3.55613	31.0216
3.55369	30.9491
3.55126	30.8772
3.54883	30.7091
3.5464	30.5779
3.54397	30.4833
3.54155	30.4668
3.53914	30.455
3.53672	30.3921
3.53431	30.2347
3.5319	30.0837
3.5295	30.0494
3.5271	29.9555
3.5247	29.8244
3.52231	29.7027
3.51991	29.6231
3.51753	29.5043
3.51514	29.3655
3.51276	29.2706
3.51038	29.2547
3.50801	29.1832
3.50563	28.9756
3.50327	28.8633
3.5009	28.8337
3.49854	28.7109
3.49618	28.4792
3.49382	28.3168
3.49147	28.1395
3.48912	28.0741
3.48677	27.958
3.48443	27.7867
3.48209	27.6648
3.47975	27.582
3.47742	27.4782
3.47509	27.3603
3.47276	27.1678
3.47044	27.0566
3.46812	26.855
3.4658	26.6611
3.46348	26.4663
