Name: Witherite BaCO_3
Type: Mineral
Class: Carbonates
Subclass: 
Particle Size: 45-125um
Sample No.: C-2A
Owner: JPL
Wavelength range: IR
Origin: United Kingdom, England
Collected by Grieger's Inc.
Description: 





Measurement: Hemispherical reflectance
First Column: X
Second Column: Y
X Units:  Wavelength (micrometers)
Y Units:  Reflectance (percent)
First X Value: 15.3853
Last X Value: 2.00032
Number of X Values: 2256
Additional information: c02aa.txt
 
15.3853	46.5821
15.3397	46.4051
15.2945	46.4939
15.2495	46.3606
15.2048	45.8484
15.1603	44.7738
15.1161	43.2099
15.0722	41.035
15.0285	38.4694
14.9851	36.2118
14.9419	34.2303
14.8989	32.2253
14.8563	30.0253
14.8138	27.3582
14.7716	23.2559
14.7296	18.6922
14.6879	17.5565
14.6464	15.514
14.6052	10.8089
14.5641	7.53857
14.5233	5.49368
14.4828	5.36774
14.4424	6.05651
14.4023	4.83876
14.3624	2.65805
14.3227	2.51606
14.2833	4.39847
14.244	7.04051
14.205	10.6538
14.1662	17.3943
14.1276	23.9277
14.0892	28.547
14.051	31.8942
14.0131	34.3235
13.9753	36.5548
13.9377	38.5458
13.9004	40.5825
13.8632	42.4957
13.8262	44.1933
13.7895	45.7243
13.7529	47.0697
13.7165	48.1288
13.6803	49.107
13.6443	49.7197
13.6085	49.9914
13.5729	50.2467
13.5374	50.3333
13.5022	50.1601
13.4671	49.8957
13.4322	49.2809
13.3975	48.5276
13.363	47.6934
13.3286	46.6987
13.2944	45.542
13.2604	44.2843
13.2266	42.9276
13.193	41.469
13.1595	40.0227
13.1262	38.8929
13.093	38.1343
13.06	37.5849
13.0272	37.1632
12.9946	36.9631
12.9621	37.1497
12.9298	37.5215
12.8976	37.9239
12.8656	38.2783
12.8337	38.7635
12.8021	39.439
12.7705	39.8388
12.7391	39.9141
12.7079	39.9714
12.6769	40.0881
12.6459	40.016
12.6152	39.9846
12.5845	39.8227
12.5541	39.1561
12.5238	38.22
12.4936	37.1184
12.4635	35.8521
12.4337	34.5482
12.4039	33.6091
12.3743	32.9894
12.3448	32.3628
12.3155	31.8576
12.2863	31.6055
12.2573	31.3108
12.2284	30.8595
12.1996	30.2697
12.171	29.417
12.1425	28.1467
12.1141	26.4285
12.0859	24.0787
12.0578	21.3657
12.0298	18.7494
12.0019	16.1102
11.9742	13.5408
11.9466	11.0895
11.9192	8.9801
11.8918	8.17988
11.8646	8.59132
11.8375	8.97537
11.8106	8.94074
11.7837	9.0924
11.757	9.41007
11.7304	10.2025
11.7039	12.0206
11.6776	14.691
11.6513	17.4812
11.6252	20.1685
11.5992	22.0204
11.5733	21.161
11.5475	16.7791
11.5219	12.1915
11.4963	10.1569
11.4709	9.80659
11.4455	9.90973
11.4203	10.0578
11.3952	9.91479
11.3702	9.73374
11.3454	9.49026
11.3206	8.6134
11.2959	7.58003
11.2714	8.38711
11.2469	10.5718
11.2226	11.947
11.1983	12.759
11.1742	13.4627
11.1502	14.0617
11.1263	14.7166
11.1024	15.539
11.0787	16.8332
11.0551	18.6275
11.0316	20.7045
11.0081	22.7633
10.9848	24.7448
10.9616	26.3192
10.9385	27.0591
10.9154	26.9278
10.8925	26.2759
10.8697	25.2262
10.8469	24.2455
10.8243	23.5865
10.8017	23.1476
10.7793	23.2764
10.7569	24.1497
10.7346	25.2546
10.7125	26.3297
10.6904	27.4841
10.6684	28.6022
10.6465	29.6109
10.6247	30.8292
10.6029	32.0766
10.5813	33.0238
10.5597	33.5736
10.5383	33.9734
10.5169	34.24
10.4956	34.1071
10.4744	33.3472
10.4533	32.2044
10.4323	31.356
10.4113	30.9198
10.3904	30.341
10.3697	29.6803
10.349	29.5957
10.3284	30.0251
10.3078	30.5782
10.2874	30.8585
10.267	30.7885
10.2467	30.5179
10.2265	30.1518
10.2064	30.0791
10.1863	30.2897
10.1663	30.4005
10.1464	29.9486
10.1266	29.0885
10.1069	28.278
10.0872	27.6572
10.0676	27.5597
10.0481	27.8496
10.0287	27.9788
10.0093	27.6623
9.99005	26.9999
9.97084	26.2972
9.95169	25.8157
9.93263	25.5704
9.91364	25.4902
9.89472	25.4372
9.87587	25.3408
9.8571	25.1488
9.83839	24.8622
9.81976	24.4406
9.80119	24.1333
9.78271	23.8487
9.76428	23.7406
9.74592	23.7752
9.72764	23.8006
9.70943	23.7016
9.69128	23.6108
9.6732	23.3061
9.65518	22.2403
9.63724	20.32
9.61935	20.165
9.60155	21.1707
9.5838	21.3314
9.56611	21.4032
9.5485	21.5527
9.53094	21.7081
9.51345	21.3992
9.49604	19.848
9.47867	15.8609
9.46137	10.0784
9.44414	6.56578
9.42697	7.69024
9.40986	12.8515
9.39281	18.2332
9.37583	21.2398
9.35891	22.6023
9.34204	22.936
9.32524	22.8884
9.3085	22.7695
9.29182	22.5299
9.27519	22.1194
9.25863	21.7676
9.24213	21.4142
9.22568	21.1355
9.2093	20.6949
9.19297	20.1939
9.17669	19.657
9.16048	19.1699
9.14433	18.7189
9.12823	18.3931
9.11218	18.0599
9.0962	17.5833
9.08027	17.0788
9.06439	16.8087
9.04858	16.5073
9.03281	16.0745
9.0171	15.5758
9.00145	15.1514
8.98585	14.8076
8.9703	14.8315
8.9548	15.1137
8.93937	15.4862
8.92398	15.895
8.90865	16.3511
8.89337	16.9975
8.87814	17.4727
8.86296	18.1628
8.84784	18.7491
8.83277	18.7335
8.81774	18.0799
8.80277	17.3479
8.78786	16.9991
8.77298	16.912
8.75816	16.8935
8.7434	16.5403
8.72868	15.8595
8.714	15.0041
8.69938	14.2839
8.68481	13.9281
8.67029	13.8703
8.65581	13.7853
8.64139	13.6634
8.62701	13.7188
8.61268	14.1974
8.5984	14.5819
8.58416	14.7661
8.56997	14.809
8.55583	14.6983
8.54174	14.3582
8.52769	13.8345
8.51368	13.2137
8.49973	12.9357
8.48582	13.1076
8.47195	13.5734
8.45813	14.0208
8.44436	14.3399
8.43062	14.4915
8.41693	14.6888
8.4033	14.9464
8.3897	15.0198
8.37614	14.9966
8.36264	14.9966
8.34917	15.0925
8.33574	15.0462
8.32236	14.8775
8.30903	14.4274
8.29573	13.6992
8.28248	12.9398
8.26927	12.0416
8.2561	11.296
8.24298	10.7027
8.2299	10.3848
8.21685	10.5236
8.20385	10.9219
8.19089	11.2436
8.17797	11.3798
8.16509	11.4516
8.15225	11.6316
8.13946	11.8545
8.1267	12.1094
8.11398	12.141
8.10131	11.8872
8.08867	11.3954
8.07606	10.8398
8.0635	10.3522
8.05099	10.0329
8.0385	9.71088
8.02606	9.41593
8.01366	9.25979
8.00129	9.07647
7.98896	8.90245
7.97667	8.85147
7.96442	8.81119
7.9522	8.78367
7.94002	8.76922
7.92788	8.70538
7.91578	8.58452
7.90371	8.51144
7.89168	8.52162
7.87969	8.62206
7.86773	8.6821
7.85581	8.58447
7.84392	8.40028
7.83207	8.08906
7.82026	7.75601
7.80849	7.35688
7.79674	6.90499
7.78503	6.59694
7.77337	6.46262
7.76173	6.36688
7.75012	6.27453
7.73856	6.18308
7.72703	6.1592
7.71553	6.22857
7.70406	6.10962
7.69263	5.99335
7.68123	6.01488
7.66987	6.08524
7.65855	6.13414
7.64725	6.12277
7.63598	6.11083
7.62475	6.11943
7.61356	6.0962
7.60239	6.23376
7.59126	6.33131
7.58017	6.36008
7.5691	6.37506
7.55806	6.38443
7.54707	6.40905
7.5361	6.46178
7.52516	6.44404
7.51425	6.38931
7.50338	6.45954
7.49253	6.56935
7.48172	6.63427
7.47094	6.72042
7.46019	6.72776
7.44947	6.88358
7.43879	6.97292
7.42813	7.03176
7.4175	7.14879
7.4069	7.27249
7.39634	7.3354
7.3858	7.41794
7.37529	7.46475
7.36482	7.51336
7.35437	7.57497
7.34396	7.67197
7.33357	7.76922
7.32321	7.86702
7.31288	7.90572
7.30258	7.90297
7.29231	7.90916
7.28207	8.08131
7.27185	8.26221
7.26167	8.38314
7.25152	8.54059
7.24139	8.78741
7.23129	9.12502
7.22122	9.41628
7.21117	9.66095
7.20116	9.88279
7.19117	10.1283
7.18121	10.4498
7.17128	10.8445
7.16137	11.2214
7.1515	11.5401
7.14164	11.9182
7.13182	12.3941
7.12203	12.9487
7.11225	13.5963
7.10251	14.5242
7.0928	15.7915
7.08311	17.4244
7.07344	19.4175
7.06381	21.7558
7.0542	24.2324
7.04461	26.1109
7.03506	27.1108
7.02552	27.7263
7.01601	28.1603
7.00653	28.5638
6.99708	28.97
6.98765	29.1965
6.97824	29.3989
6.96886	29.7968
6.95951	30.2428
6.95018	30.3427
6.94087	30.5449
6.9316	30.8688
6.92234	31.1578
6.91311	31.5683
6.90391	32.0573
6.89473	32.3704
6.88557	32.6445
6.87644	33.1361
6.86733	33.9287
6.85824	34.1873
6.84918	34.064
6.84015	34.1711
6.83114	34.4241
6.82215	34.4538
6.81319	34.3315
6.80424	34.2901
6.79532	34.3481
6.78643	34.0436
6.77756	33.4901
6.76871	33.0117
6.75989	32.5996
6.75109	32.1379
6.74231	31.5285
6.73355	31.0367
6.72482	30.6598
6.71611	30.2851
6.70742	29.894
6.69875	29.4768
6.69011	29.4562
6.68149	29.7912
6.67289	30.186
6.66431	30.4873
6.65576	30.7048
6.64722	31.0336
6.63871	31.4388
6.63022	31.1208
6.62175	30.4545
6.61331	29.7049
6.60488	28.4565
6.59648	26.5106
6.5881	23.7526
6.57974	20.6164
6.5714	17.3695
6.56308	14.4564
6.55478	12.0334
6.54651	9.84448
6.53825	8.14813
6.53001	6.74545
6.5218	5.44232
6.51361	4.35467
6.50544	3.52022
6.49729	2.87492
6.48915	2.36971
6.48104	1.93044
6.47295	1.52001
6.46488	1.28365
6.45683	1.13399
6.4488	0.971272
6.44079	0.861385
6.4328	0.805578
6.42482	0.745122
6.41687	0.673024
6.40894	0.619173
6.40103	0.56561
6.39314	0.537435
6.38526	0.5081
6.37741	0.417044
6.36957	0.476164
6.36176	0.575305
6.35396	0.558682
6.34618	0.494926
6.33843	0.499736
6.33069	0.551204
6.32297	0.522157
6.31527	0.539579
6.30758	0.611054
6.29992	0.625784
6.29227	0.659863
6.28465	0.658138
6.27704	0.643144
6.26945	0.670722
6.26188	0.631757
6.25432	0.581883
6.24679	0.648897
6.23927	0.713158
6.23177	0.746554
6.22429	0.787309
6.21683	0.864116
6.20938	0.962068
6.20195	1.01509
6.19454	1.02771
6.18715	1.08509
6.17978	1.0834
6.17242	1.12036
6.16508	1.27075
6.15776	1.3229
6.15045	1.32891
6.14317	1.42836
6.1359	1.52544
6.12864	1.50731
6.12141	1.43526
6.11419	1.50471
6.10699	1.54569
6.0998	1.66036
6.09263	1.84122
6.08549	1.88667
6.07835	2.04637
6.07123	2.27174
6.06413	2.45399
6.05705	2.57474
6.04998	2.7528
6.04293	2.95771
6.0359	3.14684
6.02888	3.50265
6.02187	3.88935
6.01489	4.24284
6.00792	4.6167
6.00096	5.12391
5.99403	5.61041
5.98711	6.18182
5.9802	6.76848
5.97331	7.30932
5.96644	7.89317
5.95958	8.59341
5.95274	9.41462
5.94591	10.1704
5.9391	11.1076
5.9323	11.9637
5.92552	12.5922
5.91876	13.3488
5.91201	14.1487
5.90528	15.0284
5.89856	16.0379
5.89186	16.9958
5.88517	17.9891
5.8785	18.9906
5.87184	19.7993
5.8652	20.9048
5.85857	21.907
5.85196	22.6793
5.84536	23.0317
5.83878	22.8609
5.83221	21.5104
5.82566	20.1313
5.81912	21.4385
5.81259	21.7772
5.80608	20.8926
5.79959	22.5472
5.79311	24.6009
5.78665	24.9941
5.78019	24.3132
5.77376	22.9997
5.76734	21.4243
5.76093	19.2221
5.75453	16.5014
5.74815	13.0367
5.74179	8.77373
5.73543	5.04412
5.7291	2.9462
5.72277	2.17736
5.71646	1.85552
5.71017	1.68527
5.70389	1.58204
5.69762	1.56035
5.69136	1.55164
5.68513	2.00091
5.6789	3.86259
5.67268	8.15739
5.66648	13.9586
5.6603	19.5323
5.65413	24.1244
5.64797	27.6916
5.64182	30.5494
5.63569	32.6991
5.62957	34.4384
5.62347	36.1544
5.61737	37.7194
5.61129	39.1691
5.60522	40.451
5.59917	41.5899
5.59313	42.6172
5.5871	43.6255
5.58109	44.6356
5.57509	45.4955
5.5691	46.0859
5.56312	46.7718
5.55716	47.4577
5.55121	48.025
5.54528	48.4655
5.53935	48.9886
5.53344	49.4924
5.52754	49.9731
5.52166	50.3236
5.51578	50.6469
5.50992	50.9532
5.50407	51.2926
5.49823	51.5714
5.49241	51.9661
5.4866	52.4391
5.4808	53.0204
5.47501	53.4537
5.46923	53.9234
5.46347	54.4425
5.45772	54.7617
5.45198	55.1414
5.44625	55.6378
5.44054	56.0023
5.43484	56.4064
5.42914	56.9217
5.42347	57.5839
5.4178	57.8684
5.41214	58.0692
5.4065	58.3793
5.40087	58.677
5.39525	58.8451
5.38964	58.9854
5.38404	59.1825
5.37846	59.3053
5.37288	59.3492
5.36732	59.4359
5.36177	59.5452
5.35623	59.7885
5.35071	60.1119
5.34519	60.4238
5.33968	60.8159
5.33419	61.2756
5.32871	61.7641
5.32324	62.2931
5.31778	62.6249
5.31233	62.8438
5.30689	62.9889
5.30147	63.0365
5.29605	63.1601
5.29065	63.2366
5.28525	63.0603
5.27987	62.8927
5.2745	62.6082
5.26914	62.3422
5.26379	62.1365
5.25845	61.9561
5.25312	61.8185
5.24781	61.8834
5.2425	62.1675
5.23721	62.57
5.23192	63.0555
5.22665	63.6445
5.22138	64.0498
5.21613	64.3715
5.21089	64.7163
5.20566	65.0914
5.20044	65.5396
5.19522	65.874
5.19002	66.0727
5.18483	66.2209
5.17965	66.2326
5.17448	66.1838
5.16933	66.0385
5.16418	65.7976
5.15904	65.5417
5.15391	65.3616
5.14879	65.1857
5.14368	64.986
5.13859	64.8229
5.1335	64.764
5.12842	64.9019
5.12335	65.2129
5.1183	65.5939
5.11325	66.1972
5.10821	66.954
5.10318	67.7248
5.09817	68.4433
5.09316	69.1657
5.08816	69.8194
5.08317	70.4277
5.07819	70.8142
5.07322	71.0065
5.06826	71.0988
5.06331	71.1347
5.05837	70.9521
5.05344	70.6868
5.04852	70.493
5.04361	70.4864
5.03871	70.6423
5.03382	70.9014
5.02894	71.1596
5.02406	71.5392
5.0192	71.9238
5.01435	72.23
5.0095	72.4315
5.00467	72.6429
4.99984	72.873
4.99502	72.9341
4.99021	72.8991
4.98542	72.8944
4.98063	72.8014
4.97585	72.5847
4.97108	72.3491
4.96632	72.2187
4.96156	72.1027
4.95682	72.0031
4.95209	71.9248
4.94736	71.9297
4.94264	71.9344
4.93794	71.8873
4.93324	71.9082
4.92855	71.9218
4.92387	71.8569
4.9192	71.8128
4.91453	71.7945
4.90988	71.7531
4.90524	71.7071
4.9006	71.6409
4.89597	71.4821
4.89135	71.2254
4.88674	70.8685
4.88214	70.5685
4.87755	70.2109
4.87296	69.6419
4.86839	68.7138
4.86382	67.4097
4.85926	66.0721
4.85471	64.7766
4.85017	63.4324
4.84564	62.3724
4.84111	61.2831
4.8366	59.7548
4.83209	57.6969
4.82759	55.0513
4.8231	51.6614
4.81862	47.7184
4.81415	43.4874
4.80968	39.3519
4.80522	35.5888
4.80077	32.2331
4.79633	29.144
4.7919	26.2038
4.78747	23.6902
4.78306	22.0194
4.77865	21.3927
4.77425	21.5948
4.76986	22.3724
4.76547	23.5305
4.7611	25.0041
4.75673	26.6977
4.75237	28.4733
4.74802	30.0998
4.74367	31.5193
4.73934	32.8101
4.73501	33.7626
4.73069	34.3973
4.72638	35.1178
4.72207	36.1821
4.71777	37.5366
4.71348	39.1086
4.7092	40.7358
4.70493	42.3627
4.70066	43.9808
4.69641	45.4278
4.69216	46.562
4.68791	47.5319
4.68368	48.4687
4.67945	49.3055
4.67523	49.8938
4.67102	50.3386
4.66682	50.8118
4.66262	51.3584
4.65843	52.0002
4.65425	52.6754
4.65007	53.3083
4.64591	53.9718
4.64175	54.6088
4.6376	55.1091
4.63345	55.5238
4.62932	55.7812
4.62519	55.9535
4.62106	56.0274
4.61695	55.9934
4.61284	55.9715
4.60874	55.9684
4.60465	55.9255
4.60056	55.8559
4.59648	55.8419
4.59241	55.8265
4.58835	55.76
4.58429	55.7037
4.58024	55.7772
4.5762	55.8928
4.57216	55.9407
4.56814	55.9967
4.56411	56.0907
4.5601	56.2331
4.55609	56.5704
4.55209	57.0301
4.5481	57.5458
4.54411	58.0256
4.54013	58.4406
4.53616	59.0098
4.5322	59.7768
4.52824	60.7042
4.52429	61.7421
4.52034	62.8594
4.51641	64.0834
4.51247	65.2441
4.50855	66.2522
4.50463	67.0137
4.50072	67.5278
4.49682	67.8125
4.49292	67.9824
4.48903	67.9918
4.48515	67.9826
4.48127	68.0035
4.4774	68.1422
4.47354	68.3837
4.46968	68.6067
4.46584	68.6348
4.46199	68.5482
4.45815	68.3329
4.45432	67.928
4.4505	67.3737
4.44668	66.708
4.44287	65.9697
4.43907	65.2231
4.43527	64.4179
4.43148	63.3944
4.4277	62.0495
4.42392	60.4954
4.42015	58.7083
4.41638	56.6614
4.41262	54.5474
4.40887	52.5676
4.40513	50.7847
4.40139	49.4201
4.39765	48.7829
4.39393	48.7642
4.39021	49.1857
4.38649	49.9476
4.38278	50.9955
4.37908	52.0716
4.37539	52.9218
4.3717	53.548
4.36801	53.9872
4.36434	54.3336
4.36067	54.688
4.357	55.109
4.35335	55.4202
4.34969	55.5879
4.34605	55.5857
4.34241	55.5437
4.33877	55.5432
4.33514	55.5958
4.33152	55.7336
4.32791	55.8485
4.3243	55.8755
4.32069	55.7262
4.3171	55.5378
4.31351	55.3711
4.30992	55.1543
4.30634	54.9649
4.30277	54.6245
4.2992	54.2247
4.29564	53.745
4.29208	53.1855
4.28853	52.3778
4.28499	51.4848
4.28145	50.5232
4.27792	49.4537
4.27439	48.4302
4.27087	47.6409
4.26735	47.2045
4.26384	46.9873
4.26034	46.9393
4.25684	47.0307
4.25335	47.0836
4.24986	47.0882
4.24638	47.0413
4.24291	46.951
4.23944	46.7338
4.23598	46.4475
4.23252	46.2393
4.22906	46.0956
4.22562	45.8976
4.22218	45.6277
4.21874	45.2669
4.21531	44.8858
4.21189	44.5417
4.20847	44.2172
4.20506	43.9362
4.20165	43.6419
4.19825	43.256
4.19485	42.8491
4.19146	42.4972
4.18807	42.2201
4.18469	41.8937
4.18132	41.5085
4.17795	41.0821
4.17458	40.6399
4.17123	40.238
4.16787	39.6462
4.16453	38.9132
4.16118	38.1943
4.15785	37.2336
4.15451	35.9813
4.15119	34.535
4.14787	32.8286
4.14455	30.6494
4.14124	27.9952
4.13794	24.9121
4.13464	21.5686
4.13134	19.0878
4.12805	17.7438
4.12477	16.1404
4.12149	14.3651
4.11822	13.7162
4.11495	13.3222
4.11168	11.9405
4.10843	9.93841
4.10517	7.81974
4.10192	6.11765
4.09868	4.99526
4.09545	4.26629
4.09221	3.68317
4.08899	3.23658
4.08576	2.94556
4.08255	2.7742
4.07933	2.72217
4.07613	2.63262
4.07292	2.64323
4.06973	2.82622
4.06654	2.83197
4.06335	2.86023
4.06017	2.96868
4.05699	3.02527
4.05382	3.07336
4.05065	3.17846
4.04749	3.27783
4.04433	3.34772
4.04118	3.36056
4.03803	3.41116
4.03489	3.59715
4.03175	3.87096
4.02862	4.2554
4.02549	4.83754
4.02237	5.29524
4.01925	5.64179
4.01614	6.07288
4.01303	6.58975
4.00993	7.11312
4.00683	7.59953
4.00373	7.91368
4.00064	7.98424
3.99756	7.95092
3.99448	8.10289
3.9914	8.40553
3.98833	8.72651
3.98527	9.0945
3.98221	9.36237
3.97915	9.63608
3.9761	9.87104
3.97305	10.104
3.97001	10.3221
3.96697	10.4139
3.96394	10.4599
3.96091	10.5309
3.95789	10.4591
3.95487	10.2664
3.95186	10.1549
3.94885	10.1418
3.94584	10.0169
3.94284	9.89483
3.93984	9.89516
3.93685	9.94252
3.93386	10.0185
3.93088	10.0334
3.9279	10.0583
3.92493	10.0747
3.92196	10.0192
3.919	10.0096
3.91604	10.1279
3.91308	10.3086
3.91013	10.5274
3.90718	10.801
3.90424	11.223
3.9013	11.815
3.89837	12.5544
3.89544	13.575
3.89252	14.9783
3.8896	16.8234
3.88668	19.079
3.88377	21.7967
3.88086	25.0143
3.87796	28.4898
3.87506	31.9029
3.87217	34.8504
3.86928	37.1992
3.86639	38.9696
3.86351	40.3716
3.86064	41.5087
3.85776	42.417
3.8549	43.1332
3.85203	43.6265
3.84917	43.9369
3.84631	44.1667
3.84346	44.304
3.84062	44.3851
3.83777	44.5488
3.83494	44.7277
3.8321	45.01
3.82927	45.3371
3.82644	45.7851
3.82362	46.3811
3.82081	46.9318
3.81799	47.422
3.81518	47.9721
3.81238	48.5514
3.80958	49.0424
3.80678	49.4288
3.80399	49.7513
3.8012	49.9458
3.79841	50.265
3.79563	50.6957
3.79286	51.0966
3.79008	51.3774
3.78731	51.6186
3.78455	51.8606
3.78179	52.1636
3.77903	52.3882
3.77628	52.658
3.77353	53.0508
3.77079	53.3235
3.76805	53.5163
3.76531	53.8001
3.76258	54.0838
3.75985	54.3604
3.75713	54.5044
3.7544	54.6382
3.75169	54.8185
3.74898	54.972
3.74627	55.1157
3.74356	55.1597
3.74086	55.1502
3.73816	55.1186
3.73547	55.0741
3.73278	55.0384
3.7301	54.9533
3.72741	54.8701
3.72474	54.8394
3.72206	54.8037
3.71939	54.8309
3.71673	54.8603
3.71406	54.8887
3.71141	54.924
3.70875	54.9598
3.7061	54.9391
3.70345	54.8985
3.70081	54.816
3.69817	54.688
3.69553	54.6141
3.6929	54.5357
3.69027	54.3273
3.68765	54.1532
3.68503	53.9898
3.68241	53.8115
3.6798	53.6253
3.67719	53.3286
3.67458	52.9571
3.67198	52.5741
3.66938	52.1029
3.66678	51.6387
3.66419	51.2586
3.66161	50.9709
3.65902	50.474
3.65644	49.622
3.65387	48.486
3.65129	46.8462
3.64872	44.3979
3.64616	41.6196
3.64359	40.0105
3.64103	40.6419
3.63848	42.6998
3.63593	44.5445
3.63338	45.5361
3.63084	46.013
3.6283	46.0985
3.62576	45.957
3.62322	45.5971
3.62069	44.891
3.61817	43.9965
3.61564	43.011
3.61312	41.9746
3.61061	40.7495
3.6081	39.3795
3.60559	37.8932
3.60308	36.2701
3.60058	34.5244
3.59808	32.5642
3.59558	30.328
3.59309	27.973
3.59061	25.6071
3.58812	23.1998
3.58564	20.7713
3.58316	18.5179
3.58069	16.5656
3.57822	14.6328
3.57575	12.7375
3.57328	11.1916
3.57082	9.86349
3.56836	8.86172
3.56591	8.26178
3.56346	7.86216
3.56101	7.33154
3.55857	6.59296
3.55613	5.80993
3.55369	5.1919
3.55126	4.71591
3.54883	4.4062
3.5464	4.18668
3.54397	3.98723
3.54155	3.95558
3.53914	3.99634
3.53672	4.10114
3.53431	4.36517
3.5319	4.66225
3.5295	4.91816
3.5271	5.18998
3.5247	5.50826
3.52231	5.86135
3.51991	6.20633
3.51753	6.32664
3.51514	6.48584
3.51276	6.76126
3.51038	6.97602
3.50801	7.20316
3.50563	7.44006
3.50327	7.67854
3.5009	7.91437
3.49854	8.1404
3.49618	8.19137
3.49382	8.06055
3.49147	7.80476
3.48912	7.49537
3.48677	7.2837
3.48443	7.10521
3.48209	6.92336
3.47975	6.77119
3.47742	6.60864
3.47509	6.42803
3.47276	6.26207
3.47044	6.29513
3.46812	6.35165
