Name: Quartz-Sericite Schist
Type: Rock
Class: Metamorphic
Subclass:  Schist 
Particle Size: Solid surface
Sample No.: Ward90.txt
Owner: JPL
Wavelength range:  VNIR SWIR IR 
Origin: Ward's Collection of American Rocks.  Sample locality - Edge Hill, Montgomery County, Pennsylvania.  Collected by - JPL.
Collected by:  Ward's Natural Science
Description: A thinly laminated rock consisting principally of quartz
with a small amount of white mica and a few black specks of a metallic
mineral.  Geologic age - Cambrian



Measurement: Hemispherical reflectance
First Column: X
Second Column: Y
X Units: Wavelength (micrometers)
Y Units: Reflectance (percent)
First X Value: 2.500
Last X Value: 0.400
Number of X Values: 2101
Additional information: None

2.500  44.947822
2.499  44.537372
2.498  44.851533
2.497  44.761298
2.496  44.676369
2.495  44.664048
2.494  44.823017
2.493  44.695392
2.492  44.887546
2.491  44.614581
2.490  44.870243
2.489  44.741797
2.488  44.599647
2.487  44.602311
2.486  44.782270
2.485  44.683757
2.484  44.865820
2.483  44.868641
2.482  44.779130
2.481  44.863320
2.480  44.876994
2.479  44.781316
2.478  44.824881
2.477  44.779770
2.476  44.823020
2.475  44.804790
2.474  44.797090
2.473  44.759266
2.472  44.723517
2.471  44.735529
2.470  44.820768
2.469  44.669110
2.468  44.620541
2.467  44.535794
2.466  44.726909
2.465  44.612169
2.464  44.647115
2.463  44.570121
2.462  44.690095
2.461  44.446748
2.460  44.496380
2.459  44.461621
2.458  44.509286
2.457  44.404251
2.456  44.370596
2.455  44.297303
2.454  44.492950
2.453  44.382879
2.452  44.462440
2.451  44.407108
2.450  44.480321
2.449  44.355738
2.448  44.399011
2.447  44.485701
2.446  44.541491
2.445  44.436443
2.444  44.548501
2.443  44.651614
2.442  44.745211
2.441  44.666906
2.440  44.727169
2.439  44.831553
2.438  45.019746
2.437  45.117241
2.436  45.224253
2.435  45.303775
2.434  45.421062
2.433  45.476789
2.432  45.586625
2.431  45.828773
2.430  45.922541
2.429  46.016667
2.428  46.214231
2.427  46.333468
2.426  46.469020
2.425  46.535314
2.424  46.726403
2.423  46.901477
2.422  47.046085
2.421  47.106585
2.420  47.170288
2.419  47.182155
2.418  47.340271
2.417  47.491856
2.416  47.706860
2.415  47.690739
2.414  47.781131
2.413  47.750339
2.412  47.835796
2.411  47.987605
2.410  48.088887
2.409  48.074925
2.408  48.123479
2.407  48.105781
2.406  48.072712
2.405  48.141903
2.404  48.222579
2.403  48.207131
2.402  48.169789
2.401  48.143656
2.400  48.160499
2.399  48.132985
2.398  48.116835
2.397  48.015083
2.396  47.996328
2.395  47.889513
2.394  47.812165
2.393  47.698269
2.392  47.684607
2.391  47.607031
2.390  47.485224
2.389  47.362746
2.388  47.338639
2.387  47.276245
2.386  47.303292
2.385  47.222567
2.384  47.238847
2.383  47.149973
2.382  47.126481
2.381  47.170071
2.380  47.181209
2.379  47.156793
2.378  47.204282
2.377  47.246875
2.376  47.277188
2.375  47.321823
2.374  47.430722
2.373  47.473647
2.372  47.598007
2.371  47.659813
2.370  47.709688
2.369  47.842860
2.368  47.980456
2.367  48.071716
2.366  48.080691
2.365  48.116286
2.364  48.211210
2.363  48.231366
2.362  48.309419
2.361  48.361582
2.360  48.437310
2.359  48.548034
2.358  48.554824
2.357  48.572073
2.356  48.629938
2.355  48.675953
2.354  48.690181
2.353  48.733134
2.352  48.844298
2.351  48.946034
2.350  49.028903
2.349  49.132015
2.348  49.161123
2.347  49.246046
2.346  49.435857
2.345  49.587161
2.344  49.711741
2.343  49.902465
2.342  49.986995
2.341  50.083661
2.340  50.257995
2.339  50.422987
2.338  50.603777
2.337  50.847949
2.336  51.054015
2.335  51.216858
2.334  51.363094
2.333  51.604571
2.332  51.786381
2.331  51.960188
2.330  52.078251
2.329  52.300573
2.328  52.538657
2.327  52.683263
2.326  52.846604
2.325  53.108144
2.324  53.346904
2.323  53.511719
2.322  53.742334
2.321  54.005857
2.320  54.191461
2.319  54.436488
2.318  54.673752
2.317  54.885045
2.316  55.034335
2.315  55.268471
2.314  55.493704
2.313  55.693811
2.312  55.932129
2.311  56.200933
2.310  56.309911
2.309  56.542404
2.308  56.733460
2.307  56.935688
2.306  57.155781
2.305  57.355165
2.304  57.492738
2.303  57.735912
2.302  57.913756
2.301  58.052737
2.300  58.162846
2.299  58.236746
2.298  58.357325
2.297  58.507302
2.296  58.532165
2.295  58.676204
2.294  58.766136
2.293  58.767541
2.292  58.806625
2.291  58.885433
2.290  58.877255
2.289  58.979208
2.288  58.981568
2.287  59.065272
2.286  59.001935
2.285  59.086295
2.284  59.053415
2.283  59.069227
2.282  59.004839
2.281  59.065049
2.280  59.102273
2.279  59.034637
2.278  59.066512
2.277  59.071219
2.276  59.009740
2.275  59.014059
2.274  59.005720
2.273  59.013787
2.272  58.916699
2.271  58.951488
2.270  58.931555
2.269  58.870883
2.268  58.710374
2.267  58.708671
2.266  58.506619
2.265  58.379977
2.264  58.194298
2.263  57.999224
2.262  57.759141
2.261  57.557355
2.260  57.311142
2.259  57.110661
2.258  56.752340
2.257  56.497650
2.256  56.080312
2.255  55.830743
2.254  55.411320
2.253  55.136888
2.252  54.748598
2.251  54.490046
2.250  54.064721
2.249  53.855386
2.248  53.403201
2.247  53.240646
2.246  52.900979
2.245  52.729496
2.244  52.489314
2.243  52.392665
2.242  52.188255
2.241  52.132844
2.240  52.052439
2.239  51.944052
2.238  51.959360
2.237  51.958246
2.236  51.841381
2.235  51.898639
2.234  51.891174
2.233  51.981751
2.232  51.932114
2.231  52.014428
2.230  52.003707
2.229  51.958652
2.228  51.900035
2.227  51.853388
2.226  51.716713
2.225  51.547814
2.224  51.469867
2.223  51.303971
2.222  50.932241
2.221  50.626368
2.220  50.188207
2.219  49.903791
2.218  49.357926
2.217  48.859577
2.216  48.214426
2.215  47.815078
2.214  47.256363
2.213  46.789840
2.212  46.282953
2.211  45.781466
2.210  45.587664
2.209  45.284436
2.208  45.132376
2.207  45.188744
2.206  45.113991
2.205  45.347271
2.204  45.551981
2.203  45.995668
2.202  46.303406
2.201  46.902950
2.200  47.363723
2.199  47.852809
2.198  48.279729
2.197  48.903540
2.196  49.332973
2.195  50.037652
2.194  50.384566
2.193  51.051841
2.192  51.516991
2.191  52.023829
2.190  52.682023
2.189  53.197364
2.188  53.738961
2.187  54.337706
2.186  54.837255
2.185  55.411162
2.184  55.912574
2.183  56.436045
2.182  56.767784
2.181  57.131623
2.180  57.451260
2.179  57.914460
2.178  58.119348
2.177  58.308202
2.176  58.571755
2.175  58.919286
2.174  58.964188
2.173  59.103579
2.172  59.219192
2.171  59.313962
2.170  59.479039
2.169  59.560366
2.168  59.625402
2.167  59.752143
2.166  59.729492
2.165  59.807914
2.164  59.957669
2.163  60.062501
2.162  60.169949
2.161  60.397449
2.160  60.458080
2.159  60.624292
2.158  60.854923
2.157  61.116427
2.156  61.213745
2.155  61.550567
2.154  61.834533
2.153  62.171530
2.152  62.469143
2.151  62.853783
2.150  63.155751
2.149  63.595671
2.148  63.936628
2.147  64.303848
2.146  64.634107
2.145  64.926232
2.144  65.290635
2.143  65.670428
2.142  65.888266
2.141  66.158163
2.140  66.361877
2.139  66.588528
2.138  66.777037
2.137  66.973850
2.136  67.061711
2.135  67.249166
2.134  67.346307
2.133  67.484669
2.132  67.496022
2.131  67.585095
2.130  67.679012
2.129  67.696900
2.128  67.720454
2.127  67.740495
2.126  67.761836
2.125  67.801283
2.124  67.818466
2.123  67.802421
2.122  67.834517
2.121  67.844314
2.120  67.910120
2.119  68.022192
2.118  68.021403
2.117  68.113838
2.116  68.170692
2.115  68.212323
2.114  68.272325
2.113  68.400899
2.112  68.503452
2.111  68.612672
2.110  68.688085
2.109  68.870735
2.108  68.935027
2.107  69.115486
2.106  69.223316
2.105  69.377762
2.104  69.560558
2.103  69.679884
2.102  69.758557
2.101  69.877453
2.100  69.927053
2.099  70.039664
2.098  70.104345
2.097  70.218691
2.096  70.324173
2.095  70.464669
2.094  70.616030
2.093  70.660204
2.092  70.726478
2.091  70.877997
2.090  70.996083
2.089  71.053447
2.088  71.131010
2.087  71.267972
2.086  71.317253
2.085  71.443852
2.084  71.514175
2.083  71.624075
2.082  71.770201
2.081  71.798596
2.080  71.864276
2.079  71.892222
2.078  71.982333
2.077  72.049545
2.076  72.134708
2.075  72.195898
2.074  72.183758
2.073  72.310977
2.072  72.386682
2.071  72.394790
2.070  72.489412
2.069  72.550632
2.068  72.642614
2.067  72.602880
2.066  72.593017
2.065  72.758387
2.064  72.778068
2.063  72.776663
2.062  72.830290
2.061  72.822883
2.060  72.867728
2.059  72.954059
2.058  73.010204
2.057  73.009986
2.056  73.082142
2.055  73.163738
2.054  73.154632
2.053  73.203826
2.052  73.148211
2.051  73.129822
2.050  73.239740
2.049  73.266382
2.048  73.254825
2.047  73.227532
2.046  73.253896
2.045  73.393913
2.044  73.375845
2.043  73.365386
2.042  73.413099
2.041  73.453267
2.040  73.467609
2.039  73.504870
2.038  73.507668
2.037  73.465860
2.036  73.553281
2.035  73.555570
2.034  73.507628
2.033  73.587733
2.032  73.568401
2.031  73.584015
2.030  73.687588
2.029  73.599791
2.028  73.584152
2.027  73.578838
2.026  73.601148
2.025  73.639341
2.024  73.661779
2.023  73.592054
2.022  73.566681
2.021  73.592019
2.020  73.636886
2.019  73.750461
2.018  73.670252
2.017  73.638508
2.016  73.631542
2.015  73.695724
2.014  73.746125
2.013  73.660606
2.012  73.633346
2.011  73.630159
2.010  73.703585
2.009  73.757459
2.008  73.676916
2.007  73.668289
2.006  73.714013
2.005  73.689066
2.004  73.672026
2.003  73.723335
2.002  73.709216
2.001  73.697585
2.000  73.755474
1.999  73.731669
1.998  73.818078
1.997  73.677833
1.996  73.738904
1.995  73.716092
1.994  73.760979
1.993  73.746632
1.992  73.795988
1.991  73.716020
1.990  73.700319
1.989  73.728918
1.988  73.707685
1.987  73.647906
1.986  73.667225
1.985  73.524982
1.984  73.576566
1.983  73.551564
1.982  73.562011
1.981  73.505479
1.980  73.596257
1.979  73.560286
1.978  73.550460
1.977  73.531745
1.976  73.555640
1.975  73.585918
1.974  73.595502
1.973  73.538601
1.972  73.447634
1.971  73.483085
1.970  73.517738
1.969  73.449653
1.968  73.466876
1.967  73.462211
1.966  73.441191
1.965  73.471949
1.964  73.371274
1.963  73.321709
1.962  73.393295
1.961  73.379767
1.960  73.400205
1.959  73.387007
1.958  73.421943
1.957  73.406222
1.956  73.324028
1.955  73.313657
1.954  73.240769
1.953  73.379011
1.952  73.246794
1.951  73.255576
1.950  73.310519
1.949  73.236354
1.948  73.255745
1.947  73.299831
1.946  73.173479
1.945  73.244717
1.944  73.180008
1.943  73.160482
1.942  73.255772
1.941  73.107493
1.940  73.126839
1.939  73.083831
1.938  73.116459
1.937  73.111655
1.936  73.070155
1.935  73.015355
1.934  73.190712
1.933  73.132648
1.932  73.147236
1.931  73.115518
1.930  72.977058
1.929  73.052736
1.928  73.105059
1.927  73.075953
1.926  73.093731
1.925  73.145144
1.924  73.042181
1.923  72.962878
1.922  73.098445
1.921  72.985340
1.920  73.051357
1.919  73.051577
1.918  73.142955
1.917  72.979125
1.916  73.094604
1.915  73.023318
1.914  73.059490
1.913  73.011626
1.912  73.111459
1.911  73.041416
1.910  73.175021
1.909  73.126821
1.908  73.235142
1.907  73.276363
1.906  73.541206
1.905  73.404038
1.904  73.650620
1.903  73.715242
1.902  73.801852
1.901  73.875096
1.900  73.982211
1.899  74.021399
1.898  74.122369
1.897  74.263267
1.896  74.366805
1.895  74.434479
1.894  74.513906
1.893  74.543154
1.892  74.668659
1.891  74.744456
1.890  74.842289
1.889  74.810660
1.888  74.833680
1.887  74.936148
1.886  75.094407
1.885  75.067355
1.884  75.177711
1.883  75.083414
1.882  75.163708
1.881  75.150554
1.880  75.187666
1.879  75.133091
1.878  75.329458
1.877  75.359445
1.876  75.392512
1.875  75.518077
1.874  75.421442
1.873  75.431642
1.872  75.512297
1.871  75.547289
1.870  75.478809
1.869  75.462031
1.868  75.474738
1.867  75.511230
1.866  75.581783
1.865  75.544377
1.864  75.516145
1.863  75.504496
1.862  75.486753
1.861  75.475561
1.860  75.448337
1.859  75.442336
1.858  75.359272
1.857  75.398448
1.856  75.325824
1.855  75.321906
1.854  75.376516
1.853  75.290662
1.852  75.244104
1.851  75.274206
1.850  75.219005
1.849  75.137546
1.848  75.195320
1.847  75.116768
1.846  75.133852
1.845  75.082959
1.844  75.072311
1.843  75.086396
1.842  75.096568
1.841  75.146401
1.840  75.183211
1.839  75.116778
1.838  75.149154
1.837  75.198958
1.836  75.253502
1.835  75.260039
1.834  75.330766
1.833  75.288086
1.832  75.214247
1.831  75.179196
1.830  75.287837
1.829  75.371157
1.828  75.347331
1.827  75.304411
1.826  75.218787
1.825  75.178169
1.824  75.241629
1.823  75.240796
1.822  75.251205
1.821  75.240159
1.820  75.262164
1.819  75.240253
1.818  75.234876
1.817  75.219051
1.816  75.152714
1.815  75.128504
1.814  75.280452
1.813  75.289253
1.812  75.269670
1.811  75.305737
1.810  75.285790
1.809  75.309852
1.808  75.354655
1.807  75.340576
1.806  75.352396
1.805  75.356402
1.804  75.330392
1.803  75.336721
1.802  75.304584
1.801  75.297994
1.800  75.280006
1.799  75.243261
1.798  75.274922
1.797  75.276036
1.796  75.278595
1.795  75.270779
1.794  75.250260
1.793  75.233843
1.792  75.276018
1.791  75.258055
1.790  75.217110
1.789  75.277698
1.788  75.245521
1.787  75.207339
1.786  75.257957
1.785  75.257109
1.784  75.181443
1.783  75.183904
1.782  75.215738
1.781  75.245272
1.780  75.308319
1.779  75.335040
1.778  75.318038
1.777  75.279662
1.776  75.292312
1.775  75.300545
1.774  75.216350
1.773  75.242781
1.772  75.218944
1.771  75.192844
1.770  75.201377
1.769  75.203923
1.768  75.234753
1.767  75.270469
1.766  75.276274
1.765  75.206372
1.764  75.136178
1.763  75.185179
1.762  75.228089
1.761  75.236829
1.760  75.211240
1.759  75.221770
1.758  75.143136
1.757  75.159459
1.756  75.205775
1.755  75.236586
1.754  75.214701
1.753  75.223048
1.752  75.185387
1.751  75.197449
1.750  75.160185
1.749  75.081633
1.748  75.112730
1.747  75.156662
1.746  75.121855
1.745  75.067997
1.744  75.111657
1.743  75.195902
1.742  75.112074
1.741  75.153277
1.740  75.132154
1.739  75.135197
1.738  75.076930
1.737  75.101778
1.736  75.118295
1.735  75.103660
1.734  75.101254
1.733  75.123424
1.732  75.067514
1.731  75.037591
1.730  74.999165
1.729  75.025267
1.728  74.995417
1.727  75.092825
1.726  75.106896
1.725  75.117866
1.724  75.073517
1.723  75.042702
1.722  75.008264
1.721  75.028502
1.720  74.995337
1.719  74.977338
1.718  74.915287
1.717  74.989758
1.716  74.957599
1.715  74.904457
1.714  74.922674
1.713  74.956708
1.712  74.875427
1.711  74.934962
1.710  74.909306
1.709  74.878005
1.708  74.772899
1.707  74.829127
1.706  74.844114
1.705  74.791238
1.704  74.660913
1.703  74.765497
1.702  74.706352
1.701  74.740743
1.700  74.690615
1.699  74.745367
1.698  74.699475
1.697  74.682736
1.696  74.675205
1.695  74.708239
1.694  74.766955
1.693  74.661858
1.692  74.481716
1.691  74.595939
1.690  74.654455
1.689  74.586226
1.688  74.506015
1.687  74.486420
1.686  74.521933
1.685  74.512737
1.684  74.517236
1.683  74.551932
1.682  74.455801
1.681  74.461749
1.680  74.406657
1.679  74.441696
1.678  74.435134
1.677  74.408700
1.676  74.358675
1.675  74.416790
1.674  74.344500
1.673  74.367963
1.672  74.278091
1.671  74.335905
1.670  74.266168
1.669  74.259028
1.668  74.201522
1.667  74.304723
1.666  74.300603
1.665  74.258840
1.664  74.203156
1.663  74.224346
1.662  74.224880
1.661  74.275518
1.660  74.172787
1.659  74.187967
1.658  74.019716
1.657  74.118449
1.656  74.106011
1.655  74.161040
1.654  74.114470
1.653  74.013235
1.652  73.973580
1.651  74.085416
1.650  73.990156
1.649  74.106432
1.648  74.009967
1.647  74.064263
1.646  73.925131
1.645  73.973782
1.644  73.946548
1.643  73.991544
1.642  73.835427
1.641  73.905249
1.640  73.890944
1.639  73.865493
1.638  73.822089
1.637  73.905608
1.636  73.842424
1.635  73.784092
1.634  73.762362
1.633  73.828577
1.632  73.668331
1.631  73.795783
1.630  73.661736
1.629  73.686142
1.628  73.662775
1.627  73.735835
1.626  73.745251
1.625  73.761596
1.624  73.710105
1.623  73.660430
1.622  73.637129
1.621  73.653556
1.620  73.535378
1.619  73.614128
1.618  73.538836
1.617  73.543403
1.616  73.564965
1.615  73.442073
1.614  73.510733
1.613  73.447293
1.612  73.420383
1.611  73.445109
1.610  73.426867
1.609  73.521146
1.608  73.448024
1.607  73.428023
1.606  73.314716
1.605  73.453895
1.604  73.367849
1.603  73.360046
1.602  73.301282
1.601  73.265936
1.600  73.312790
1.599  73.249582
1.598  73.202518
1.597  73.179720
1.596  73.209945
1.595  73.177541
1.594  73.111587
1.593  73.145385
1.592  73.171493
1.591  73.171472
1.590  73.150497
1.589  73.100687
1.588  73.071922
1.587  73.091507
1.586  73.039391
1.585  73.076420
1.584  73.026950
1.583  72.979439
1.582  72.913638
1.581  72.909185
1.580  72.878440
1.579  72.853547
1.578  72.837312
1.577  72.873098
1.576  72.818269
1.575  72.805829
1.574  72.735539
1.573  72.807896
1.572  72.690380
1.571  72.792216
1.570  72.720880
1.569  72.641805
1.568  72.681964
1.567  72.596800
1.566  72.627323
1.565  72.679753
1.564  72.622675
1.563  72.578679
1.562  72.511334
1.561  72.522147
1.560  72.494710
1.559  72.405874
1.558  72.461164
1.557  72.481754
1.556  72.370250
1.555  72.386403
1.554  72.407254
1.553  72.386709
1.552  72.368623
1.551  72.362645
1.550  72.318487
1.549  72.317731
1.548  72.213632
1.547  72.224902
1.546  72.209761
1.545  72.166126
1.544  72.124434
1.543  72.098593
1.542  72.084766
1.541  72.055009
1.540  72.047353
1.539  72.042506
1.538  72.017715
1.537  71.950505
1.536  71.920870
1.535  72.017065
1.534  71.973147
1.533  71.955389
1.532  71.947556
1.531  71.906773
1.530  71.953223
1.529  71.938337
1.528  71.866685
1.527  71.841058
1.526  71.823595
1.525  71.776376
1.524  71.708025
1.523  71.677100
1.522  71.716070
1.521  71.696949
1.520  71.642810
1.519  71.607305
1.518  71.591872
1.517  71.607414
1.516  71.543529
1.515  71.517019
1.514  71.533696
1.513  71.543469
1.512  71.509568
1.511  71.483425
1.510  71.482282
1.509  71.429073
1.508  71.322758
1.507  71.284379
1.506  71.284688
1.505  71.285113
1.504  71.266799
1.503  71.267570
1.502  71.230331
1.501  71.235939
1.500  71.239325
1.499  71.176693
1.498  71.092309
1.497  71.051631
1.496  71.050780
1.495  71.078429
1.494  71.081079
1.493  71.021930
1.492  70.967459
1.491  70.894880
1.490  70.869611
1.489  70.909632
1.488  70.912873
1.487  70.830166
1.486  70.780554
1.485  70.785262
1.484  70.800646
1.483  70.730334
1.482  70.685766
1.481  70.678030
1.480  70.621509
1.479  70.596415
1.478  70.602627
1.477  70.575688
1.476  70.525943
1.475  70.475083
1.474  70.452959
1.473  70.416047
1.472  70.374907
1.471  70.329878
1.470  70.354253
1.469  70.351094
1.468  70.316681
1.467  70.258548
1.466  70.188791
1.465  70.146247
1.464  70.194560
1.463  70.134184
1.462  70.142048
1.461  70.059776
1.460  70.018820
1.459  69.926070
1.458  69.866836
1.457  69.853405
1.456  69.886109
1.455  69.736312
1.454  69.646527
1.453  69.568130
1.452  69.530208
1.451  69.392236
1.450  69.319962
1.449  69.173030
1.448  69.151481
1.447  68.978624
1.446  68.844879
1.445  68.675852
1.444  68.513202
1.443  68.215616
1.442  67.970313
1.441  67.727754
1.440  67.511831
1.439  67.227311
1.438  66.922685
1.437  66.599959
1.436  66.284166
1.435  65.775045
1.434  65.413071
