Name: Natrolite Na_2Al_2Si_3O_10.2H_2O
Type: Mineral
Class: Silicates
Subclass: Tectosilicates
Particle Size: 45-125um
Sample No.: TS-8A
Owner: JPL
Wavelength range: VNIR-SWIR
Origin: India, Maharashtra, Poona.
Collected by:  Ward's
Description: 





Measurement: Hemispherical reflectance
First Column: X
Second Column: Y
X Units: Wavelength (micrometers)
Y Units: Reflectance (percent)
First X Value: 2.500
Last X Value: 0.400
Number of X Values: 2101
Additional information: ts08aa.txt

2.500  38.738656
2.499  38.497761
2.498  38.682027
2.497  38.591794
2.496  38.054749
2.495  38.307226
2.494  38.045720
2.493  37.803530
2.492  37.682747
2.491  37.356456
2.490  37.263556
2.489  36.991750
2.488  36.688299
2.487  36.334806
2.486  36.101617
2.485  35.630433
2.484  35.458333
2.483  35.036020
2.482  34.703072
2.481  34.177912
2.480  33.771943
2.479  33.465014
2.478  33.068059
2.477  32.602208
2.476  32.317755
2.475  31.931036
2.474  31.454881
2.473  31.099864
2.472  30.721865
2.471  30.361363
2.470  30.013251
2.469  29.679444
2.468  29.348470
2.467  29.141276
2.466  28.886652
2.465  28.568524
2.464  28.478568
2.463  28.262797
2.462  28.049746
2.461  27.885214
2.460  27.968405
2.459  27.695244
2.458  27.768582
2.457  27.666947
2.456  27.687730
2.455  27.636599
2.454  27.707340
2.453  27.614310
2.452  27.472665
2.451  27.368785
2.450  27.376161
2.449  27.200020
2.448  27.295588
2.447  27.077688
2.446  27.016396
2.445  26.721820
2.444  26.595861
2.443  26.316764
2.442  26.177438
2.441  25.874750
2.440  25.691498
2.439  25.370398
2.438  25.260648
2.437  24.852448
2.436  24.748855
2.435  24.432531
2.434  24.328217
2.433  24.161398
2.432  24.026716
2.431  23.961857
2.430  23.917803
2.429  23.782209
2.428  23.780579
2.427  23.922654
2.426  24.095988
2.425  24.195358
2.424  24.511632
2.423  24.754832
2.422  25.083844
2.421  25.430821
2.420  25.936955
2.419  26.306191
2.418  26.810222
2.417  27.207883
2.416  27.728790
2.415  28.294028
2.414  28.955760
2.413  29.444144
2.412  30.053683
2.411  30.611170
2.410  31.257351
2.409  31.824146
2.408  32.433104
2.407  33.058719
2.406  33.690936
2.405  34.260563
2.404  34.863696
2.403  35.378966
2.402  35.951128
2.401  36.408083
2.400  36.965504
2.399  37.404680
2.398  37.877758
2.397  38.305314
2.396  38.664522
2.395  39.087744
2.394  39.439072
2.393  39.758303
2.392  40.097163
2.391  40.451174
2.390  40.739631
2.389  40.936267
2.388  41.185811
2.387  41.352221
2.386  41.575966
2.385  41.788716
2.384  41.982930
2.383  42.120526
2.382  42.281216
2.381  42.470103
2.380  42.697967
2.379  42.857168
2.378  43.006104
2.377  43.166985
2.376  43.316756
2.375  43.467557
2.374  43.687026
2.373  43.909872
2.372  44.154444
2.371  44.300804
2.370  44.527806
2.369  44.778522
2.368  44.991013
2.367  45.228805
2.366  45.480573
2.365  45.669342
2.364  45.873437
2.363  46.116533
2.362  46.311846
2.361  46.522874
2.360  46.731984
2.359  46.933102
2.358  47.196235
2.357  47.444351
2.356  47.651604
2.355  47.847856
2.354  47.989045
2.353  48.154322
2.352  48.344619
2.351  48.520607
2.350  48.677295
2.349  48.845427
2.348  49.036467
2.347  49.217536
2.346  49.363049
2.345  49.536766
2.344  49.783586
2.343  50.008967
2.342  50.136581
2.341  50.302621
2.340  50.485998
2.339  50.714998
2.338  50.943402
2.337  51.137354
2.336  51.305581
2.335  51.480679
2.334  51.730870
2.333  51.926682
2.332  52.088554
2.331  52.320456
2.330  52.505465
2.329  52.648031
2.328  52.831663
2.327  53.063023
2.326  53.274005
2.325  53.498446
2.324  53.685567
2.323  53.838498
2.322  54.023827
2.321  54.239047
2.320  54.412872
2.319  54.636713
2.318  54.814518
2.317  54.948928
2.316  55.066428
2.315  55.222724
2.314  55.347328
2.313  55.542521
2.312  55.735397
2.311  55.875316
2.310  55.976063
2.309  56.107638
2.308  56.206421
2.307  56.401001
2.306  56.482181
2.305  56.568764
2.304  56.619114
2.303  56.698603
2.302  56.830983
2.301  56.864192
2.300  56.889288
2.299  56.900304
2.298  56.859086
2.297  56.827520
2.296  56.863794
2.295  56.804942
2.294  56.731318
2.293  56.657660
2.292  56.552779
2.291  56.530305
2.290  56.476622
2.289  56.364172
2.288  56.245293
2.287  56.150837
2.286  55.992992
2.285  55.940208
2.284  55.802787
2.283  55.680106
2.282  55.541429
2.281  55.575047
2.280  55.417269
2.279  55.311402
2.278  55.204781
2.277  55.221913
2.276  55.222972
2.275  55.171450
2.274  55.162221
2.273  55.143842
2.272  55.168448
2.271  55.197958
2.270  55.191759
2.269  55.269820
2.268  55.344510
2.267  55.471427
2.266  55.448140
2.265  55.608048
2.264  55.705371
2.263  55.849896
2.262  55.914925
2.261  56.056588
2.260  56.097447
2.259  56.182863
2.258  56.293893
2.257  56.344812
2.256  56.431855
2.255  56.553278
2.254  56.473132
2.253  56.503075
2.252  56.516308
2.251  56.509295
2.250  56.501694
2.249  56.471420
2.248  56.482240
2.247  56.487433
2.246  56.483234
2.245  56.382635
2.244  56.277624
2.243  56.190929
2.242  56.047739
2.241  55.927583
2.240  55.924105
2.239  55.723687
2.238  55.577877
2.237  55.480820
2.236  55.305225
2.235  55.183722
2.234  54.993853
2.233  54.848411
2.232  54.605031
2.231  54.526557
2.230  54.303766
2.229  54.095408
2.228  53.849518
2.227  53.625745
2.226  53.344243
2.225  53.137728
2.224  52.847258
2.223  52.617192
2.222  52.183658
2.221  52.002602
2.220  51.564815
2.219  51.235961
2.218  50.865149
2.217  50.536711
2.216  50.137762
2.215  49.800196
2.214  49.329127
2.213  48.942071
2.212  48.535184
2.211  48.046273
2.210  47.704810
2.209  47.410990
2.208  46.955377
2.207  46.653657
2.206  46.173899
2.205  45.830077
2.204  45.568628
2.203  45.325252
2.202  44.991574
2.201  44.836347
2.200  44.645573
2.199  44.555194
2.198  44.442905
2.197  44.477860
2.196  44.393141
2.195  44.475498
2.194  44.564189
2.193  44.740829
2.192  44.799201
2.191  45.063220
2.190  45.263447
2.189  45.577872
2.188  45.843275
2.187  46.033290
2.186  46.329211
2.185  46.659893
2.184  46.951571
2.183  47.236073
2.182  47.403518
2.181  47.689346
2.180  47.889310
2.179  48.046285
2.178  48.282025
2.177  48.407258
2.176  48.589247
2.175  48.728253
2.174  48.678924
2.173  48.751548
2.172  48.823545
2.171  48.965052
2.170  49.007217
2.169  49.063784
2.168  49.012132
2.167  49.093162
2.166  49.124730
2.165  49.176226
2.164  49.121739
2.163  49.258548
2.162  49.291347
2.161  49.324196
2.160  49.366494
2.159  49.446092
2.158  49.512636
2.157  49.603031
2.156  49.656482
2.155  49.806231
2.154  49.859286
2.153  50.018373
2.152  50.096992
2.151  50.221886
2.150  50.224444
2.149  50.297323
2.148  50.384615
2.147  50.501232
2.146  50.568981
2.145  50.678642
2.144  50.722712
2.143  50.818716
2.142  50.840320
2.141  50.939903
2.140  50.924943
2.139  50.941247
2.138  50.886779
2.137  50.935915
2.136  50.897976
2.135  50.872136
2.134  50.834681
2.133  50.793149
2.132  50.650324
2.131  50.551767
2.130  50.489156
2.129  50.340960
2.128  50.138673
2.127  50.062823
2.126  49.881657
2.125  49.789799
2.124  49.644991
2.123  49.423209
2.122  49.227098
2.121  49.015774
2.120  48.812981
2.119  48.658114
2.118  48.435007
2.117  48.178182
2.116  47.911518
2.115  47.653980
2.114  47.437152
2.113  47.138220
2.112  46.797607
2.111  46.478553
2.110  46.144449
2.109  45.811730
2.108  45.445204
2.107  45.084785
2.106  44.677200
2.105  44.327097
2.104  43.911623
2.103  43.532409
2.102  43.103513
2.101  42.696166
2.100  42.271277
2.099  41.902760
2.098  41.511732
2.097  41.169801
2.096  40.801083
2.095  40.459212
2.094  40.122024
2.093  39.829531
2.092  39.618512
2.091  39.394865
2.090  39.164578
2.089  38.960705
2.088  38.770478
2.087  38.674846
2.086  38.603978
2.085  38.566808
2.084  38.501545
2.083  38.403229
2.082  38.417851
2.081  38.506973
2.080  38.550728
2.079  38.585643
2.078  38.701707
2.077  38.798993
2.076  38.881478
2.075  39.021094
2.074  39.172710
2.073  39.273431
2.072  39.358010
2.071  39.458992
2.070  39.571778
2.069  39.684631
2.068  39.776138
2.067  39.878954
2.066  39.927317
2.065  39.938109
2.064  39.998995
2.063  40.079052
2.062  40.120075
2.061  40.119529
2.060  40.070989
2.059  40.070332
2.058  40.084244
2.057  39.965735
2.056  39.872846
2.055  39.802298
2.054  39.703596
2.053  39.571399
2.052  39.425576
2.051  39.249632
2.050  39.095912
2.049  38.913590
2.048  38.758884
2.047  38.457721
2.046  38.229166
2.045  38.006678
2.044  37.659320
2.043  37.328322
2.042  37.030500
2.041  36.652067
2.040  36.324050
2.039  35.926005
2.038  35.506311
2.037  34.965473
2.036  34.506089
2.035  33.984562
2.034  33.530024
2.033  33.050409
2.032  32.575629
2.031  32.008371
2.030  31.538866
2.029  31.074986
2.028  30.617980
2.027  30.050453
2.026  29.627864
2.025  29.246083
2.024  28.872082
2.023  28.474183
2.022  28.087407
2.021  27.775459
2.020  27.480988
2.019  27.196240
2.018  26.967365
2.017  26.720189
2.016  26.495804
2.015  26.362240
2.014  26.213521
2.013  26.096744
2.012  26.006713
2.011  25.858220
2.010  25.799797
2.009  25.752431
2.008  25.747058
2.007  25.785556
2.006  25.796001
2.005  25.809141
2.004  25.912020
2.003  26.000781
2.002  26.098030
2.001  26.173336
2.000  26.380101
1.999  26.476960
1.998  26.719354
1.997  26.967480
1.996  27.234333
1.995  27.418119
1.994  27.717457
1.993  27.899190
1.992  28.140050
1.991  28.421870
1.990  28.742837
1.989  29.024565
1.988  29.317176
1.987  29.520792
1.986  29.745594
1.985  29.951591
1.984  30.247585
1.983  30.464266
1.982  30.643601
1.981  30.761618
1.980  31.000907
1.979  31.122123
1.978  31.217166
1.977  31.195511
1.976  31.248156
1.975  31.233357
1.974  31.307338
1.973  31.220344
1.972  31.214349
1.971  31.099348
1.970  30.928162
1.969  30.762515
1.968  30.625629
1.967  30.379184
1.966  30.142595
1.965  29.782720
1.964  29.428013
1.963  28.962454
1.962  28.423340
1.961  27.713841
1.960  26.971329
1.959  26.101151
1.958  25.280720
1.957  24.074589
1.956  23.062782
1.955  21.693003
1.954  20.445485
1.953  18.901609
1.952  17.606426
1.951  16.089304
1.950  14.826270
1.949  13.412502
1.948  12.228996
1.947  11.116824
1.946  10.269524
1.945   9.422517
1.944   8.973041
1.943   8.537456
1.942   8.320825
1.941   8.240715
1.940   8.476306
1.939   8.756920
1.938   9.267136
1.937   9.726015
1.936  10.681968
1.935  11.202356
1.934  12.192123
1.933  12.942403
1.932  13.983149
1.931  14.712461
1.930  15.799841
1.929  16.517312
1.928  17.473877
1.927  18.313674
1.926  19.053433
1.925  20.139253
1.924  20.942691
1.923  21.635199
1.922  22.479031
1.921  23.139205
1.920  23.936259
1.919  24.559954
1.918  25.289731
1.917  25.874290
1.916  26.665787
1.915  27.214162
1.914  27.888229
1.913  28.473709
1.912  29.128023
1.911  29.651379
1.910  30.299427
1.909  30.904399
1.908  31.697466
1.907  32.154763
1.906  32.856649
1.905  33.428347
1.904  34.114393
1.903  34.815446
1.902  35.600263
1.901  36.323156
1.900  37.101568
1.899  37.839821
1.898  38.704408
1.897  39.506062
1.896  40.435428
1.895  41.416893
1.894  42.323045
1.893  43.403001
1.892  44.540076
1.891  45.701019
1.890  47.063948
1.889  48.297545
1.888  49.589390
1.887  50.762586
1.886  52.051405
1.885  53.151526
1.884  54.458976
1.883  55.566882
1.882  56.562256
1.881  57.499869
1.880  58.376101
1.879  59.156194
1.878  59.928525
1.877  60.649836
1.876  61.280189
1.875  61.909365
1.874  62.556431
1.873  63.116774
1.872  63.756151
1.871  64.349079
1.870  64.900219
1.869  65.363124
1.868  65.778202
1.867  66.158813
1.866  66.504571
1.865  66.746445
1.864  67.083627
1.863  67.333035
1.862  67.589041
1.861  67.730705
1.860  67.921783
1.859  68.202268
1.858  68.411248
1.857  68.497690
1.856  68.737472
1.855  68.823804
1.854  68.990307
1.853  69.122032
1.852  69.323125
1.851  69.378503
1.850  69.392504
1.849  69.476310
1.848  69.568255
1.847  69.713163
1.846  69.746893
1.845  69.795865
1.844  69.862440
1.843  69.841623
1.842  69.824322
1.841  69.818512
1.840  69.827572
1.839  69.775680
1.838  69.654360
1.837  69.610137
1.836  69.552063
1.835  69.360219
1.834  69.193696
1.833  69.069077
1.832  68.934142
1.831  68.807118
1.830  68.621785
1.829  68.426288
1.828  68.200395
1.827  68.014930
1.826  67.892003
1.825  67.747311
1.824  67.546345
1.823  67.353319
1.822  67.262787
1.821  67.176823
1.820  67.123619
1.819  67.135942
1.818  67.106523
1.817  67.068839
1.816  67.099311
1.815  67.238802
1.814  67.368182
1.813  67.513984
1.812  67.657302
1.811  67.878197
1.810  68.085631
1.809  68.297351
1.808  68.519512
1.807  68.760076
1.806  68.927010
1.805  69.100384
1.804  69.326650
1.803  69.506692
1.802  69.723069
1.801  69.874824
1.800  69.978641
1.799  70.156337
1.798  70.278323
1.797  70.317524
1.796  70.408523
1.795  70.469392
1.794  70.512322
1.793  70.548990
1.792  70.633573
1.791  70.676068
1.790  70.653574
1.789  70.702970
1.788  70.688598
1.787  70.585970
1.786  70.536892
1.785  70.476045
1.784  70.375432
1.783  70.314331
1.782  70.211114
1.781  70.028489
1.780  69.865121
1.779  69.739993
1.778  69.551088
1.777  69.354212
1.776  69.118798
1.775  68.870006
1.774  68.635482
1.773  68.460769
1.772  68.325231
1.771  68.159751
1.770  67.967239
1.769  67.966221
1.768  67.992781
1.767  68.067067
1.766  68.241193
1.765  68.451174
1.764  68.701933
1.763  69.023483
1.762  69.366353
1.761  69.733183
1.760  69.994742
1.759  70.357582
1.758  70.699685
1.757  70.945291
1.756  71.164289
1.755  71.409955
1.754  71.593354
1.753  71.746557
1.752  71.932600
1.751  72.030198
1.750  72.065938
1.749  72.070600
1.748  72.074626
1.747  72.045291
1.746  72.017029
1.745  72.001197
1.744  71.966981
1.743  71.968742
1.742  71.868216
1.741  71.826330
1.740  71.858516
1.739  71.810563
1.738  71.805701
1.737  71.777809
1.736  71.824776
1.735  71.818103
1.734  71.910933
1.733  72.044641
1.732  72.140647
1.731  72.256203
1.730  72.417054
1.729  72.464838
1.728  72.493626
1.727  72.542103
1.726  72.605033
1.725  72.654752
1.724  72.698667
1.723  72.693710
1.722  72.654322
1.721  72.710357
1.720  72.663059
1.719  72.701405
1.718  72.647328
1.717  72.606103
1.716  72.565782
1.715  72.482170
1.714  72.479390
1.713  72.418998
1.712  72.385578
1.711  72.416252
1.710  72.408008
1.709  72.333760
1.708  72.257779
1.707  72.286781
1.706  72.238580
1.705  72.261995
1.704  72.189345
1.703  72.138296
1.702  72.120640
1.701  72.141111
1.700  72.085923
1.699  72.016542
1.698  72.026480
1.697  71.892006
1.696  71.909028
1.695  71.847445
1.694  71.868527
1.693  71.814665
1.692  71.669032
1.691  71.659721
1.690  71.663383
1.689  71.584250
1.688  71.535395
1.687  71.476070
1.686  71.478774
1.685  71.384323
1.684  71.204208
1.683  71.161920
1.682  71.054544
1.681  71.042723
1.680  70.892925
1.679  70.895515
1.678  70.767543
1.677  70.690257
1.676  70.591755
1.675  70.601795
1.674  70.538548
1.673  70.433943
1.672  70.381269
1.671  70.326330
1.670  70.200415
1.669  70.125546
1.668  70.015469
1.667  70.000257
1.666  69.776341
1.665  69.738439
1.664  69.744058
1.663  69.641423
1.662  69.484685
1.661  69.436214
1.660  69.273157
1.659  69.258089
1.658  69.147114
1.657  69.057346
1.656  69.037905
1.655  69.010143
1.654  68.823788
1.653  68.688268
1.652  68.633642
1.651  68.497930
1.650  68.405258
1.649  68.399117
1.648  68.163139
1.647  68.115456
1.646  68.045338
1.645  67.931306
1.644  67.858584
1.643  67.830708
1.642  67.728015
1.641  67.536509
1.640  67.552760
1.639  67.483736
1.638  67.312143
1.637  67.302879
1.636  67.175822
1.635  67.128197
1.634  67.087352
1.633  67.057201
1.632  67.010704
1.631  66.925411
1.630  66.834933
1.629  66.760236
1.628  66.621233
1.627  66.624610
1.626  66.481110
1.625  66.467941
1.624  66.387829
1.623  66.356513
1.622  66.267589
1.621  66.280660
1.620  66.204449
1.619  66.193323
1.618  66.074858
1.617  66.042269
1.616  65.857041
1.615  65.882731
1.614  65.800951
1.613  65.820635
1.612  65.705915
1.611  65.710388
1.610  65.701423
1.609  65.536240
1.608  65.519805
1.607  65.490629
1.606  65.462754
1.605  65.463178
1.604  65.384646
1.603  65.383030
1.602  65.323453
1.601  65.427752
1.600  65.387781
1.599  65.424962
1.598  65.468901
1.597  65.432135
1.596  65.444672
1.595  65.527018
1.594  65.530477
1.593  65.567690
1.592  65.623707
1.591  65.657975
1.590  65.751423
1.589  65.752805
1.588  65.781886
1.587  65.842076
1.586  65.838800
1.585  65.836853
1.584  65.823650
1.583  65.777833
1.582  65.846969
1.581  65.923083
1.580  65.821045
1.579  65.879949
1.578  65.888450
1.577  65.828862
1.576  65.802474
1.575  65.764632
1.574  65.713915
1.573  65.667548
1.572  65.632175
1.571  65.627951
1.570  65.541832
1.569  65.466028
1.568  65.456521
1.567  65.399412
1.566  65.349650
1.565  65.361695
1.564  65.301292
1.563  65.259053
1.562  65.243035
1.561  65.254021
1.560  65.286114
1.559  65.277702
1.558  65.306520
1.557  65.327502
1.556  65.391116
1.555  65.437184
1.554  65.515540
1.553  65.598463
1.552  65.633592
1.551  65.729431
1.550  65.811460
1.549  65.900922
1.548  65.997516
1.547  66.116265
1.546  66.196577
1.545  66.325087
1.544  66.413521
1.543  66.434356
1.542  66.484003
1.541  66.560905
1.540  66.622351
1.539  66.691406
1.538  66.675296
1.537  66.730573
1.536  66.700002
1.535  66.757860
1.534  66.824430
1.533  66.891264
1.532  66.872660
1.531  66.877594
1.530  66.894371
1.529  66.850791
1.528  66.795510
1.527  66.808493
1.526  66.766636
1.525  66.710443
1.524  66.617962
1.523  66.626477
1.522  66.615291
1.521  66.543266
1.520  66.428057
1.519  66.382571
1.518  66.268857
1.517  66.164419
1.516  66.153953
1.515  66.080718
1.514  65.980249
1.513  65.894354
1.512  65.741666
1.511  65.614006
1.510  65.550868
1.509  65.373187
1.508  65.131926
1.507  64.936884
1.506  64.770123
1.505  64.559448
1.504  64.273878
1.503  63.965098
1.502  63.655442
1.501  63.281690
1.500  62.887378
1.499  62.489397
1.498  62.061143
1.497  61.518962
1.496  60.900092
1.495  60.264246
1.494  59.646444
1.493  59.025328
1.492  58.496578
1.491  58.039604
1.490  57.669046
1.489  57.517282
1.488  57.531058
1.487  57.693059
1.486  58.037057
1.485  58.454925
1.484  58.946660
1.483  59.316057
1.482  59.706165
1.481  60.002217
1.480  60.193505
1.479  60.349263
1.478  60.384883
1.477  60.331341
1.476  60.205464
1.475  59.999551
1.474  59.769005
1.473  59.390025
1.472  58.928839
1.471  58.399155
1.470  57.773919
1.469  57.076272
1.468  56.304400
1.467  55.441348
1.466  54.483757
1.465  53.397265
1.464  52.350885
1.463  51.364708
1.462  50.401018
1.461  49.540760
1.460  48.910505
1.459  48.347339
1.458  48.163211
1.457  48.197497
1.456  48.401364
1.455  48.780695
1.454  49.371937
1.453  50.037775
1.452  50.735522
1.451  51.497291
1.450  52.325644
1.449  53.094702
1.448  53.871791
1.447  54.520950
1.446  55.075568
1.445  55.550141
1.444  55.838597
1.443  56.127526
1.442  56.254198
1.441  56.307233
1.440  56.414104
1.439  56.530901
1.438  56.540786
1.437  56.567091
1.436  56.719717
1.435  56.858921
1.434  57.091192
1.433  57.307770
1.432  57.504162
1.431  57.745558
1.430  58.017873
1.429  58.245935
1.428  58.571305
1.427  58.818982
1.426  59.202051
1.425  59.529068
1.424  60.056531
1.423  60.428871
1.422  60.905060
1.421  61.463924
1.420  61.917816
1.419  62.429927
