Name: Sodalite Na_8Al_6Si_6O_24Cl_2
Type: Mineral
Class: Silicates
Subclass: Tectosilicates
Particle Size: 0-45um
Sample No.: TS-10A
Owner: JPL
Wavelength range: VNIR-SWIR
Origin: Canada, Ontario, Hastings County, Bancroft.
Collected by:  JPL
Description:




 
Measurement: Hemispherical reflectance
First Column: X
Second Column: Y
X Units: Wavelength (micrometers)
Y Units: Reflectance (percent)
First X Value: 2.500
Last X Value: 0.400
Number of X Values: 2101
Additional information: ts10aa.txt

2.500  72.076891
2.499  72.015287
2.498  72.223493
2.497  72.276614
2.496  72.071781
2.495  72.230643
2.494  72.189142
2.493  72.513328
2.492  72.560744
2.491  72.275780
2.490  72.472078
2.489  72.318043
2.488  72.423934
2.487  72.652776
2.486  72.650046
2.485  72.832087
2.484  72.701387
2.483  72.897685
2.482  72.904434
2.481  72.891303
2.480  73.081127
2.479  72.931481
2.478  73.035142
2.477  73.189725
2.476  73.252275
2.475  73.061694
2.474  73.302846
2.473  73.424666
2.472  73.440686
2.471  73.321959
2.470  73.727242
2.469  73.823947
2.468  73.837452
2.467  73.883424
2.466  73.770406
2.465  74.062225
2.464  74.020680
2.463  73.973209
2.462  74.184799
2.461  74.400410
2.460  74.311108
2.459  74.298303
2.458  74.438913
2.457  74.639315
2.456  74.605476
2.455  74.674019
2.454  74.686005
2.453  74.740371
2.452  74.803725
2.451  74.847433
2.450  74.900380
2.449  74.841612
2.448  74.769313
2.447  74.815537
2.446  74.950899
2.445  75.086369
2.444  75.060811
2.443  75.169105
2.442  75.088504
2.441  75.165818
2.440  75.167412
2.439  75.188364
2.438  75.179171
2.437  75.360796
2.436  75.424175
2.435  75.476058
2.434  75.525866
2.433  75.456921
2.432  75.417618
2.431  75.586674
2.430  75.492578
2.429  75.442467
2.428  75.545749
2.427  75.664232
2.426  75.728340
2.425  75.839985
2.424  75.753648
2.423  75.734270
2.422  75.747790
2.421  75.922466
2.420  75.988031
2.419  75.985080
2.418  76.024106
2.417  76.097052
2.416  76.025547
2.415  76.069134
2.414  76.108532
2.413  76.174922
2.412  76.214087
2.411  76.207620
2.410  76.222691
2.409  76.275306
2.408  76.198863
2.407  76.246831
2.406  76.316720
2.405  76.240188
2.404  76.349241
2.403  76.483313
2.402  76.370590
2.401  76.371732
2.400  76.434327
2.399  76.462980
2.398  76.433454
2.397  76.495807
2.396  76.488965
2.395  76.518279
2.394  76.529518
2.393  76.607839
2.392  76.548388
2.391  76.561489
2.390  76.645066
2.389  76.677234
2.388  76.629272
2.387  76.655105
2.386  76.734444
2.385  76.767368
2.384  76.692508
2.383  76.631785
2.382  76.686044
2.381  76.680970
2.380  76.693902
2.379  76.756635
2.378  76.674952
2.377  76.600793
2.376  76.706380
2.375  76.769262
2.374  76.670976
2.373  76.666993
2.372  76.749815
2.371  76.710423
2.370  76.702542
2.369  76.734336
2.368  76.664966
2.367  76.642687
2.366  76.726765
2.365  76.681656
2.364  76.614071
2.363  76.591511
2.362  76.578052
2.361  76.669694
2.360  76.644927
2.359  76.507731
2.358  76.507220
2.357  76.495950
2.356  76.463963
2.355  76.448489
2.354  76.429433
2.353  76.392004
2.352  76.345879
2.351  76.285191
2.350  76.312328
2.349  76.285252
2.348  76.202609
2.347  76.192082
2.346  76.106651
2.345  75.998085
2.344  76.037248
2.343  76.070842
2.342  76.065231
2.341  76.003310
2.340  75.968769
2.339  75.955093
2.338  75.898236
2.337  75.913977
2.336  75.989359
2.335  75.930689
2.334  75.901456
2.333  75.959264
2.332  75.989157
2.331  76.032270
2.330  76.028338
2.329  75.988255
2.328  75.960467
2.327  75.939538
2.326  76.014797
2.325  76.049985
2.324  76.051533
2.323  76.101472
2.322  76.213444
2.321  76.224663
2.320  76.168049
2.319  76.218958
2.318  76.298019
2.317  76.255305
2.316  76.262526
2.315  76.328247
2.314  76.384212
2.313  76.392768
2.312  76.425136
2.311  76.467199
2.310  76.441686
2.309  76.433326
2.308  76.468312
2.307  76.556086
2.306  76.615607
2.305  76.657586
2.304  76.594656
2.303  76.589304
2.302  76.585678
2.301  76.675354
2.300  76.672405
2.299  76.656210
2.298  76.644678
2.297  76.689697
2.296  76.753568
2.295  76.814203
2.294  76.804238
2.293  76.768784
2.292  76.827865
2.291  76.970272
2.290  76.872815
2.289  76.855478
2.288  76.917677
2.287  76.965823
2.286  76.998171
2.285  77.001987
2.284  76.973116
2.283  77.052728
2.282  77.039701
2.281  77.086099
2.280  77.075630
2.279  77.094381
2.278  77.121145
2.277  77.169213
2.276  77.168721
2.275  77.167213
2.274  77.130108
2.273  77.216816
2.272  77.236865
2.271  77.236151
2.270  77.219585
2.269  77.272057
2.268  77.295552
2.267  77.260404
2.266  77.331765
2.265  77.321648
2.264  77.293631
2.263  77.360060
2.262  77.366168
2.261  77.397717
2.260  77.378838
2.259  77.355176
2.258  77.482372
2.257  77.470819
2.256  77.472706
2.255  77.478846
2.254  77.576469
2.253  77.582199
2.252  77.586248
2.251  77.645052
2.250  77.730866
2.249  77.600347
2.248  77.550163
2.247  77.626602
2.246  77.783360
2.245  77.671309
2.244  77.627351
2.243  77.625196
2.242  77.778633
2.241  77.749730
2.240  77.801894
2.239  77.878523
2.238  77.916916
2.237  77.810152
2.236  77.861859
2.235  77.862364
2.234  77.994803
2.233  77.978233
2.232  77.989213
2.231  77.922292
2.230  78.094225
2.229  78.024607
2.228  78.064139
2.227  78.054916
2.226  78.144684
2.225  78.114029
2.224  78.138872
2.223  78.183850
2.222  78.192552
2.221  78.142235
2.220  78.188520
2.219  78.158050
2.218  78.260562
2.217  78.262864
2.216  78.234412
2.215  78.232092
2.214  78.385052
2.213  78.305012
2.212  78.371923
2.211  78.266689
2.210  78.388388
2.209  78.298302
2.208  78.402832
2.207  78.419912
2.206  78.490105
2.205  78.359344
2.204  78.516483
2.203  78.549634
2.202  78.636056
2.201  78.544281
2.200  78.605136
2.199  78.651840
2.198  78.610871
2.197  78.628130
2.196  78.701420
2.195  78.794971
2.194  78.651557
2.193  78.668301
2.192  78.768450
2.191  78.744127
2.190  78.768716
2.189  78.711567
2.188  78.769560
2.187  78.842539
2.186  78.811342
2.185  78.843644
2.184  78.863385
2.183  78.862270
2.182  78.808875
2.181  78.897391
2.180  78.949635
2.179  79.005669
2.178  78.997733
2.177  79.113138
2.176  79.159630
2.175  79.106363
2.174  79.099069
2.173  79.155617
2.172  79.259901
2.171  79.280493
2.170  79.188129
2.169  79.320760
2.168  79.279743
2.167  79.296862
2.166  79.355065
2.165  79.340909
2.164  79.364158
2.163  79.317531
2.162  79.404090
2.161  79.455022
2.160  79.439987
2.159  79.414341
2.158  79.501537
2.157  79.534435
2.156  79.632696
2.155  79.606166
2.154  79.592879
2.153  79.629662
2.152  79.605554
2.151  79.711478
2.150  79.642961
2.149  79.610160
2.148  79.672438
2.147  79.669131
2.146  79.667844
2.145  79.635572
2.144  79.721289
2.143  79.646239
2.142  79.679127
2.141  79.652812
2.140  79.678460
2.139  79.628245
2.138  79.607736
2.137  79.655030
2.136  79.599038
2.135  79.602509
2.134  79.636235
2.133  79.545320
2.132  79.544877
2.131  79.528967
2.130  79.487762
2.129  79.474131
2.128  79.492498
2.127  79.432209
2.126  79.433527
2.125  79.387690
2.124  79.346562
2.123  79.317612
2.122  79.273155
2.121  79.212921
2.120  79.195685
2.119  79.231105
2.118  79.178736
2.117  79.102025
2.116  79.039281
2.115  79.038175
2.114  78.999167
2.113  78.835999
2.112  78.853185
2.111  78.957002
2.110  78.914259
2.109  78.840325
2.108  78.827944
2.107  78.746843
2.106  78.706782
2.105  78.713471
2.104  78.670920
2.103  78.595541
2.102  78.638547
2.101  78.642880
2.100  78.568114
2.099  78.487508
2.098  78.525067
2.097  78.539455
2.096  78.525775
2.095  78.590965
2.094  78.621944
2.093  78.575346
2.092  78.585659
2.091  78.656757
2.090  78.602613
2.089  78.615960
2.088  78.687127
2.087  78.738414
2.086  78.753599
2.085  78.697043
2.084  78.680800
2.083  78.723597
2.082  78.708155
2.081  78.717620
2.080  78.761146
2.079  78.740702
2.078  78.716257
2.077  78.746299
2.076  78.759088
2.075  78.742474
2.074  78.769691
2.073  78.822268
2.072  78.829665
2.071  78.804558
2.070  78.815733
2.069  78.821597
2.068  78.844601
2.067  78.851111
2.066  78.868483
2.065  78.847987
2.064  78.779511
2.063  78.825124
2.062  78.913738
2.061  78.916399
2.060  78.881017
2.059  78.860280
2.058  78.898749
2.057  78.956816
2.056  78.936811
2.055  78.920033
2.054  78.955239
2.053  78.939386
2.052  78.923287
2.051  78.930115
2.050  78.946997
2.049  78.929691
2.048  78.901505
2.047  78.970419
2.046  79.007389
2.045  79.010555
2.044  78.938935
2.043  78.969387
2.042  78.992790
2.041  79.083443
2.040  79.033131
2.039  79.039207
2.038  79.107251
2.037  79.065620
2.036  79.065598
2.035  79.071652
2.034  78.994667
2.033  79.042053
2.032  79.039324
2.031  78.983028
2.030  78.937520
2.029  78.957760
2.028  78.937501
2.027  78.965825
2.026  78.994431
2.025  78.947990
2.024  78.975755
2.023  79.060440
2.022  78.958469
2.021  78.956024
2.020  78.981942
2.019  78.978353
2.018  78.877482
2.017  78.916071
2.016  78.907577
2.015  78.900523
2.014  78.894669
2.013  78.859701
2.012  78.824662
2.011  78.835307
2.010  78.855353
2.009  78.855675
2.008  78.872093
2.007  78.841048
2.006  78.816220
2.005  78.835565
2.004  78.755090
2.003  78.735021
2.002  78.644697
2.001  78.689694
2.000  78.782726
1.999  78.732474
1.998  78.650734
1.997  78.718298
1.996  78.614321
1.995  78.568025
1.994  78.498195
1.993  78.547590
1.992  78.494238
1.991  78.517307
1.990  78.488212
1.989  78.473410
1.988  78.342606
1.987  78.323081
1.986  78.342736
1.985  78.443922
1.984  78.305006
1.983  78.309645
1.982  78.286708
1.981  78.376809
1.980  78.251497
1.979  78.237594
1.978  78.232070
1.977  78.244109
1.976  78.263779
1.975  78.254458
1.974  78.217348
1.973  78.124317
1.972  78.073722
1.971  78.132464
1.970  78.180725
1.969  78.088083
1.968  78.034659
1.967  78.056348
1.966  78.062559
1.965  78.008360
1.964  78.021003
1.963  78.003703
1.962  77.997056
1.961  77.997857
1.960  77.990131
1.959  77.950838
1.958  77.992133
1.957  77.918320
1.956  77.912176
1.955  77.951805
1.954  77.851168
1.953  77.853663
1.952  77.908616
1.951  77.897641
1.950  77.763975
1.949  77.852855
1.948  77.812584
1.947  77.861614
1.946  77.816290
1.945  77.839786
1.944  77.781734
1.943  77.738103
1.942  77.771481
1.941  77.785219
1.940  77.706764
1.939  77.755806
1.938  77.682207
1.937  77.687080
1.936  77.744189
1.935  77.744192
1.934  77.688084
1.933  77.731269
1.932  77.688672
1.931  77.690179
1.930  77.780865
1.929  77.718165
1.928  77.760533
1.927  77.789088
1.926  77.608322
1.925  77.680421
1.924  77.663114
1.923  77.705991
1.922  77.626015
1.921  77.738844
1.920  77.634931
1.919  77.748555
1.918  77.763824
1.917  77.634668
1.916  77.747585
1.915  77.792685
1.914  77.763944
1.913  77.883538
1.912  77.839822
1.911  77.859493
1.910  77.856291
1.909  78.050664
1.908  78.116166
1.907  78.124736
1.906  78.103671
1.905  78.267729
1.904  78.334930
1.903  78.539788
1.902  78.487549
1.901  78.520980
1.900  78.590530
1.899  78.725634
1.898  78.678863
1.897  78.836107
1.896  78.880496
1.895  79.003464
1.894  79.085900
1.893  79.102495
1.892  79.094165
1.891  79.167472
1.890  79.156097
1.889  79.277208
1.888  79.263844
1.887  79.305901
1.886  79.292629
1.885  79.476342
1.884  79.452410
1.883  79.463237
1.882  79.411495
1.881  79.465947
1.880  79.569724
1.879  79.567514
1.878  79.558279
1.877  79.519411
1.876  79.509374
1.875  79.595186
1.874  79.644994
1.873  79.582095
1.872  79.501831
1.871  79.532937
1.870  79.533507
1.869  79.598341
1.868  79.598987
1.867  79.638414
1.866  79.679720
1.865  79.677238
1.864  79.674506
1.863  79.753539
1.862  79.738725
1.861  79.763424
1.860  79.760100
1.859  79.830783
1.858  79.817922
1.857  79.797440
1.856  79.806075
1.855  79.730665
1.854  79.799835
1.853  79.891010
1.852  79.848806
1.851  79.830783
1.850  79.774002
1.849  79.778076
1.848  79.820761
1.847  79.786712
1.846  79.826330
1.845  79.829835
1.844  79.863675
1.843  79.844247
1.842  79.822141
1.841  79.871591
1.840  79.841755
1.839  79.847025
1.838  79.842272
1.837  79.847458
1.836  79.790038
1.835  79.804327
1.834  79.743911
1.833  79.852889
1.832  79.888270
1.831  79.832099
1.830  79.766753
1.829  79.878344
1.828  79.793967
1.827  79.812724
1.826  79.828920
1.825  79.858333
1.824  79.838013
1.823  79.811591
1.822  79.834990
1.821  79.835655
1.820  79.804023
1.819  79.793292
1.818  79.807426
1.817  79.869672
1.816  79.863793
1.815  79.860594
1.814  79.815169
1.813  79.770470
1.812  79.841621
1.811  79.849314
1.810  79.819505
1.809  79.808206
1.808  79.857263
1.807  79.854215
1.806  79.852136
1.805  79.887962
1.804  79.864212
1.803  79.795777
1.802  79.788233
1.801  79.834296
1.800  79.824968
1.799  79.851580
1.798  79.841027
1.797  79.782125
1.796  79.791383
1.795  79.778294
1.794  79.768622
1.793  79.760072
1.792  79.742134
1.791  79.756284
1.790  79.766985
1.789  79.719247
1.788  79.703738
1.787  79.753156
1.786  79.810169
1.785  79.815283
1.784  79.762693
1.783  79.718458
1.782  79.711297
1.781  79.725634
1.780  79.720423
1.779  79.731729
1.778  79.752180
1.777  79.704292
1.776  79.728349
1.775  79.743122
1.774  79.692924
1.773  79.651798
1.772  79.672172
1.771  79.608195
1.770  79.563419
1.769  79.558557
1.768  79.609183
1.767  79.570515
1.766  79.571622
1.765  79.635947
1.764  79.632194
1.763  79.632798
1.762  79.634145
1.761  79.654807
1.760  79.642439
1.759  79.612910
1.758  79.607924
1.757  79.592548
1.756  79.581974
1.755  79.575994
1.754  79.590461
1.753  79.564961
1.752  79.553337
1.751  79.583365
1.750  79.585647
1.749  79.585349
1.748  79.643260
1.747  79.591113
1.746  79.569231
1.745  79.626821
1.744  79.621710
1.743  79.629988
1.742  79.615756
1.741  79.592008
1.740  79.593181
1.739  79.545524
1.738  79.566524
1.737  79.628661
1.736  79.580876
1.735  79.590214
1.734  79.614967
1.733  79.592074
1.732  79.577339
1.731  79.567178
1.730  79.616133
1.729  79.615833
1.728  79.626750
1.727  79.650101
1.726  79.580067
1.725  79.601054
1.724  79.620046
1.723  79.638837
1.722  79.597025
1.721  79.591778
1.720  79.549987
1.719  79.505086
1.718  79.611165
1.717  79.589734
1.716  79.576030
1.715  79.582080
1.714  79.561524
1.713  79.567078
1.712  79.562692
1.711  79.537781
1.710  79.530582
1.709  79.501215
1.708  79.539283
1.707  79.501567
1.706  79.473877
1.705  79.445285
1.704  79.456767
1.703  79.461056
1.702  79.503592
1.701  79.466807
1.700  79.523016
1.699  79.460408
1.698  79.457737
1.697  79.432281
1.696  79.417326
1.695  79.331234
1.694  79.340758
1.693  79.386357
1.692  79.494822
1.691  79.364908
1.690  79.367277
1.689  79.386842
1.688  79.428012
1.687  79.377965
1.686  79.403324
1.685  79.259259
1.684  79.281740
1.683  79.295622
1.682  79.366890
1.681  79.305305
1.680  79.383308
1.679  79.235422
1.678  79.282476
1.677  79.273830
1.676  79.233508
1.675  79.289891
1.674  79.249301
1.673  79.298019
1.672  79.353554
1.671  79.274460
1.670  79.288149
1.669  79.406492
1.668  79.298919
1.667  79.218080
1.666  79.160397
1.665  79.196699
1.664  79.191339
1.663  79.118831
1.662  79.190554
1.661  79.189289
1.660  79.147979
1.659  79.263236
1.658  79.127447
1.657  79.141400
1.656  79.206890
1.655  79.137028
1.654  79.141413
1.653  79.112195
1.652  79.159176
1.651  79.166480
1.650  79.038312
1.649  79.140525
1.648  79.241111
1.647  79.074919
1.646  79.143717
1.645  79.116364
1.644  79.177193
1.643  79.060569
1.642  79.102649
1.641  79.015752
1.640  79.087188
1.639  79.009688
1.638  79.042455
1.637  79.040894
1.636  79.010610
1.635  79.079707
1.634  79.140091
1.633  78.958666
1.632  79.017114
1.631  79.066223
1.630  78.993762
1.629  78.985441
1.628  79.081083
1.627  79.010391
1.626  79.008430
1.625  79.021217
1.624  79.046407
1.623  78.939434
1.622  78.922662
1.621  78.949889
1.620  78.887609
1.619  78.886584
1.618  78.970241
1.617  78.947451
1.616  78.957357
1.615  78.946902
1.614  78.931786
1.613  78.901290
1.612  79.002919
1.611  78.836560
1.610  78.875957
1.609  78.899923
1.608  78.818903
1.607  78.800094
1.606  78.848645
1.605  78.833514
1.604  78.940082
1.603  78.856976
1.602  78.944537
1.601  78.819657
1.600  78.846752
1.599  78.857731
1.598  78.815630
1.597  78.821066
1.596  78.829565
1.595  78.889732
1.594  78.794662
1.593  78.758198
1.592  78.740524
1.591  78.733336
1.590  78.780979
1.589  78.680183
1.588  78.771376
1.587  78.823131
1.586  78.696551
1.585  78.792738
1.584  78.693716
1.583  78.609952
1.582  78.645623
1.581  78.711777
1.580  78.694610
1.579  78.596641
1.578  78.604711
1.577  78.632656
1.576  78.621423
1.575  78.570799
1.574  78.615057
1.573  78.592717
1.572  78.602364
1.571  78.556496
1.570  78.616769
1.569  78.520738
1.568  78.512418
1.567  78.572360
1.566  78.573426
1.565  78.496099
1.564  78.466448
1.563  78.506345
1.562  78.535559
1.561  78.511885
1.560  78.493271
1.559  78.657931
1.558  78.974193
1.557  78.456783
1.556  78.407957
1.555  78.423297
1.554  78.404529
1.553  78.430241
1.552  78.361281
1.551  78.395061
1.550  78.397689
1.549  78.359769
1.548  78.346447
1.547  78.427779
1.546  78.409340
1.545  78.365591
1.544  78.339891
1.543  78.326401
1.542  78.337504
1.541  78.275300
1.540  78.240333
1.539  78.244004
1.538  78.269251
1.537  78.297866
1.536  78.259255
1.535  78.235686
1.534  78.229526
1.533  78.275305
1.532  78.293378
1.531  78.247022
1.530  78.255625
1.529  78.251650
1.528  78.259012
1.527  78.175451
1.526  78.216308
1.525  78.216787
1.524  78.127527
1.523  78.074527
1.522  78.110676
1.521  78.127408
1.520  78.098569
1.519  78.087174
1.518  78.147330
1.517  78.161247
1.516  78.140358
1.515  78.067808
1.514  78.008940
1.513  78.017673
1.512  78.076995
1.511  78.033523
1.510  78.031486
1.509  78.063302
1.508  78.034830
1.507  77.984299
1.506  78.012611
1.505  78.031341
1.504  77.952966
1.503  77.953831
1.502  77.930426
1.501  77.902455
1.500  77.904641
1.499  77.849666
1.498  77.861684
1.497  77.848068
1.496  77.863084
1.495  77.915184
1.494  77.903670
1.493  77.853615
1.492  77.822391
1.491  77.832972
1.490  77.818979
1.489  77.808247
1.488  77.796431
1.487  77.759545
1.486  77.748664
1.485  77.781214
1.484  77.795145
1.483  77.808730
1.482  77.838595
1.481  77.792987
1.480  77.761561
1.479  77.731090
1.478  77.676123
1.477  77.687950
1.476  77.680034
1.475  77.706154
1.474  77.678364
1.473  77.659093
1.472  77.665053
1.471  77.646304
1.470  77.636932
1.469  77.659373
1.468  77.655311
1.467  77.641203
1.466  77.596014
1.465  77.575752
1.464  77.594647
1.463  77.618385
1.462  77.552348
1.461  77.543241
1.460  77.553257
1.459  77.523297
1.458  77.556747
1.457  77.492987
1.456  77.517336
1.455  77.568085
1.454  77.404000
1.453  77.418501
1.452  77.401524
1.451  77.463224
1.450  77.481712
1.449  77.443139
1.448  77.406706
1.447  77.440322
1.446  77.374329
1.445  77.346214
1.444  77.314891
1.443  77.315343
1.442  77.335936
1.441  77.336604
1.440  77.350690
1.439  77.309703
1.438  77.277337
1.437  77.342218
1.436  77.337715
1.435  77.354939
1.434  77.310138
1.433  77.282094
1.432  77.260146
1.431  77.327817
1.430  77.312865
1.429  77.255359
1.428  77.282481
1.427  77.335143
1.426  77.238775
1.425  77.300397
1.424  77.317706
1.423  77.286411
1.422  77.278598
1.421  77.312633
1.420  77.262776
