Name: Magnesite MgCO_3
Type: Mineral
Class: Carbonates
Subclass: 
Particle Size: 0-45um
Sample No.: C-6A
Owner: JPL
Wavelength range: IR
Origin: USA, California, Riverside County
Collected by Ward's
Description: 





Measurement: Hemispherical reflectance
First Column: X
Second Column: Y
X Units:  Wavelength (micrometers)
Y Units:  Reflectance (percent)
First X Value: 15.3853
Last X Value: 2.00032
Number of X Values: 2256
Additional information: c06aa.txt
 
15.3853	2.00624
15.3397	1.92093
15.2945	2.13829
15.2495	2.47598
15.2048	2.43346
15.1603	2.30669
15.1161	2.46691
15.0722	2.50141
15.0285	2.60542
14.9851	2.82949
14.9419	2.74046
14.8989	2.91603
14.8563	3.4097
14.8138	3.35433
14.7716	3.26468
14.7296	3.51026
14.6879	3.55452
14.6464	3.41595
14.6052	3.34456
14.5641	3.28274
14.5233	3.33782
14.4828	3.40832
14.4424	3.3569
14.4023	3.35337
14.3624	3.3967
14.3227	3.61543
14.2833	3.85498
14.244	4.00971
14.205	4.16012
14.1662	4.46575
14.1276	4.56856
14.0892	4.50319
14.051	4.57341
14.0131	4.69053
13.9753	4.93432
13.9377	4.98284
13.9004	4.82952
13.8632	4.71336
13.8262	4.82001
13.7895	4.93206
13.7529	4.67017
13.7165	4.50813
13.6803	4.51543
13.6443	4.57376
13.6085	4.53111
13.5729	4.2232
13.5374	3.73349
13.5022	3.32644
13.4671	2.90716
13.4322	2.235
13.3975	1.70334
13.363	1.41994
13.3286	1.07627
13.2944	0.801656
13.2604	0.933897
13.2266	1.23412
13.193	1.77037
13.1595	2.65674
13.1262	3.46452
13.093	4.18815
13.06	4.8442
13.0272	5.4173
12.9946	5.80524
12.9621	6.02671
12.9298	6.1986
12.8976	6.45561
12.8656	6.69527
12.8337	6.95129
12.8021	7.05684
12.7705	7.29384
12.7391	7.58621
12.7079	7.59815
12.6769	7.67739
12.6459	7.87105
12.6152	7.9629
12.5845	8.1959
12.5541	8.5106
12.5238	8.7004
12.4936	8.88457
12.4635	9.1587
12.4337	9.59816
12.4039	9.9941
12.3743	10.1735
12.3448	10.2987
12.3155	10.3966
12.2863	10.5694
12.2573	10.728
12.2284	10.9263
12.1996	11.0554
12.171	11.1703
12.1425	11.3447
12.1141	11.4278
12.0859	11.4938
12.0578	11.6583
12.0298	11.8474
12.0019	11.9073
11.9742	11.9858
11.9466	12.1227
11.9192	12.3061
11.8918	12.4256
11.8646	12.4652
11.8375	12.5523
11.8106	12.4196
11.7837	12.368
11.757	12.3379
11.7304	11.6415
11.7039	9.02221
11.6776	7.33383
11.6513	9.74385
11.6252	11.8074
11.5992	12.135
11.5733	12.1171
11.5475	12.0199
11.5219	11.7506
11.4963	10.9392
11.4709	9.57166
11.4455	7.75793
11.4203	6.09126
11.3952	5.13784
11.3702	4.65155
11.3454	4.36866
11.3206	4.10246
11.2959	3.90631
11.2714	3.74934
11.2469	3.72489
11.2226	3.5879
11.1983	3.58962
11.1742	3.87867
11.1502	4.40747
11.1263	5.31475
11.1024	6.80075
11.0787	8.79354
11.0551	10.9408
11.0316	12.5166
11.0081	13.3056
10.9848	13.4028
10.9616	13.2305
10.9385	13.0556
10.9154	12.7507
10.8925	12.3573
10.8697	12.0213
10.8469	11.7262
10.8243	11.5364
10.8017	11.4032
10.7793	11.1091
10.7569	10.7705
10.7346	10.5673
10.7125	10.3678
10.6904	10.1527
10.6684	9.75652
10.6465	9.40321
10.6247	9.22126
10.6029	8.96853
10.5813	8.69351
10.5597	8.38606
10.5383	8.10746
10.5169	7.80038
10.4956	7.44118
10.4744	7.05289
10.4533	6.60561
10.4323	6.19734
10.4113	5.97643
10.3904	5.69066
10.3697	5.43808
10.349	5.28535
10.3284	5.00316
10.3078	4.7061
10.2874	4.66778
10.267	4.7111
10.2467	4.40581
10.2265	4.18266
10.2064	4.19276
10.1863	4.11586
10.1663	4.07448
10.1464	4.09854
10.1266	4.16157
10.1069	4.18015
10.0872	4.27029
10.0676	4.31602
10.0481	4.3457
10.0287	4.27098
10.0093	4.11032
9.99005	4.04974
9.97084	4.16822
9.95169	4.11797
9.93263	3.9068
9.91364	3.79403
9.89472	3.71664
9.87587	3.60633
9.8571	3.49736
9.83839	3.46218
9.81976	3.62092
9.80119	3.84286
9.78271	3.75346
9.76428	3.66834
9.74592	3.74436
9.72764	3.91973
9.70943	3.99824
9.69128	4.10719
9.6732	4.23094
9.65518	4.37142
9.63724	4.54084
9.61935	4.68238
9.60155	4.81197
9.5838	4.94092
9.56611	5.09574
9.5485	5.31224
9.53094	5.36195
9.51345	5.52745
9.49604	5.76738
9.47867	5.90228
9.46137	5.92077
9.44414	5.93371
9.42697	5.98735
9.40986	6.08705
9.39281	6.25906
9.37583	6.38463
9.35891	6.30313
9.34204	6.19226
9.32524	6.22553
9.3085	6.26284
9.29182	6.31619
9.27519	6.36444
9.25863	6.35403
9.24213	6.281
9.22568	6.39484
9.2093	6.68043
9.19297	6.88852
9.17669	7.04304
9.16048	7.29516
9.14433	7.55837
9.12823	7.89104
9.11218	8.0427
9.0962	8.0743
9.08027	8.23891
9.06439	8.54452
9.04858	8.84436
9.03281	8.94816
9.0171	9.0865
9.00145	9.47713
8.98585	9.88977
8.9703	10.3301
8.9548	10.7527
8.93937	11.0605
8.92398	11.3419
8.90865	11.7155
8.89337	12.088
8.87814	12.4178
8.86296	12.6056
8.84784	12.799
8.83277	13.0388
8.81774	13.3975
8.80277	13.6865
8.78786	13.9609
8.77298	14.36
8.75816	14.6329
8.7434	15.0313
8.72868	15.4019
8.714	15.7007
8.69938	16.0281
8.68481	16.2438
8.67029	16.4162
8.65581	16.6403
8.64139	16.8819
8.62701	17.1653
8.61268	17.3976
8.5984	17.4607
8.58416	17.6028
8.56997	17.8461
8.55583	17.9231
8.54174	17.9328
8.52769	17.8498
8.51368	17.6636
8.49973	17.4917
8.48582	17.3711
8.47195	17.3241
8.45813	17.2299
8.44436	17.1211
8.43062	17.0871
8.41693	16.9528
8.4033	17.0015
8.3897	17.2299
8.37614	17.2752
8.36264	17.2326
8.34917	17.3025
8.33574	17.4602
8.32236	17.6153
8.30903	17.5371
8.29573	17.4934
8.28248	17.5625
8.26927	17.6644
8.2561	17.8767
8.24298	17.9715
8.2299	17.9497
8.21685	17.9862
8.20385	17.9624
8.19089	17.6689
8.17797	17.3575
8.16509	17.2701
8.15225	17.5047
8.13946	17.9133
8.1267	18.3339
8.11398	18.6367
8.10131	18.779
8.08867	18.8019
8.07606	18.7159
8.0635	18.6361
8.05099	18.6226
8.0385	18.6237
8.02606	18.7961
8.01366	19.0734
8.00129	19.3972
7.98896	19.9162
7.97667	20.512
7.96442	21.0463
7.9522	21.5335
7.94002	22.053
7.92788	22.7262
7.91578	23.3941
7.90371	24.0457
7.89168	24.6546
7.87969	25.1457
7.86773	25.5155
7.85581	25.8603
7.84392	26.1527
7.83207	26.3681
7.82026	26.6
7.80849	26.7512
7.79674	26.8607
7.78503	26.9703
7.77337	27.0965
7.76173	27.2463
7.75012	27.2575
7.73856	27.179
7.72703	27.2006
7.71553	27.1777
7.70406	27.0366
7.69263	26.9052
7.68123	26.8539
7.66987	26.8517
7.65855	26.8007
7.64725	26.6257
7.63598	26.4659
7.62475	26.406
7.61356	26.3418
7.60239	26.2564
7.59126	26.1686
7.58017	25.96
7.5691	25.7352
7.55806	25.5808
7.54707	25.5031
7.5361	25.3865
7.52516	25.202
7.51425	25.0549
7.50338	24.9577
7.49253	24.7606
7.48172	24.4984
7.47094	24.2261
7.46019	23.8815
7.44947	23.4937
7.43879	23.0836
7.42813	22.6862
7.4175	22.3744
7.4069	22.0424
7.39634	21.7616
7.3858	21.4953
7.37529	21.2292
7.36482	21.0757
7.35437	20.9608
7.34396	20.6705
7.33357	20.2583
7.32321	19.7921
7.31288	19.4297
7.30258	19.0696
7.29231	18.6679
7.28207	18.2544
7.27185	17.8065
7.26167	17.3494
7.25152	16.8884
7.24139	16.225
7.23129	15.4252
7.22122	14.5522
7.21117	13.6833
7.20116	12.8541
7.19117	12.1013
7.18121	11.4084
7.17128	10.7602
7.16137	10.2345
7.1515	9.77678
7.14164	9.22008
7.13182	8.61041
7.12203	7.98033
7.11225	7.49006
7.10251	7.04518
7.0928	6.62213
7.08311	6.35608
7.07344	6.14909
7.06381	5.99203
7.0542	5.89167
7.04461	5.88005
7.03506	6.10238
7.02552	6.51212
7.01601	6.87681
7.00653	7.19025
6.99708	7.31639
6.98765	7.19098
6.97824	7.04346
6.96886	6.86256
6.95951	6.71895
6.95018	6.50684
6.94087	6.2376
6.9316	6.05553
6.92234	5.97729
6.91311	5.8085
6.90391	5.68459
6.89473	5.53103
6.88557	5.4164
6.87644	5.43352
6.86733	5.50488
6.85824	5.40091
6.84918	5.23931
6.84015	5.19437
6.83114	5.13883
6.82215	5.02453
6.81319	4.97512
6.80424	5.00216
6.79532	5.00315
6.78643	5.00192
6.77756	5.00423
6.76871	5.03541
6.75989	5.05737
6.75109	5.01293
6.74231	4.89312
6.73355	4.90131
6.72482	4.99687
6.71611	5.05196
6.70742	5.10527
6.69875	5.16704
6.69011	5.23732
6.68149	5.28835
6.67289	5.23233
6.66431	5.24821
6.65576	5.24853
6.64722	5.26237
6.63871	5.42742
6.63022	5.48842
6.62175	5.45845
6.61331	5.48315
6.60488	5.60213
6.59648	5.73563
6.5881	5.79804
6.57974	5.95392
6.5714	6.05649
6.56308	6.0975
6.55478	6.24107
6.54651	6.32822
6.53825	6.40501
6.53001	6.65936
6.5218	6.92342
6.51361	7.0077
6.50544	7.14803
6.49729	7.41074
6.48915	7.6189
6.48104	7.80298
6.47295	7.99911
6.46488	8.19159
6.45683	8.3332
6.4488	8.46585
6.44079	8.73658
6.4328	9.02088
6.42482	9.20344
6.41687	9.50273
6.40894	9.59
6.40103	9.62728
6.39314	9.87228
6.38526	10.1971
6.37741	10.4457
6.36957	10.6418
6.36176	10.7858
6.35396	11.1198
6.34618	11.6201
6.33843	11.995
6.33069	12.3419
6.32297	12.8751
6.31527	13.4748
6.30758	14.1128
6.29992	14.8658
6.29227	15.862
6.28465	16.8963
6.27704	17.6198
6.26945	17.6135
6.26188	17.1046
6.25432	16.3041
6.24679	15.4308
6.23927	14.421
6.23177	13.3281
6.22429	12.2638
6.21683	11.4227
6.20938	10.7732
6.20195	10.2202
6.19454	9.79149
6.18715	9.36461
6.17978	8.90798
6.17242	8.4929
6.16508	8.30755
6.15776	8.25801
6.15045	8.13225
6.14317	8.06755
6.1359	8.02034
6.12864	8.08883
6.12141	8.16904
6.11419	8.21314
6.10699	8.16903
6.0998	8.08172
6.09263	7.97241
6.08549	7.84857
6.07835	7.82413
6.07123	7.6715
6.06413	7.45761
6.05705	7.3863
6.04998	7.42747
6.04293	7.23412
6.0359	7.0191
6.02888	6.99487
6.02187	7.03357
6.01489	7.0429
6.00792	6.96999
6.00096	6.92583
5.99403	7.04998
5.98711	7.08776
5.9802	6.99756
5.97331	6.94495
5.96644	6.95126
5.95958	6.84481
5.95274	6.85517
5.94591	6.95108
5.9391	7.09014
5.9323	7.01979
5.92552	6.89872
5.91876	6.89515
5.91201	6.92163
5.90528	7.06003
5.89856	7.2718
5.89186	7.29799
5.88517	7.4192
5.8785	7.47313
5.87184	7.43742
5.8652	7.47731
5.85857	7.55439
5.85196	7.73269
5.84536	7.89335
5.83878	8.1658
5.83221	8.56182
5.82566	8.87805
5.81912	9.02438
5.81259	9.09665
5.80608	9.24883
5.79959	9.40595
5.79311	9.61241
5.78665	9.79291
5.78019	9.91388
5.77376	10.1088
5.76734	10.4405
5.76093	10.5314
5.75453	10.6322
5.74815	10.9296
5.74179	11.1608
5.73543	11.4166
5.7291	11.5743
5.72277	11.7341
5.71646	11.9627
5.71017	12.1716
5.70389	12.2267
5.69762	12.3659
5.69136	12.4734
5.68513	12.5799
5.6789	12.6866
5.67268	12.7233
5.66648	12.6735
5.6603	12.6984
5.65413	12.6577
5.64797	12.5698
5.64182	12.6301
5.63569	12.6254
5.62957	12.4987
5.62347	12.4904
5.61737	12.5693
5.61129	12.5679
5.60522	12.4662
5.59917	12.3531
5.59313	12.1911
5.5871	12.0185
5.58109	11.9207
5.57509	11.6409
5.5691	11.2223
5.56312	10.8652
5.55716	10.5148
5.55121	10.1315
5.54528	9.69487
5.53935	9.21695
5.53344	8.73695
5.52754	8.39646
5.52166	8.04111
5.51578	7.58025
5.50992	7.10893
5.50407	6.78117
5.49823	6.54794
5.49241	6.34339
5.4866	6.17121
5.4808	6.03327
5.47501	5.91883
5.46923	5.96869
5.46347	6.06128
5.45772	6.1614
5.45198	6.34209
5.44625	6.55996
5.44054	6.86691
5.43484	7.38627
5.42914	7.96985
5.42347	8.6988
5.4178	9.54185
5.41214	10.4263
5.4065	11.412
5.40087	12.5395
5.39525	13.7622
5.38964	15.0556
5.38404	16.411
5.37846	17.7335
5.37288	19.0249
5.36732	20.2518
5.36177	21.3871
5.35623	22.4345
5.35071	23.4556
5.34519	24.3942
5.33968	25.273
5.33419	26.1388
5.32871	26.9309
5.32324	27.682
5.31778	28.394
5.31233	29.0136
5.30689	29.6452
5.30147	30.2628
5.29605	30.8005
5.29065	31.2387
5.28525	31.5327
5.27987	31.7632
5.2745	31.9752
5.26914	32.2043
5.26379	32.3496
5.25845	32.4416
5.25312	32.5348
5.24781	32.8005
5.2425	33.0938
5.23721	33.4003
5.23192	33.8528
5.22665	34.443
5.22138	35.1352
5.21613	35.8902
5.21089	36.5451
5.20566	37.1547
5.20044	37.8419
5.19522	38.4377
5.19002	39.0019
5.18483	39.6103
5.17965	40.193
5.17448	40.7679
5.16933	41.2933
5.16418	41.7755
5.15904	42.2185
5.15391	42.686
5.14879	43.2395
5.14368	43.6221
5.13859	43.9057
5.1335	44.2108
5.12842	44.4426
5.12335	44.6896
5.1183	44.9685
5.11325	45.1664
5.10821	45.3036
5.10318	45.4743
5.09817	45.6053
5.09316	45.6734
5.08816	45.5836
5.08317	45.4457
5.07819	45.1589
5.07322	44.703
5.06826	44.2124
5.06331	43.8417
5.05837	43.7682
5.05344	44.0636
5.04852	44.6348
5.04361	45.3301
5.03871	46.0415
5.03382	46.7252
5.02894	47.3144
5.02406	47.7841
5.0192	48.189
5.01435	48.5776
5.0095	48.9271
5.00467	49.178
4.99984	49.424
4.99502	49.6658
4.99021	49.7985
4.98542	49.9177
4.98063	50.0881
4.97585	50.2199
4.97108	50.3402
4.96632	50.4889
4.96156	50.5661
4.95682	50.6516
4.95209	50.718
4.94736	50.7812
4.94264	50.8744
4.93794	50.967
4.93324	51.0202
4.92855	51.1091
4.92387	51.1484
4.9192	51.2407
4.91453	51.3082
4.90988	51.3725
4.90524	51.4367
4.9006	51.5508
4.89597	51.632
4.89135	51.6457
4.88674	51.6475
4.88214	51.6874
4.87755	51.6893
4.87296	51.7127
4.86839	51.82
4.86382	51.876
4.85926	51.8415
4.85471	51.9041
4.85017	51.9327
4.84564	51.9849
4.84111	52.0152
4.8366	52.0058
4.83209	51.9955
4.82759	52.0348
4.8231	52.0407
4.81862	52.0262
4.81415	52.0546
4.80968	52.0957
4.80522	52.1201
4.80077	52.0862
4.79633	52.0577
4.7919	52.0615
4.78747	51.9926
4.78306	51.985
4.77865	52.0162
4.77425	52.0278
4.76986	52.02
4.76547	51.9614
4.7611	51.9644
4.75673	51.939
4.75237	51.8316
4.74802	51.7626
4.74367	51.7419
4.73934	51.7446
4.73501	51.7151
4.73069	51.6521
4.72638	51.5611
4.72207	51.5345
4.71777	51.5001
4.71348	51.36
4.7092	51.2179
4.70493	51.1411
4.70066	51.0864
4.69641	51.0147
4.69216	50.8321
4.68791	50.673
4.68368	50.52
4.67945	50.3889
4.67523	50.192
4.67102	49.9915
4.66682	49.7624
4.66262	49.5119
4.65843	49.2541
4.65425	48.9678
4.65007	48.6502
4.64591	48.244
4.64175	47.7602
4.6376	47.3612
4.63345	46.9794
4.62932	46.5328
4.62519	45.9957
4.62106	45.4547
4.61695	44.9724
4.61284	44.4976
4.60874	44.0686
4.60465	43.7263
4.60056	43.3713
4.59648	43.1248
4.59241	42.9648
4.58835	42.8492
4.58429	42.7443
4.58024	42.6809
4.5762	42.7008
4.57216	42.8283
4.56814	42.9669
4.56411	43.1023
4.5601	43.2351
4.55609	43.381
4.55209	43.6161
4.5481	43.8604
4.54411	44.0927
4.54013	44.4394
4.53616	44.7924
4.5322	45.0928
4.52824	45.3228
4.52429	45.6019
4.52034	45.871
4.51641	46.0385
4.51247	46.2621
4.50855	46.5372
4.50463	46.715
4.50072	46.7832
4.49682	46.8898
4.49292	47.1364
4.48903	47.2994
4.48515	47.398
4.48127	47.4463
4.4774	47.5352
4.47354	47.6268
4.46968	47.6675
4.46584	47.717
4.46199	47.8309
4.45815	47.9017
4.45432	47.9336
4.4505	48.0152
4.44668	48.0772
4.44287	48.0552
4.43907	48.0634
4.43527	48.1023
4.43148	48.1841
4.4277	48.2394
4.42392	48.2489
4.42015	48.2406
4.41638	48.2914
4.41262	48.3439
4.40887	48.4061
4.40513	48.4743
4.40139	48.509
4.39765	48.5993
4.39393	48.6919
4.39021	48.7395
4.38649	48.8856
4.38278	48.9976
4.37908	49.0743
4.37539	49.1855
4.3717	49.2325
4.36801	49.3361
4.36434	49.455
4.36067	49.5575
4.357	49.726
4.35335	49.8239
4.34969	49.852
4.34605	49.979
4.34241	50.1104
4.33877	50.2118
4.33514	50.286
4.33152	50.3082
4.32791	50.2654
4.3243	50.1902
4.32069	50.244
4.3171	50.311
4.31351	50.3246
4.30992	50.4204
4.30634	50.5195
4.30277	50.5737
4.2992	50.604
4.29564	50.6258
4.29208	50.7222
4.28853	50.8437
4.28499	50.8851
4.28145	50.9251
4.27792	50.9355
4.27439	50.9035
4.27087	51.0151
4.26735	51.0592
4.26384	51.0159
4.26034	51.0413
4.25684	51.1313
4.25335	51.2114
4.24986	51.3664
4.24638	51.4805
4.24291	51.597
4.23944	51.7566
4.23598	51.8798
4.23252	52.0122
4.22906	52.1303
4.22562	52.2614
4.22218	52.2382
4.21874	52.1935
4.21531	52.2846
4.21189	52.441
4.20847	52.452
4.20506	52.3263
4.20165	52.4091
4.19825	52.4886
4.19485	52.47
4.19146	52.5211
4.18807	52.6243
4.18469	52.7504
4.18132	52.8029
4.17795	52.7447
4.17458	52.6874
4.17123	52.7481
4.16787	52.808
4.16453	52.7935
4.16118	52.8472
4.15785	52.9463
4.15451	52.9238
4.15119	52.9125
4.14787	52.9177
4.14455	52.928
4.14124	52.9525
4.13794	52.9723
4.13464	52.9868
4.13134	52.9686
4.12805	52.922
4.12477	52.9003
4.12149	52.9291
4.11822	52.9279
4.11495	52.9513
4.11168	52.9695
4.10843	52.9911
4.10517	53.0042
4.10192	52.9304
4.09868	52.8652
4.09545	52.8669
4.09221	52.928
4.08899	52.8863
4.08576	52.7526
4.08255	52.6829
4.07933	52.6179
4.07613	52.5411
4.07292	52.4367
4.06973	52.3735
4.06654	52.2491
4.06335	52.0881
4.06017	51.9091
4.05699	51.7579
4.05382	51.4877
4.05065	51.1615
4.04749	50.8207
4.04433	50.4557
4.04118	50.0917
4.03803	49.745
4.03489	49.3294
4.03175	48.8294
4.02862	48.2222
4.02549	47.507
4.02237	46.7784
4.01925	45.9326
4.01614	45.0167
4.01303	44.0347
4.00993	42.842
4.00683	41.558
4.00373	40.237
4.00064	38.8781
3.99756	37.4975
3.99448	36.0754
3.9914	34.5182
3.98833	32.9236
3.98527	31.3077
3.98221	29.4996
3.97915	27.6645
3.9761	25.8513
3.97305	23.903
3.97001	21.9491
3.96697	20.1768
3.96394	18.6836
3.96091	17.4486
3.95789	16.5588
3.95487	15.8743
3.95186	15.4609
3.94885	15.2457
3.94584	15.0141
3.94284	14.8819
3.93984	14.8827
3.93685	14.9259
3.93386	15.002
3.93088	15.2055
3.9279	15.4674
3.92493	15.6498
3.92196	15.893
3.919	16.1456
3.91604	16.2978
3.91308	16.5525
3.91013	16.8541
3.90718	17.1539
3.90424	17.5611
3.9013	18.0235
3.89837	18.5295
3.89544	19.0379
3.89252	19.6288
3.8896	20.3326
3.88668	21.0073
3.88377	21.7197
3.88086	22.55
3.87796	23.3888
3.87506	24.0758
3.87217	24.6704
3.86928	25.1232
3.86639	25.4166
3.86351	25.6991
3.86064	25.8467
3.85776	25.9218
3.8549	25.9637
3.85203	26.0975
3.84917	26.3022
3.84631	26.4953
3.84346	26.7314
3.84062	26.9799
3.83777	27.1449
3.83494	27.2926
3.8321	27.4475
3.82927	27.7041
3.82644	27.9203
3.82362	28.1109
3.82081	28.2893
3.81799	28.4401
3.81518	28.6358
3.81238	28.7772
3.80958	28.8656
3.80678	28.9798
3.80399	29.0345
3.8012	29.0958
3.79841	29.1865
3.79563	29.3048
3.79286	29.4313
3.79008	29.6237
3.78731	29.9286
3.78455	30.3253
3.78179	30.7238
3.77903	31.2107
3.77628	31.7601
3.77353	32.3889
3.77079	33.1259
3.76805	33.8645
3.76531	34.5224
3.76258	35.2133
3.75985	35.9107
3.75713	36.6697
3.7544	37.4333
3.75169	38.2041
3.74898	38.9628
3.74627	39.6499
3.74356	40.4474
3.74086	41.3288
3.73816	42.1422
3.73547	42.9598
3.73278	43.8259
3.7301	44.6381
3.72741	45.5269
3.72474	46.5259
3.72206	47.3967
3.71939	48.035
3.71673	48.6515
3.71406	49.2074
3.71141	49.7153
3.70875	50.1144
3.7061	50.3567
3.70345	50.482
3.70081	50.6148
3.69817	50.7486
3.69553	50.7993
3.6929	50.8165
3.69027	50.7541
3.68765	50.7011
3.68503	50.67
3.68241	50.6123
3.6798	50.6029
3.67719	50.511
3.67458	50.4487
3.67198	50.426
3.66938	50.3859
3.66678	50.3846
3.66419	50.2869
3.66161	50.164
3.65902	50.0925
3.65644	50.0123
3.65387	49.9548
3.65129	50.0048
3.64872	49.8811
3.64616	49.6912
3.64359	49.5559
3.64103	49.4439
3.63848	49.3677
3.63593	49.3398
3.63338	49.2011
3.63084	49.0021
3.6283	48.9193
3.62576	48.9317
3.62322	48.7775
3.62069	48.5559
3.61817	48.3124
3.61564	48.1588
3.61312	48.1354
3.61061	48.0986
3.6081	47.9561
3.60559	47.8858
3.60308	47.8948
3.60058	47.76
3.59808	47.5702
3.59558	47.4102
3.59309	47.3145
3.59061	47.1877
3.58812	47.072
3.58564	46.9357
3.58316	46.7666
3.58069	46.6752
3.57822	46.5428
3.57575	46.3508
3.57328	46.2475
3.57082	46.153
3.56836	46.0121
3.56591	45.9023
3.56346	45.7797
3.56101	45.5694
3.55857	45.3413
3.55613	45.1295
3.55369	44.9397
3.55126	44.7169
3.54883	44.4645
3.5464	44.2791
3.54397	44.0908
3.54155	43.8509
3.53914	43.5613
3.53672	43.2158
3.53431	42.7351
3.5319	42.2785
3.5295	41.9116
3.5271	41.7115
3.5247	41.6317
3.52231	41.5793
3.51991	41.4856
3.51753	41.2499
3.51514	41.0129
3.51276	40.7322
3.51038	40.3692
3.50801	39.9695
3.50563	39.4913
3.50327	38.9201
3.5009	38.3091
3.49854	37.6292
3.49618	36.9511
3.49382	36.1392
3.49147	35.1671
3.48912	34.0263
3.48677	32.9641
3.48443	32.1018
3.48209	31.2777
3.47975	30.4183
3.47742	29.7368
3.47509	29.3274
3.47276	28.9063
3.47044	28.4558
3.46812	28.0561
3.4658	27.5806
3.46348	27.0865
3.46117	26.5904
