Name: Epidote Ca_2(Al,Fe^3+)_3O.SiO_4.Si_2O_7.OH
Type: Mineral
Class: Silicates
Subclass: Sorosilicate
Particle Size: 125-500um
Sample No.: SS-1C
Owner: JPL
Wavelength range: IR
Origin: USA, Colorado
Collected by Ward's
Description: 





Measurement: Hemispherical reflectance
First Column: X
Second Column: Y
X Units:  Wavelength (micrometers)
Y Units:  Reflectance (percent)
First X Value: 15.3853
Last X Value: 2.00032
Number of X Values: 2256
Additional information: ss01ca.txt
 
15.3853	9.71021
15.3397	10.1388
15.2945	10.1279
15.2495	9.61763
15.2048	9.07865
15.1603	8.58961
15.1161	8.23257
15.0722	8.05257
15.0285	7.81411
14.9851	7.20626
14.9419	6.65731
14.8989	6.21826
14.8563	5.81514
14.8138	5.41967
14.7716	5.34816
14.7296	5.29444
14.6879	5.33846
14.6464	5.38385
14.6052	5.32878
14.5641	5.30022
14.5233	5.36264
14.4828	5.36725
14.4424	5.34637
14.4023	5.12872
14.3624	4.45971
14.3227	4.03692
14.2833	3.8267
14.244	3.48589
14.205	3.06718
14.1662	2.52439
14.1276	2.14623
14.0892	2.01406
14.051	1.95805
14.0131	1.83074
13.9753	1.56355
13.9377	1.55221
13.9004	1.73108
13.8632	1.95593
13.8262	1.90331
13.7895	1.78789
13.7529	1.7706
13.7165	1.68478
13.6803	1.49138
13.6443	1.48971
13.6085	1.5995
13.5729	1.55753
13.5374	1.50624
13.5022	1.70789
13.4671	1.83295
13.4322	2.01217
13.3975	2.07741
13.363	2.05803
13.3286	2.07488
13.2944	2.16542
13.2604	2.51222
13.2266	2.67974
13.193	2.7842
13.1595	2.95097
13.1262	2.87638
13.093	2.78246
13.06	2.90566
13.0272	2.92474
12.9946	2.88594
12.9621	3.03561
12.9298	3.19078
12.8976	3.20615
12.8656	3.17412
12.8337	3.22568
12.8021	3.24853
12.7705	3.32443
12.7391	3.40538
12.7079	3.42081
12.6769	3.47539
12.6459	3.68029
12.6152	3.79943
12.5845	3.84179
12.5541	3.84782
12.5238	3.88181
12.4936	4.0177
12.4635	4.15289
12.4337	4.31139
12.4039	4.3834
12.3743	4.32206
12.3448	4.43723
12.3155	4.45214
12.2863	4.46195
12.2573	4.74694
12.2284	4.78057
12.1996	4.80088
12.171	5.09532
12.1425	5.23125
12.1141	5.47106
12.0859	5.59613
12.0578	5.85934
12.0298	6.1903
12.0019	6.26787
11.9742	6.31502
11.9466	6.46105
11.9192	6.36346
11.8918	6.07554
11.8646	5.97271
11.8375	5.97137
11.8106	5.93744
11.7837	5.94502
11.757	6.20164
11.7304	6.57259
11.7039	7.06307
11.6776	7.40962
11.6513	7.52108
11.6252	7.63225
11.5992	7.58504
11.5733	7.44477
11.5475	7.37904
11.5219	7.39577
11.4963	7.64715
11.4709	8.26065
11.4455	9.17617
11.4203	10.068
11.3952	10.792
11.3702	11.4694
11.3454	12.0683
11.3206	12.4965
11.2959	12.6123
11.2714	12.6566
11.2469	12.5902
11.2226	12.2222
11.1983	11.7876
11.1742	11.4111
11.1502	11.125
11.1263	10.8247
11.1024	10.6629
11.0787	10.5563
11.0551	10.2006
11.0316	9.84463
11.0081	9.54465
10.9848	9.2228
10.9616	8.90764
10.9385	8.70964
10.9154	8.45472
10.8925	8.02139
10.8697	7.65392
10.8469	7.54775
10.8243	7.50122
10.8017	7.5266
10.7793	7.94286
10.7569	8.52841
10.7346	9.26883
10.7125	10.1072
10.6904	10.9231
10.6684	11.6663
10.6465	12.482
10.6247	13.4544
10.6029	14.397
10.5813	15.4506
10.5597	16.6478
10.5383	17.7772
10.5169	18.7249
10.4956	19.4607
10.4744	19.979
10.4533	20.0768
10.4323	20.0345
10.4113	19.9104
10.3904	19.712
10.3697	19.4843
10.349	19.1814
10.3284	18.7502
10.3078	18.1952
10.2874	17.515
10.267	16.7723
10.2467	15.9266
10.2265	15.2148
10.2064	14.7704
10.1863	14.3146
10.1663	13.9475
10.1464	13.5822
10.1266	13.1768
10.1069	12.7833
10.0872	12.1609
10.0676	11.3326
10.0481	10.402
10.0287	9.36556
10.0093	8.19602
9.99005	6.96565
9.97084	5.81296
9.95169	4.82797
9.93263	3.98849
9.91364	3.43715
9.89472	2.98128
9.87587	2.63732
9.8571	2.60128
9.83839	2.68226
9.81976	2.76347
9.80119	2.91046
9.78271	3.08619
9.76428	3.37193
9.74592	3.71216
9.72764	4.1554
9.70943	4.74911
9.69128	5.51375
9.6732	6.2443
9.65518	7.11772
9.63724	7.84262
9.61935	8.26887
9.60155	8.49678
9.5838	8.77596
9.56611	9.08889
9.5485	9.28981
9.53094	9.4889
9.51345	9.81062
9.49604	10.0361
9.47867	10.1243
9.46137	10.2554
9.44414	10.3422
9.42697	10.3253
9.40986	10.155
9.39281	9.7624
9.37583	9.43571
9.35891	9.18013
9.34204	8.96841
9.32524	8.83705
9.3085	8.7266
9.29182	8.68585
9.27519	8.51572
9.25863	8.39816
9.24213	8.55342
9.22568	8.77474
9.2093	8.72604
9.19297	8.71353
9.17669	8.7059
9.16048	8.623
9.14433	8.43981
9.12823	8.31483
9.11218	8.23354
9.0962	8.30873
9.08027	8.55621
9.06439	8.75081
9.04858	8.91166
9.03281	9.00489
9.0171	8.99102
9.00145	9.05736
8.98585	9.25081
8.9703	9.3443
8.9548	9.21758
8.93937	8.87896
8.92398	8.60054
8.90865	8.31455
8.89337	8.12505
8.87814	7.99576
8.86296	7.77104
8.84784	7.67298
8.83277	7.55953
8.81774	7.23485
8.80277	6.94679
8.78786	6.87449
8.77298	6.65804
8.75816	6.21995
8.7434	5.674
8.72868	5.07878
8.714	4.54116
8.69938	4.06985
8.68481	3.60727
8.67029	3.13374
8.65581	2.74486
8.64139	2.50859
8.62701	2.32725
8.61268	2.18925
8.5984	2.1248
8.58416	2.06624
8.56997	1.99294
8.55583	1.81879
8.54174	1.6998
8.52769	1.76341
8.51368	1.89448
8.49973	1.94959
8.48582	1.87481
8.47195	1.86259
8.45813	1.78566
8.44436	1.67981
8.43062	1.66795
8.41693	1.76201
8.4033	1.77298
8.3897	1.70469
8.37614	1.72258
8.36264	1.7746
8.34917	1.7577
8.33574	1.78756
8.32236	1.90966
8.30903	1.80422
8.29573	1.70412
8.28248	1.80572
8.26927	1.77946
8.2561	1.80302
8.24298	2.00955
8.2299	2.05445
8.21685	1.96419
8.20385	2.04785
8.19089	1.9929
8.17797	1.93009
8.16509	1.96375
8.15225	1.9639
8.13946	1.95503
8.1267	1.90507
8.11398	1.82165
8.10131	1.75591
8.08867	1.80184
8.07606	1.8209
8.0635	1.66509
8.05099	1.64725
8.0385	1.67237
8.02606	1.6148
8.01366	1.65635
8.00129	1.78969
7.98896	1.74541
7.97667	1.58707
7.96442	1.51748
7.9522	1.58154
7.94002	1.68671
7.92788	1.65058
7.91578	1.62791
7.90371	1.62151
7.89168	1.68428
7.87969	1.70426
7.86773	1.59904
7.85581	1.58199
7.84392	1.67308
7.83207	1.6942
7.82026	1.59254
7.80849	1.64348
7.79674	1.65152
7.78503	1.55332
7.77337	1.67712
7.76173	1.85744
7.75012	1.88171
7.73856	1.88734
7.72703	1.90393
7.71553	1.85561
7.70406	1.80929
7.69263	1.86465
7.68123	1.90593
7.66987	1.90835
7.65855	1.98107
7.64725	1.95305
7.63598	1.94057
7.62475	2.04576
7.61356	2.11505
7.60239	2.15926
7.59126	2.29469
7.58017	2.29788
7.5691	2.2103
7.55806	2.26683
7.54707	2.3173
7.5361	2.25124
7.52516	2.26073
7.51425	2.33787
7.50338	2.27328
7.49253	2.28645
7.48172	2.35675
7.47094	2.41465
7.46019	2.50653
7.44947	2.61198
7.43879	2.60757
7.42813	2.57687
7.4175	2.57227
7.4069	2.54684
7.39634	2.50719
7.3858	2.54713
7.37529	2.5966
7.36482	2.66898
7.35437	2.70234
7.34396	2.74616
7.33357	2.79749
7.32321	2.75769
7.31288	2.7015
7.30258	2.72444
7.29231	2.84535
7.28207	2.94065
7.27185	2.90388
7.26167	2.85351
7.25152	2.9232
7.24139	2.99743
7.23129	3.00647
7.22122	3.0423
7.21117	3.06679
7.20116	3.05
7.19117	3.02308
7.18121	3.06083
7.17128	3.24015
7.16137	3.30932
7.1515	3.31485
7.14164	3.32444
7.13182	3.33237
7.12203	3.43102
7.11225	3.45355
7.10251	3.44642
7.0928	3.52945
7.08311	3.6271
7.07344	3.68984
7.06381	3.74521
7.0542	3.84158
7.04461	3.91831
7.03506	3.90557
7.02552	3.88009
7.01601	3.84966
7.00653	3.93678
6.99708	3.99788
6.98765	3.9863
6.97824	4.02096
6.96886	4.05137
6.95951	4.02884
6.95018	3.96175
6.94087	3.99747
6.9316	4.04875
6.92234	4.04733
6.91311	4.12074
6.90391	4.16247
6.89473	4.19001
6.88557	4.24137
6.87644	4.2996
6.86733	4.3077
6.85824	4.38714
6.84918	4.35801
6.84015	4.32434
6.83114	4.45136
6.82215	4.51519
6.81319	4.46161
6.80424	4.45686
6.79532	4.49285
6.78643	4.53883
6.77756	4.51187
6.76871	4.55982
6.75989	4.57187
6.75109	4.59231
6.74231	4.62863
6.73355	4.66013
6.72482	4.70285
6.71611	4.7205
6.70742	4.71849
6.69875	4.68964
6.69011	4.76795
6.68149	4.92357
6.67289	4.92744
6.66431	4.81321
6.65576	4.82405
6.64722	4.94125
6.63871	5.02269
6.63022	5.01196
6.62175	5.03536
6.61331	5.11002
6.60488	5.07715
6.59648	5.0746
6.5881	5.09282
6.57974	5.17814
6.5714	5.2062
6.56308	5.11157
6.55478	5.14716
6.54651	5.26107
6.53825	5.24213
6.53001	5.23156
6.5218	5.30976
6.51361	5.29796
6.50544	5.26177
6.49729	5.39856
6.48915	5.53738
6.48104	5.50075
6.47295	5.42601
6.46488	5.43114
6.45683	5.4784
6.4488	5.46198
6.44079	5.41928
6.4328	5.39184
6.42482	5.48045
6.41687	5.71635
6.40894	5.6656
6.40103	5.47367
6.39314	5.40235
6.38526	5.36627
6.37741	5.38006
6.36957	5.33752
6.36176	5.27524
6.35396	5.30211
6.34618	5.37798
6.33843	5.28769
6.33069	5.22687
6.32297	5.11917
6.31527	4.99106
6.30758	4.98363
6.29992	4.98031
6.29227	4.95521
6.28465	5.01409
6.27704	5.00637
6.26945	4.95752
6.26188	4.8935
6.25432	4.75356
6.24679	4.72671
6.23927	4.81802
6.23177	4.79616
6.22429	4.6595
6.21683	4.56202
6.20938	4.52488
6.20195	4.51634
6.19454	4.53556
6.18715	4.56686
6.17978	4.50084
6.17242	4.35957
6.16508	4.33874
6.15776	4.42845
6.15045	4.45815
6.14317	4.40674
6.1359	4.26054
6.12864	4.17385
6.12141	4.17128
6.11419	4.17646
6.10699	4.18979
6.0998	4.05269
6.09263	3.95838
6.08549	4.03562
6.07835	4.07491
6.07123	4.02805
6.06413	4.03731
6.05705	4.10916
6.04998	4.12481
6.04293	4.03355
6.0359	4.01005
6.02888	3.98184
6.02187	3.82094
6.01489	3.67571
6.00792	3.64149
6.00096	3.62833
5.99403	3.48955
5.98711	3.41395
5.9802	3.47436
5.97331	3.47312
5.96644	3.42737
5.95958	3.31121
5.95274	3.21977
5.94591	3.22317
5.9391	3.29905
5.9323	3.27481
5.92552	3.13467
5.91876	3.08672
5.91201	3.17598
5.90528	3.30868
5.89856	3.44098
5.89186	3.51258
5.88517	3.54658
5.8785	3.57695
5.87184	3.5036
5.8652	3.57514
5.85857	3.69254
5.85196	3.70107
5.84536	3.67855
5.83878	3.67312
5.83221	3.7166
5.82566	3.75712
5.81912	3.70322
5.81259	3.70329
5.80608	3.74276
5.79959	3.71556
5.79311	3.76392
5.78665	3.81848
5.78019	3.71733
5.77376	3.6715
5.76734	3.76557
5.76093	3.7751
5.75453	3.71404
5.74815	3.68804
5.74179	3.73807
5.73543	3.73896
5.7291	3.72473
5.72277	3.70268
5.71646	3.69419
5.71017	3.66856
5.70389	3.64887
5.69762	3.63371
5.69136	3.61581
5.68513	3.69857
5.6789	3.80457
5.67268	3.73461
5.66648	3.57313
5.6603	3.56693
5.65413	3.60201
5.64797	3.6759
5.64182	3.72809
5.63569	3.65723
5.62957	3.63755
5.62347	3.70461
5.61737	3.73614
5.61129	3.69438
5.60522	3.68295
5.59917	3.69769
5.59313	3.71
5.5871	3.80752
5.58109	3.90391
5.57509	3.91844
5.5691	4.00389
5.56312	4.03359
5.55716	4.03933
5.55121	4.14348
5.54528	4.31079
5.53935	4.52681
5.53344	4.62812
5.52754	4.79227
5.52166	5.01497
5.51578	5.1086
5.50992	5.1872
5.50407	5.26172
5.49823	5.35407
5.49241	5.50115
5.4866	5.59903
5.4808	5.67433
5.47501	5.737
5.46923	5.84645
5.46347	5.92553
5.45772	5.96113
5.45198	6.04857
5.44625	6.11386
5.44054	6.16411
5.43484	6.29196
5.42914	6.41875
5.42347	6.49764
5.4178	6.45163
5.41214	6.34071
5.4065	6.38792
5.40087	6.3965
5.39525	6.36401
5.38964	6.42277
5.38404	6.43119
5.37846	6.35326
5.37288	6.36659
5.36732	6.28746
5.36177	6.21274
5.35623	6.23353
5.35071	6.30367
5.34519	6.27965
5.33968	6.16804
5.33419	6.2102
5.32871	6.27046
5.32324	6.27551
5.31778	6.2859
5.31233	6.27658
5.30689	6.23541
5.30147	6.23082
5.29605	6.32717
5.29065	6.3083
5.28525	6.26594
5.27987	6.26451
5.2745	6.24393
5.26914	6.21185
5.26379	6.14611
5.25845	6.07694
5.25312	6.05539
5.24781	6.07109
5.2425	6.09563
5.23721	6.01586
5.23192	5.93306
5.22665	6.01008
5.22138	6.05423
5.21613	6.08364
5.21089	6.10534
5.20566	6.14316
5.20044	6.22447
5.19522	6.27452
5.19002	6.286
5.18483	6.36213
5.17965	6.56794
5.17448	6.71541
5.16933	6.79987
5.16418	6.88357
5.15904	6.98895
5.15391	7.1299
5.14879	7.32956
5.14368	7.43382
5.13859	7.4321
5.1335	7.48404
5.12842	7.48868
5.12335	7.53605
5.1183	7.62647
5.11325	7.64539
5.10821	7.62368
5.10318	7.50262
5.09817	7.32667
5.09316	7.33454
5.08816	7.50516
5.08317	7.6319
5.07819	7.59801
5.07322	7.56226
5.06826	7.53974
5.06331	7.53717
5.05837	7.54818
5.05344	7.51721
5.04852	7.46234
5.04361	7.48578
5.03871	7.49875
5.03382	7.43505
5.02894	7.40439
5.02406	7.50874
5.0192	7.64473
5.01435	7.71511
5.0095	7.72768
5.00467	7.62895
4.99984	7.46679
4.99502	7.34526
4.99021	7.22599
4.98542	7.11159
4.98063	7.02313
4.97585	6.91029
4.97108	6.83006
4.96632	6.79688
4.96156	6.75939
4.95682	6.65918
4.95209	6.65243
4.94736	6.7439
4.94264	6.85295
4.93794	6.90805
4.93324	6.88559
4.92855	6.87042
4.92387	7.0456
4.9192	7.15568
4.91453	7.11193
4.90988	7.08474
4.90524	7.14636
4.9006	7.29597
4.89597	7.36808
4.89135	7.40221
4.88674	7.45111
4.88214	7.5099
4.87755	7.6464
4.87296	7.81516
4.86839	8.01371
4.86382	8.22381
4.85926	8.40201
4.85471	8.59656
4.85017	8.75622
4.84564	8.86779
4.84111	8.99713
4.8366	9.09849
4.83209	9.16167
4.82759	9.27153
4.8231	9.371
4.81862	9.46386
4.81415	9.53534
4.80968	9.58734
4.80522	9.66263
4.80077	9.79977
4.79633	9.9678
4.7919	10.1865
4.78747	10.4603
4.78306	10.7582
4.77865	11.071
4.77425	11.3926
4.76986	11.7037
4.76547	11.9832
4.7611	12.303
4.75673	12.7297
4.75237	13.149
4.74802	13.4842
4.74367	13.8008
4.73934	14.0142
4.73501	14.1476
4.73069	14.2364
4.72638	14.3171
4.72207	14.3943
4.71777	14.4327
4.71348	14.3512
4.7092	14.3345
4.70493	14.3148
4.70066	14.2707
4.69641	14.3143
4.69216	14.3614
4.68791	14.3867
4.68368	14.4142
4.67945	14.5317
4.67523	14.6583
4.67102	14.7524
4.66682	14.8467
4.66262	14.9635
4.65843	14.9157
4.65425	14.8965
4.65007	14.9893
4.64591	15.0092
4.64175	15.0308
4.6376	14.9914
4.63345	14.9857
4.62932	15.0264
4.62519	14.9744
4.62106	14.9816
4.61695	14.9967
4.61284	14.9649
4.60874	15.0469
4.60465	15.1965
4.60056	15.386
4.59648	15.6137
4.59241	15.8672
4.58835	16.1892
4.58429	16.6175
4.58024	17.0592
4.5762	17.472
4.57216	17.9141
4.56814	18.3556
4.56411	18.7653
4.5601	19.2405
4.55609	19.7537
4.55209	20.1591
4.5481	20.5482
4.54411	20.9625
4.54013	21.3433
4.53616	21.8249
4.5322	22.282
4.52824	22.6857
4.52429	23.0612
4.52034	23.4188
4.51641	23.8167
4.51247	24.1425
4.50855	24.4478
4.50463	24.8019
4.50072	25.2048
4.49682	25.5876
4.49292	25.9709
4.48903	26.3429
4.48515	26.7512
4.48127	27.1773
4.4774	27.5025
4.47354	27.8683
4.46968	28.2614
4.46584	28.5751
4.46199	28.8459
4.45815	29.1419
4.45432	29.4497
4.4505	29.7533
4.44668	29.9531
4.44287	30.1325
4.43907	30.4487
4.43527	30.7088
4.43148	30.8658
4.4277	31.0039
4.42392	31.2722
4.42015	31.5296
4.41638	31.6062
4.41262	31.7331
4.40887	31.9009
4.40513	32.1127
4.40139	32.363
4.39765	32.5005
4.39393	32.6754
4.39021	32.8472
4.38649	32.9932
4.38278	33.1903
4.37908	33.4213
4.37539	33.5659
4.3717	33.6652
4.36801	33.7666
4.36434	33.9106
4.36067	34.0785
4.357	34.2638
4.35335	34.3901
4.34969	34.4118
4.34605	34.4931
4.34241	34.5956
4.33877	34.678
4.33514	34.8104
4.33152	34.8864
4.32791	34.9167
4.3243	35.0497
4.32069	35.163
4.3171	35.2389
4.31351	35.2881
4.30992	35.3748
4.30634	35.5245
4.30277	35.5919
4.2992	35.7341
4.29564	35.812
4.29208	35.7931
4.28853	35.8515
4.28499	36.0413
4.28145	36.1275
4.27792	36.1669
4.27439	36.219
4.27087	36.3195
4.26735	36.4218
4.26384	36.4851
4.26034	36.4624
4.25684	36.4118
4.25335	36.4579
4.24986	36.678
4.24638	36.8507
4.24291	36.8906
4.23944	36.8761
4.23598	36.8497
4.23252	36.9682
4.22906	37.1228
4.22562	37.1496
4.22218	37.1765
4.21874	37.2405
4.21531	37.3022
4.21189	37.3573
4.20847	37.4242
4.20506	37.4806
4.20165	37.6339
4.19825	37.7894
4.19485	37.8913
4.19146	38.0091
4.18807	38.1588
4.18469	38.2301
4.18132	38.2929
4.17795	38.4226
4.17458	38.5759
4.17123	38.5792
4.16787	38.6212
4.16453	38.7479
4.16118	38.8903
4.15785	38.9209
4.15451	38.9217
4.15119	39.0027
4.14787	39.0579
4.14455	39.0503
4.14124	39.039
4.13794	39.0929
4.13464	39.138
4.13134	39.1447
4.12805	39.1646
4.12477	39.255
4.12149	39.3369
4.11822	39.414
4.11495	39.3886
4.11168	39.3259
4.10843	39.242
4.10517	39.1522
4.10192	39.1808
4.09868	39.2649
4.09545	39.243
4.09221	39.1746
4.08899	39.1862
4.08576	39.1777
4.08255	39.0899
4.07933	38.9489
4.07613	38.8407
4.07292	38.7359
4.06973	38.632
4.06654	38.5743
4.06335	38.5462
4.06017	38.4741
4.05699	38.3581
4.05382	38.2235
4.05065	38.0302
4.04749	37.7403
4.04433	37.4593
4.04118	37.2001
4.03803	36.87
4.03489	36.5721
4.03175	36.2561
4.02862	35.8797
4.02549	35.5793
4.02237	35.2394
4.01925	34.8588
4.01614	34.4745
4.01303	34.1433
4.00993	33.701
4.00683	33.1719
4.00373	32.7389
4.00064	32.4112
3.99756	31.9936
3.99448	31.657
3.9914	31.4916
3.98833	31.4775
3.98527	31.5377
3.98221	31.6202
3.97915	31.6942
3.9761	31.8726
3.97305	32.0585
3.97001	32.3021
3.96697	32.5823
3.96394	32.7554
3.96091	32.9176
3.95789	33.2245
3.95487	33.546
3.95186	33.9287
3.94885	34.2817
3.94584	34.5633
3.94284	34.9049
3.93984	35.2292
3.93685	35.4519
3.93386	35.5879
3.93088	35.7769
3.9279	35.9096
3.92493	36.0163
3.92196	36.1804
3.919	36.397
3.91604	36.6004
3.91308	36.6907
3.91013	36.6727
3.90718	36.6544
3.90424	36.7866
3.9013	36.9285
3.89837	37.0004
3.89544	37.0442
3.89252	37.0933
3.8896	37.0767
3.88668	37.0921
3.88377	37.1748
3.88086	37.2501
3.87796	37.2974
3.87506	37.33
3.87217	37.3266
3.86928	37.3117
3.86639	37.313
3.86351	37.4162
3.86064	37.4874
3.85776	37.4699
3.8549	37.3895
3.85203	37.3785
3.84917	37.478
3.84631	37.5354
3.84346	37.617
3.84062	37.7386
3.83777	37.835
3.83494	37.9796
3.8321	38.0965
3.82927	38.1815
3.82644	38.263
3.82362	38.4788
3.82081	38.6841
3.81799	38.7942
3.81518	38.9104
3.81238	39.0036
3.80958	39.1694
3.80678	39.3634
3.80399	39.5006
3.8012	39.6721
3.79841	39.8384
3.79563	39.9767
3.79286	40.2077
3.79008	40.2656
3.78731	40.3051
3.78455	40.4455
3.78179	40.4237
3.77903	40.4314
3.77628	40.4587
3.77353	40.4667
3.77079	40.4048
3.76805	40.3791
3.76531	40.3398
3.76258	40.2358
3.75985	40.2107
3.75713	40.1744
3.7544	39.9972
3.75169	39.8621
3.74898	39.7673
3.74627	39.6743
3.74356	39.5894
3.74086	39.4917
3.73816	39.3737
3.73547	39.2346
3.73278	39.1357
3.7301	39.0968
3.72741	38.9979
3.72474	38.8891
3.72206	38.7987
3.71939	38.6548
3.71673	38.5329
3.71406	38.4424
3.71141	38.3778
3.70875	38.3251
3.7061	38.2165
3.70345	38.1596
3.70081	38.1603
3.69817	38.0929
3.69553	38.0046
3.6929	37.942
3.69027	37.8778
3.68765	37.8721
3.68503	37.8425
3.68241	37.7929
3.6798	37.7916
3.67719	37.7635
3.67458	37.7326
3.67198	37.7183
3.66938	37.708
3.66678	37.8092
3.66419	37.8545
3.66161	37.7284
3.65902	37.6916
3.65644	37.7117
3.65387	37.6699
3.65129	37.6929
3.64872	37.6496
3.64616	37.5997
3.64359	37.5514
3.64103	37.4909
3.63848	37.48
3.63593	37.4023
3.63338	37.3129
3.63084	37.2757
3.6283	37.1993
3.62576	37.0086
3.62322	36.937
3.62069	36.9359
3.61817	36.8417
3.61564	36.7936
3.61312	36.6999
3.61061	36.5091
3.6081	36.3498
3.60559	36.2093
3.60308	36.1154
3.60058	35.9984
3.59808	35.8738
3.59558	35.7719
3.59309	35.7265
3.59061	35.5819
3.58812	35.4104
3.58564	35.2965
3.58316	35.1568
3.58069	35.0388
3.57822	34.9274
3.57575	34.8475
3.57328	34.7349
3.57082	34.4719
3.56836	34.3469
3.56591	34.3432
3.56346	34.1788
3.56101	33.9856
3.55857	33.8921
3.55613	33.7877
3.55369	33.685
3.55126	33.5565
3.54883	33.3762
3.5464	33.2058
3.54397	33.0104
3.54155	32.78
3.53914	32.6003
3.53672	32.3961
3.53431	32.1065
3.5319	31.7996
3.5295	31.5273
3.5271	31.2456
3.5247	30.9352
3.52231	30.5153
3.51991	30.1398
3.51753	29.8748
3.51514	29.635
3.51276	29.3665
3.51038	29.1601
3.50801	28.9299
3.50563	28.5824
3.50327	28.2756
3.5009	28.078
3.49854	27.8425
3.49618	27.6465
3.49382	27.5224
3.49147	27.3076
3.48912	27.0491
3.48677	26.8186
3.48443	26.6319
3.48209	26.4504
3.47975	26.3137
3.47742	26.2172
3.47509	26.1284
3.47276	26.0748
3.47044	26.0466
3.46812	26.0167
3.4658	25.9398
