Name: Olivine Gabbro
Type: Rock
Class: Igneous
Subclass:  Mafic 
Particle Size: Solid surface
Sample No.: Ward39.txt
Owner: JPL
Wavelength range:  IR 
Origin: Ward's Collection of American Rocks.  Sample locality - Wichita Mountains, Oklahoma.
Collected by:  Ward's Natural Science
Description: The hand specimen is a medium grained dark gray rock
consisting of about 65% of well twinned plagioclase and 35% brownish
olivine.  Minor pyroxene and small grains of magnetite are noted.



Measurement: Hemispherical reflectance
First Column: X
Second Column: Y
X Units: Wavelength (micrometers)
Y Units: Reflectance (percent)
First X Value: 15.3871
Last X Value: 1.9998
Number of X Values: 2257
Additional information: None

15.3871   5.25233
15.3416   4.57061
15.2964   4.50048
15.2514   4.69774
15.2066   4.53673
15.1622   4.36521
15.1180   4.30414
15.0740   4.19125
15.0303   4.14934
14.9869   4.55822
14.9437   4.63980
14.9008   4.38872
14.8581   4.50586
14.8156   4.69396
14.7734   4.45991
14.7314   4.31780
14.6897   4.25242
14.6482   4.12572
14.6069   3.91236
14.5659   3.79608
14.5251   3.92513
14.4845   3.98957
14.4442   4.18209
14.4041   4.12286
14.3642   4.12392
14.3245   4.12442
14.2850   4.06100
14.2458   4.17172
14.2068   4.28726
14.1679   4.14788
14.1293   4.21997
14.0909   4.42689
14.0528   4.43373
14.0148   4.37369
13.9770   4.45975
13.9394   4.54882
13.9021   4.47105
13.8649   4.45219
13.8279   4.54249
13.7911   4.60647
13.7546   4.57962
13.7182   4.64327
13.6820   4.77370
13.6460   4.83492
13.6101   4.69933
13.5745   4.60836
13.5391   4.66944
13.5038   4.76192
13.4687   4.82204
13.4339   4.72826
13.3991   4.62343
13.3646   4.70710
13.3302   4.78045
13.2961   4.77433
13.2621   4.55954
13.2282   4.37624
13.1946   4.42465
13.1611   4.55239
13.1278   4.47651
13.0946   4.30000
13.0616   4.34887
13.0288   4.51845
12.9962   4.44150
12.9637   4.60443
12.9313   4.64821
12.8992   4.52788
12.8672   4.55676
12.8353   4.63196
12.8036   4.51747
12.7721   4.43270
12.7407   4.35041
12.7095   4.27634
12.6784   4.38544
12.6475   4.55445
12.6167   4.67635
12.5861   4.70767
12.5556   4.86500
12.5253   5.03754
12.4951   5.08773
12.4651   5.25849
12.4352   5.43809
12.4054   5.46633
12.3758   5.56208
12.3463   5.82786
12.3170   6.09871
12.2878   6.14053
12.2588   6.16839
12.2299   6.30785
12.2011   6.46574
12.1725   6.56362
12.1439   6.52519
12.1156   6.54748
12.0873   6.77822
12.0592   6.98320
12.0312   7.04921
12.0034   7.05897
11.9757   7.31870
11.9481   7.48186
11.9206   7.47436
11.8933   7.50714
11.8661   7.47703
11.8390   7.48211
11.8120   7.59839
11.7852   7.84167
11.7584   8.05096
11.7318   8.18167
11.7053   8.29172
11.6790   8.52193
11.6527   8.71328
11.6266   8.94587
11.6006   9.18594
11.5747   9.22176
11.5489   9.34617
11.5233   9.58766
11.4977   9.83194
11.4723  10.11600
11.4469  10.40650
11.4217  10.70140
11.3966  10.92850
11.3716  11.29050
11.3468  11.45530
11.3220  11.57110
11.2973  11.83360
11.2728  12.07780
11.2483  12.32970
11.2240  12.45230
11.1997  12.56040
11.1756  12.72260
11.1515  12.90640
11.1276  13.10820
11.1038  13.28440
11.0801  13.55820
11.0564  13.84380
11.0329  14.04800
11.0095  14.27860
10.9862  14.60630
10.9629  14.74090
10.9398  14.77270
10.9168  14.82590
10.8938  15.06300
10.8710  15.32140
10.8483  15.51680
10.8256  15.76150
10.8031  15.85450
10.7806  15.78970
10.7582  15.83770
10.7360  15.84850
10.7138  15.81140
10.6917  15.93810
10.6697  16.01550
10.6478  15.92760
10.6260  15.84400
10.6042  15.75830
10.5826  15.65620
10.5610  15.50530
10.5396  15.33690
10.5182  15.26390
10.4969  15.14320
10.4757  15.07220
10.4546  15.01690
10.4335  14.93460
10.4126  14.86110
10.3917  14.79310
10.3709  14.71800
10.3502  14.59020
10.3296  14.37720
10.3091  14.27750
10.2886  14.34020
10.2683  14.39450
10.2480  14.35720
10.2277  14.31630
10.2076  14.27460
10.1876  14.15950
10.1676  14.13190
10.1477  14.26000
10.1279  14.37970
10.1081  14.45760
10.0885  14.61170
10.0689  14.81800
10.0494  14.96600
10.0299  14.98670
10.0106  15.03670
 9.9913  14.98120
 9.9720  14.87660
 9.9529  14.84020
 9.9338  14.83200
 9.9148  14.78470
 9.8959  14.83940
 9.8771  14.92930
 9.8583  14.96780
 9.8396  14.91540
 9.8210  14.81830
 9.8024  14.84150
 9.7839  14.82320
 9.7655  14.68040
 9.7471  14.60970
 9.7288  14.56710
 9.7106  14.46230
 9.6925  14.33350
 9.6744  14.22230
 9.6564  14.11630
 9.6384  13.93470
 9.6205  13.70140
 9.6027  13.32710
 9.5850  13.18190
 9.5673  13.13120
 9.5497  12.81050
 9.5321  12.41490
 9.5146  12.19200
 9.4972  11.92920
 9.4798  11.65190
 9.4625  11.42640
 9.4453  11.23040
 9.4281  10.82210
 9.4110  10.56560
 9.3940  10.23880
 9.3770   9.89705
 9.3600   9.62309
 9.3432   9.30390
 9.3264   9.20218
 9.3096   8.93843
 9.2930   8.68844
 9.2763   8.56581
 9.2598   8.40623
 9.2432   8.12077
 9.2268   8.10337
 9.2104   8.27392
 9.1941   8.29087
 9.1778   8.33751
 9.1616   8.54258
 9.1454   8.61991
 9.1293   8.55413
 9.1133   8.76229
 9.0973   9.09720
 9.0814   9.10291
 9.0655   9.16885
 9.0497   9.29697
 9.0339   9.45337
 9.0182   9.68246
 9.0025   9.78247
 8.9870   9.66662
 8.9714   9.78928
 8.9559   9.91252
 8.9405   9.67838
 8.9251   9.54104
 8.9097   9.41488
 8.8945   9.25446
 8.8792   9.10925
 8.8641   9.00633
 8.8489   8.98178
 8.8338   8.98299
 8.8188   8.84413
 8.8039   8.86412
 8.7889   8.74653
 8.7741   8.62178
 8.7592   8.60392
 8.7445   8.58781
 8.7297   8.41455
 8.7151   8.18243
 8.7005   8.00622
 8.6859   7.80294
 8.6714   7.51475
 8.6569   7.44511
 8.6425   7.44469
 8.6281   7.33927
 8.6137   7.29602
 8.5994   7.14161
 8.5852   6.84600
 8.5710   6.88167
 8.5569   6.83504
 8.5428   6.56772
 8.5287   6.37878
 8.5147   6.28076
 8.5008   6.21836
 8.4869   6.16472
 8.4730   6.01994
 8.4592   5.97734
 8.4454   5.97874
 8.4316   5.89218
 8.4180   5.66722
 8.4043   5.34473
 8.3907   5.13386
 8.3772   5.07996
 8.3637   4.98934
 8.3502   4.74482
 8.3368   4.49077
 8.3234   4.24111
 8.3100   3.88812
 8.2967   3.50449
 8.2835   3.13503
 8.2703   2.95695
 8.2571   2.78727
 8.2440   2.47869
 8.2309   2.30178
 8.2179   2.08351
 8.2049   1.85659
 8.1919   1.78974
 8.1790   1.80333
 8.1661   1.61380
 8.1532   1.39066
 8.1404   1.42903
 8.1277   1.46025
 8.1150   1.37402
 8.1023   1.30766
 8.0897   1.37956
 8.0770   1.46146
 8.0645   1.40839
 8.0520   1.38211
 8.0395   1.27024
 8.0270   1.26279
 8.0146   1.30332
 8.0023   1.25761
 7.9899   1.30029
 7.9776   1.24439
 7.9654   1.19467
 7.9532   1.19112
 7.9410   1.22274
 7.9288   1.20511
 7.9167   1.22000
 7.9047   1.22810
 7.8926   1.30575
 7.8807   1.36363
 7.8687   1.29705
 7.8568   1.35391
 7.8449   1.39816
 7.8330   1.36827
 7.8212   1.28697
 7.8094   1.31816
 7.7977   1.36739
 7.7860   1.36976
 7.7743   1.34004
 7.7627   1.33936
 7.7511   1.44639
 7.7395   1.52792
 7.7280   1.56842
 7.7165   1.59174
 7.7050   1.59672
 7.6936   1.61187
 7.6822   1.52692
 7.6708   1.48460
 7.6595   1.55321
 7.6482   1.56675
 7.6369   1.53170
 7.6257   1.57720
 7.6145   1.65256
 7.6033   1.65509
 7.5922   1.65410
 7.5811   1.62020
 7.5700   1.71059
 7.5590   1.77355
 7.5480   1.72921
 7.5370   1.62374
 7.5261   1.54515
 7.5152   1.64062
 7.5043   1.75347
 7.4935   1.91092
 7.4826   2.00097
 7.4718   1.92312
 7.4611   1.86744
 7.4504   1.94365
 7.4397   1.94114
 7.4290   1.89187
 7.4184   1.94863
 7.4078   1.99106
 7.3972   2.00836
 7.3867   1.97087
 7.3762   1.90545
 7.3657   1.99570
 7.3553   2.08718
 7.3449   2.07678
 7.3345   2.01926
 7.3241   2.06807
 7.3138   2.16984
 7.3035   2.15543
 7.2932   2.07700
 7.2830   2.01890
 7.2727   2.12306
 7.2626   2.20028
 7.2524   2.17058
 7.2423   2.12722
 7.2322   2.14425
 7.2221   2.24094
 7.2120   2.27921
 7.2020   2.29098
 7.1921   2.32476
 7.1821   2.28187
 7.1722   2.30821
 7.1623   2.35596
 7.1524   2.45391
 7.1425   2.45338
 7.1327   2.36431
 7.1229   2.40702
 7.1131   2.42992
 7.1034   2.43616
 7.0937   2.57216
 7.0840   2.60637
 7.0743   2.49142
 7.0647   2.46059
 7.0551   2.58932
 7.0455   2.59371
 7.0359   2.54243
 7.0264   2.54152
 7.0169   2.46743
 7.0074   2.53533
 6.9979   2.61805
 6.9885   2.65072
 6.9791   2.64414
 6.9697   2.55762
 6.9604   2.57184
 6.9510   2.61345
 6.9417   2.69005
 6.9324   2.66507
 6.9232   2.61222
 6.9140   2.61126
 6.9047   2.63718
 6.8956   2.67998
 6.8864   2.74972
 6.8773   2.76021
 6.8682   2.75065
 6.8591   2.74987
 6.8500   2.69192
 6.8410   2.67060
 6.8320   2.76929
 6.8230   2.87357
 6.8140   2.82831
 6.8051   2.72303
 6.7962   2.64451
 6.7873   2.66891
 6.7784   2.77031
 6.7695   2.89192
 6.7607   2.84181
 6.7519   2.81696
 6.7431   2.82338
 6.7344   2.85537
 6.7256   2.97888
 6.7169   3.01337
 6.7082   2.95111
 6.6996   2.96374
 6.6909   2.95213
 6.6823   2.91128
 6.6737   2.93980
 6.6651   2.89973
 6.6566   2.89635
 6.6480   2.97353
 6.6395   2.98658
 6.6310   2.97663
 6.6226   2.98013
 6.6141   3.01433
 6.6057   3.01970
 6.5973   2.97616
 6.5889   3.02176
 6.5805   3.14544
 6.5722   3.16084
 6.5639   3.07441
 6.5556   3.08739
 6.5473   3.08870
 6.5390   3.02201
 6.5308   3.02295
 6.5226   3.06397
 6.5144   3.07732
 6.5062   3.08802
 6.4981   3.19833
 6.4900   3.29207
 6.4818   3.25705
 6.4737   3.20822
 6.4657   3.18113
 6.4576   3.18760
 6.4496   3.13898
 6.4416   3.17760
 6.4336   3.27682
 6.4256   3.23486
 6.4177   3.15838
 6.4097   3.17309
 6.4018   3.14273
 6.3939   3.16047
 6.3860   3.19110
 6.3782   3.22717
 6.3704   3.22075
 6.3625   3.19296
 6.3547   3.23648
 6.3470   3.17493
 6.3392   3.09861
 6.3315   3.16541
 6.3237   3.25026
 6.3160   3.23725
 6.3083   3.17109
 6.3007   3.21335
 6.2930   3.25203
 6.2854   3.27936
 6.2778   3.22372
 6.2702   3.09856
 6.2626   3.14766
 6.2551   3.26250
 6.2476   3.18922
 6.2400   3.14314
 6.2325   3.24516
 6.2251   3.14737
 6.2176   3.21067
 6.2101   3.30292
 6.2027   3.32326
 6.1953   3.36882
 6.1879   3.27122
 6.1805   3.12438
 6.1732   3.16372
 6.1658   3.22043
 6.1585   3.26054
 6.1512   3.31860
 6.1439   3.30611
 6.1367   3.18066
 6.1294   3.15588
 6.1222   3.20061
 6.1149   3.27735
 6.1077   3.30158
 6.1006   3.23374
 6.0934   3.22472
 6.0862   3.31905
 6.0791   3.40352
 6.0720   3.32203
 6.0649   3.24416
 6.0578   3.19891
 6.0507   3.18274
 6.0437   3.26615
 6.0366   3.29017
 6.0296   3.23741
 6.0226   3.26576
 6.0156   3.28104
 6.0087   3.23008
 6.0017   3.15805
 5.9948   3.18218
 5.9878   3.28700
 5.9809   3.28539
 5.9740   3.17740
 5.9672   3.13554
 5.9603   3.25884
 5.9535   3.37235
 5.9466   3.31816
 5.9398   3.31068
 5.9330   3.32112
 5.9262   3.27555
 5.9195   3.25435
 5.9127   3.24960
 5.9060   3.28415
 5.8993   3.32962
 5.8926   3.34945
 5.8859   3.42964
 5.8792   3.40195
 5.8726   3.26622
 5.8659   3.31000
 5.8593   3.40583
 5.8527   3.36828
 5.8461   3.39266
 5.8395   3.49843
 5.8329   3.44749
 5.8264   3.39622
 5.8198   3.45114
 5.8133   3.49594
 5.8068   3.49611
 5.8003   3.49669
 5.7938   3.49628
 5.7874   3.47216
 5.7809   3.46047
 5.7745   3.46303
 5.7680   3.59037
 5.7616   3.70982
 5.7552   3.68086
 5.7489   3.60153
 5.7425   3.52535
 5.7361   3.48576
 5.7298   3.58370
 5.7235   3.66462
 5.7172   3.65870
 5.7109   3.64464
 5.7046   3.62495
 5.6983   3.58774
 5.6921   3.64616
 5.6858   3.67891
 5.6796   3.71510
 5.6734   3.72436
 5.6672   3.73786
 5.6610   3.76819
 5.6548   3.74537
 5.6487   3.72379
 5.6425   3.85825
 5.6364   3.94006
 5.6303   3.83494
 5.6242   3.79646
 5.6181   3.81010
 5.6120   3.77017
 5.6059   3.77484
 5.5999   3.76880
 5.5938   3.79007
 5.5878   3.81908
 5.5818   3.91980
 5.5758   3.95231
 5.5698   3.82971
 5.5638   3.72849
 5.5578   3.78108
 5.5519   3.86897
 5.5460   3.93530
 5.5400   3.99385
 5.5341   3.95474
 5.5282   3.87110
 5.5223   3.91315
 5.5164   3.94044
 5.5106   3.94214
 5.5047   3.89952
 5.4989   3.91431
 5.4931   3.96904
 5.4873   3.99681
 5.4815   3.97730
 5.4757   4.04858
 5.4699   4.08852
 5.4641   4.07960
 5.4584   4.03405
 5.4527   4.01735
 5.4469   4.03096
 5.4412   4.09908
 5.4355   4.10357
 5.4298   4.12772
 5.4241   4.07121
 5.4185   4.08004
 5.4128   4.10381
 5.4072   4.09026
 5.4015   4.09151
 5.3959   4.14753
 5.3903   4.18625
 5.3847   4.20605
 5.3791   4.20186
 5.3735   4.21189
 5.3680   4.18153
 5.3624   4.16479
 5.3569   4.16063
 5.3514   4.15058
 5.3458   4.21437
 5.3403   4.27324
 5.3348   4.30892
 5.3294   4.29658
 5.3239   4.28966
 5.3184   4.28711
 5.3130   4.21335
 5.3075   4.19064
 5.3021   4.32737
 5.2967   4.34017
 5.2913   4.28103
 5.2859   4.34228
 5.2805   4.41859
 5.2751   4.38489
 5.2698   4.42066
 5.2644   4.43944
 5.2591   4.44020
 5.2538   4.44393
 5.2485   4.44786
 5.2431   4.40235
 5.2378   4.38083
 5.2326   4.43510
 5.2273   4.47216
 5.2220   4.46951
 5.2168   4.51504
 5.2115   4.50575
 5.2063   4.47882
 5.2011   4.47824
 5.1959   4.48885
 5.1907   4.52686
 5.1855   4.54234
 5.1803   4.47890
 5.1751   4.49025
 5.1700   4.57940
 5.1648   4.60296
 5.1597   4.62908
 5.1545   4.64417
 5.1494   4.61282
 5.1443   4.61525
 5.1392   4.66409
 5.1341   4.73756
 5.1291   4.80061
 5.1240   4.82277
 5.1189   4.76967
 5.1139   4.66504
 5.1088   4.67565
 5.1038   4.73693
 5.0988   4.72976
 5.0938   4.71277
 5.0888   4.78399
 5.0838   4.86792
 5.0788   4.86411
 5.0738   4.84637
 5.0689   4.82051
 5.0639   4.88151
 5.0590   4.94310
 5.0541   4.85462
 5.0491   4.84302
 5.0442   4.95203
 5.0393   4.99018
 5.0344   4.94572
 5.0296   4.85722
 5.0247   4.80204
 5.0198   4.84779
 5.0150   4.88709
 5.0101   4.89543
 5.0053   5.00111
 5.0004   4.98781
 4.9956   4.90399
 4.9908   4.96903
 4.9860   5.06001
 4.9812   5.03948
 4.9765   4.97112
 4.9717   5.05095
 4.9669   5.16271
 4.9622   5.16506
 4.9574   5.07673
 4.9527   5.07595
 4.9480   5.05898
 4.9432   5.09360
 4.9385   5.15178
 4.9338   5.18257
 4.9291   5.17019
 4.9245   5.19596
 4.9198   5.24374
 4.9151   5.24389
 4.9105   5.17412
 4.9058   5.17936
 4.9012   5.21675
 4.8966   5.22805
 4.8919   5.22722
 4.8873   5.20316
 4.8827   5.13709
 4.8781   5.11567
 4.8736   5.22518
 4.8690   5.35081
 4.8644   5.32930
 4.8599   5.24881
 4.8553   5.22841
 4.8508   5.27510
 4.8462   5.27807
 4.8417   5.27771
 4.8372   5.31172
 4.8327   5.38292
 4.8282   5.35433
 4.8237   5.37291
 4.8192   5.38285
 4.8147   5.39395
 4.8103   5.44919
 4.8058   5.43533
 4.8014   5.32929
 4.7969   5.38941
 4.7925   5.40099
 4.7881   5.36708
 4.7836   5.34476
 4.7792   5.46381
 4.7748   5.60471
 4.7704   5.51747
 4.7660   5.43441
 4.7617   5.47869
 4.7573   5.45166
 4.7530   5.46217
 4.7486   5.53614
 4.7443   5.54325
 4.7399   5.51452
 4.7356   5.48354
 4.7313   5.51347
 4.7270   5.54726
 4.7226   5.59198
 4.7184   5.66599
 4.7141   5.76584
 4.7098   5.71350
 4.7055   5.69651
 4.7012   5.70249
 4.6970   5.57563
 4.6927   5.50858
 4.6885   5.54214
 4.6842   5.54508
 4.6800   5.59634
 4.6758   5.68694
 4.6716   5.72618
 4.6674   5.75686
 4.6632   5.82760
 4.6590   5.83256
 4.6548   5.80347
 4.6506   5.76754
 4.6465   5.69755
 4.6423   5.75019
 4.6382   5.86511
 4.6340   5.85415
 4.6299   5.84340
 4.6258   5.88605
 4.6216   5.89756
 4.6175   5.90240
 4.6134   5.91291
 4.6093   5.94309
 4.6052   5.95615
 4.6011   6.00144
 4.5971   6.04629
 4.5930   6.02795
 4.5889   6.01422
 4.5849   6.05827
 4.5808   6.03440
 4.5768   6.05018
 4.5727   6.15236
 4.5687   6.19342
 4.5647   6.13177
 4.5607   6.08103
 4.5567   6.15061
 4.5526   6.06972
 4.5487   6.04590
 4.5447   6.13595
 4.5407   6.15015
 4.5367   6.24364
 4.5328   6.31909
 4.5288   6.30391
 4.5248   6.27692
 4.5209   6.27203
 4.5170   6.19851
 4.5130   6.09588
 4.5091   6.11248
 4.5052   6.18790
 4.5013   6.33604
 4.4974   6.44009
 4.4935   6.40407
 4.4896   6.38122
 4.4857   6.41230
 4.4818   6.42535
 4.4779   6.36278
 4.4741   6.32746
 4.4702   6.31073
 4.4664   6.29726
 4.4625   6.39944
 4.4587   6.47079
 4.4549   6.48314
 4.4510   6.53808
 4.4472   6.49335
 4.4434   6.46822
 4.4396   6.52807
 4.4358   6.49452
 4.4320   6.47931
 4.4282   6.62475
 4.4245   6.65610
 4.4207   6.50028
 4.4169   6.41839
 4.4132   6.49819
 4.4094   6.56313
 4.4057   6.55259
 4.4019   6.52810
 4.3982   6.52343
 4.3945   6.55081
 4.3907   6.59843
 4.3870   6.65397
 4.3833   6.74453
 4.3796   6.72550
 4.3759   6.71634
 4.3722   6.69731
 4.3685   6.64046
 4.3649   6.58003
 4.3612   6.49028
 4.3575   6.56629
 4.3539   6.69746
 4.3502   6.72380
 4.3466   6.77661
 4.3429   6.72704
 4.3393   6.67485
 4.3357   6.76457
 4.3320   6.84106
 4.3284   6.85377
 4.3248   6.89662
 4.3212   7.00236
 4.3176   6.97731
 4.3140   6.94197
 4.3105   6.92204
 4.3069   6.90172
 4.3033   6.92203
 4.2997   6.92575
 4.2962   6.97223
 4.2926   6.98261
 4.2890   6.99797
 4.2855   7.06661
 4.2820   7.09646
 4.2784   7.05325
 4.2749   7.02791
 4.2714   7.09231
 4.2679   7.13488
 4.2644   7.15767
 4.2609   7.13144
 4.2574   7.18238
 4.2539   7.26441
 4.2504   7.23152
 4.2469   7.33746
 4.2434   7.40508
 4.2400   7.32996
 4.2365   7.25304
 4.2330   7.28083
 4.2296   7.34668
 4.2261   7.34890
 4.2227   7.24438
 4.2193   7.21926
 4.2158   7.33807
 4.2124   7.42776
 4.2090   7.46259
 4.2056   7.36664
 4.2022   7.35722
 4.1988   7.36469
 4.1954   7.33092
 4.1920   7.44220
 4.1886   7.47401
 4.1852   7.48597
 4.1818   7.48728
 4.1785   7.51786
 4.1751   7.49549
 4.1717   7.37677
 4.1684   7.37110
 4.1650   7.52419
 4.1617   7.53017
 4.1584   7.52150
 4.1550   7.57858
 4.1517   7.65252
 4.1484   7.69873
 4.1451   7.61036
 4.1418   7.49382
 4.1384   7.57668
 4.1351   7.57673
 4.1319   7.58740
 4.1286   7.63126
 4.1253   7.61324
 4.1220   7.64533
 4.1187   7.72491
 4.1155   7.64584
 4.1122   7.62283
 4.1089   7.66106
 4.1057   7.62688
 4.1024   7.66555
 4.0992   7.74731
 4.0959   7.69355
 4.0927   7.68557
 4.0895   7.75919
 4.0863   7.78111
 4.0830   7.73471
 4.0798   7.75251
 4.0766   7.81569
 4.0734   7.82487
 4.0702   7.61505
 4.0670   7.65278
 4.0639   7.78089
 4.0607   7.77862
 4.0575   7.86153
 4.0543   7.91988
 4.0511   7.82538
 4.0480   7.70668
 4.0448   7.75836
 4.0417   7.86746
 4.0385   7.87854
 4.0354   7.90401
 4.0323   7.90801
 4.0291   7.91055
 4.0260   7.85207
 4.0229   7.66670
 4.0197   7.71705
 4.0166   7.83172
 4.0135   7.95303
 4.0104   8.03063
 4.0073   7.95801
 4.0042   7.77547
 4.0011   7.67639
 3.9981   7.63099
 3.9950   7.86223
 3.9919   8.08511
 3.9888   8.02923
 3.9857   7.89630
 3.9827   7.90531
 3.9796   7.94857
 3.9766   7.92070
 3.9735   7.83019
 3.9705   7.77542
 3.9675   7.79873
 3.9644   7.96547
 3.9614   8.03680
 3.9584   8.00976
 3.9554   7.93692
 3.9523   7.91714
 3.9493   7.93158
 3.9463   7.99313
 3.9433   8.00745
 3.9403   7.96365
 3.9373   7.94592
 3.9343   7.94769
 3.9314   7.95801
 3.9284   7.98671
 3.9254   8.01389
 3.9224   8.03632
 3.9195   8.04181
 3.9165   7.99506
 3.9136   7.90502
 3.9106   7.91300
 3.9077   8.00948
 3.9047   8.02601
 3.9018   7.93051
 3.8988   7.87805
 3.8959   7.87812
 3.8930   7.91710
 3.8901   7.93854
 3.8872   8.08649
 3.8842   8.13895
 3.8813   8.04982
 3.8784   7.98694
 3.8755   7.92823
 3.8726   7.94475
 3.8697   7.97928
 3.8669   7.86858
 3.8640   7.96547
 3.8611   8.03545
 3.8582   7.98381
 3.8554   7.96125
 3.8525   8.03486
 3.8496   8.11331
 3.8468   8.06138
 3.8439   7.97460
