Name: Vesuvianite Ca_10(Mg,Fe^2+)_2Al_4(Si_2O_7)_2(SiO_4)_5(OH,F)_4
Type: Mineral
Class: Silicates
Subclass: Sorosilicate
Particle Size: 45-125um
Sample No.: SS-3A
Owner: JPL
Wavelength range: IR
Origin: USA, California, Riverside County, Crestmore Quarry
Collected by Burminco
Description: 





Measurement: Hemispherical reflectance
First Column: X
Second Column: Y
X Units:  Wavelength (micrometers)
Y Units:  Reflectance (percent)
First X Value: 15.3853
Last X Value: 2.00032
Number of X Values: 2256
Additional information: ss03aa.txt
 
15.3853	1.98396
15.3397	2.15378
15.2945	2.09581
15.2495	2.07684
15.2048	1.99224
15.1603	2.10622
15.1161	2.25699
15.0722	2.24669
15.0285	2.23641
14.9851	2.15225
14.9419	2.14348
14.8989	2.15644
14.8563	2.18801
14.8138	2.37501
14.7716	2.40613
14.7296	2.39579
14.6879	2.44788
14.6464	2.61627
14.6052	2.57545
14.5641	2.36212
14.5233	2.32828
14.4828	2.45274
14.4424	2.26259
14.4023	2.1837
14.3624	2.27541
14.3227	2.32436
14.2833	2.28774
14.244	2.325
14.205	2.40775
14.1662	2.38093
14.1276	2.3203
14.0892	2.31266
14.051	2.42407
14.0131	2.50385
13.9753	2.35537
13.9377	2.3239
13.9004	2.46986
13.8632	2.73852
13.8262	2.97253
13.7895	3.17307
13.7529	3.45863
13.7165	3.69212
13.6803	3.68837
13.6443	3.64445
13.6085	3.73675
13.5729	3.95402
13.5374	3.96007
13.5022	4.03256
13.4671	4.09172
13.4322	4.12378
13.3975	4.1387
13.363	4.24435
13.3286	4.37809
13.2944	4.61146
13.2604	4.65451
13.2266	4.37292
13.193	4.466
13.1595	4.69405
13.1262	4.6843
13.093	4.72708
13.06	4.89585
13.0272	5.05416
12.9946	5.17004
12.9621	5.14587
12.9298	5.14458
12.8976	5.27705
12.8656	5.54616
12.8337	5.73666
12.8021	5.77302
12.7705	5.81403
12.7391	5.94666
12.7079	6.12699
12.6769	6.19051
12.6459	6.34144
12.6152	6.32504
12.5845	6.23293
12.5541	6.20432
12.5238	6.20589
12.4936	6.28417
12.4635	6.25358
12.4337	6.17852
12.4039	6.11523
12.3743	6.09383
12.3448	5.99374
12.3155	5.96933
12.2863	6.0081
12.2573	6.0636
12.2284	6.18066
12.1996	6.36399
12.171	6.53539
12.1425	6.72481
12.1141	6.72015
12.0859	6.68793
12.0578	6.86476
12.0298	7.19412
12.0019	7.38515
11.9742	7.31327
11.9466	7.41637
11.9192	7.70362
11.8918	7.69564
11.8646	7.57254
11.8375	7.59296
11.8106	7.55977
11.7837	7.58566
11.757	7.82294
11.7304	8.04811
11.7039	8.07421
11.6776	8.03682
11.6513	8.14255
11.6252	8.12979
11.5992	8.04946
11.5733	8.08823
11.5475	8.05962
11.5219	8.05528
11.4963	8.21426
11.4709	8.43741
11.4455	8.5957
11.4203	8.84572
11.3952	9.06375
11.3702	9.35226
11.3454	9.51673
11.3206	9.52944
11.2959	9.53321
11.2714	9.52187
11.2469	9.40773
11.2226	9.09471
11.1983	8.88194
11.1742	8.80361
11.1502	8.83655
11.1263	8.91791
11.1024	8.90628
11.0787	8.76949
11.0551	8.77489
11.0316	9.03667
11.0081	9.38457
10.9848	9.55388
10.9616	9.84013
10.9385	10.2062
10.9154	10.4191
10.8925	10.3324
10.8697	10.2171
10.8469	9.97674
10.8243	9.73467
10.8017	9.54548
10.7793	9.3868
10.7569	9.0851
10.7346	8.80285
10.7125	8.69005
10.6904	8.58329
10.6684	8.44747
10.6465	8.4659
10.6247	8.49148
10.6029	8.53104
10.5813	8.69378
10.5597	8.79474
10.5383	9.03547
10.5169	9.30364
10.4956	9.44944
10.4744	9.7129
10.4533	9.986
10.4323	10.2431
10.4113	10.3752
10.3904	10.4608
10.3697	10.558
10.349	10.5643
10.3284	10.6182
10.3078	10.5839
10.2874	10.505
10.267	10.4116
10.2467	10.267
10.2265	9.98524
10.2064	9.73671
10.1863	9.56789
10.1663	9.45134
10.1464	9.27873
10.1266	9.02098
10.1069	8.88329
10.0872	8.85036
10.0676	8.7208
10.0481	8.77714
10.0287	9.11215
10.0093	9.42999
9.99005	9.82594
9.97084	10.5071
9.95169	11.2868
9.93263	12.0888
9.91364	12.9968
9.89472	13.8069
9.87587	14.5776
9.8571	15.438
9.83839	16.3238
9.81976	17.3025
9.80119	18.0514
9.78271	18.4581
9.76428	18.8925
9.74592	19.2528
9.72764	19.3697
9.70943	19.4982
9.69128	19.4179
9.6732	19.2796
9.65518	19.0161
9.63724	18.6135
9.61935	18.2328
9.60155	17.774
9.5838	16.9696
9.56611	16.052
9.5485	15.219
9.53094	14.2327
9.51345	13.2576
9.49604	12.1957
9.47867	11.0228
9.46137	9.79846
9.44414	8.50573
9.42697	7.24856
9.40986	6.22544
9.39281	5.24787
9.37583	4.37647
9.35891	3.82322
9.34204	3.35082
9.32524	3.08596
9.3085	3.04877
9.29182	2.8104
9.27519	2.47478
9.25863	2.25771
9.24213	2.00194
9.22568	1.84011
9.2093	1.88
9.19297	1.92015
9.17669	1.9165
9.16048	1.89614
9.14433	1.92581
9.12823	1.95841
9.11218	1.80711
9.0962	1.68738
9.08027	1.6287
9.06439	1.6452
9.04858	1.5424
9.03281	1.49615
9.0171	1.57295
9.00145	1.53722
8.98585	1.539
8.9703	1.43813
8.9548	1.41057
8.93937	1.56131
8.92398	1.72758
8.90865	1.63282
8.89337	1.50526
8.87814	1.46861
8.86296	1.52095
8.84784	1.58276
8.83277	1.56482
8.81774	1.45192
8.80277	1.36488
8.78786	1.39574
8.77298	1.27222
8.75816	1.22577
8.7434	1.2743
8.72868	1.22657
8.714	1.17983
8.69938	1.16847
8.68481	1.26621
8.67029	1.34799
8.65581	1.46395
8.64139	1.55026
8.62701	1.37842
8.61268	1.27721
8.5984	1.2662
8.58416	1.33217
8.56997	1.47009
8.55583	1.50476
8.54174	1.5273
8.52769	1.64802
8.51368	1.79166
8.49973	1.74707
8.48582	1.6117
8.47195	1.76456
8.45813	1.85134
8.44436	1.85803
8.43062	1.8773
8.41693	1.96546
8.4033	2.16744
8.3897	2.33973
8.37614	2.37925
8.36264	2.40408
8.34917	2.50071
8.33574	2.57362
8.32236	2.64955
8.30903	2.73109
8.29573	2.78809
8.28248	2.73609
8.26927	2.75668
8.2561	2.86138
8.24298	3.06971
8.2299	3.14304
8.21685	3.09644
8.20385	3.14467
8.19089	3.26424
8.17797	3.27334
8.16509	3.29002
8.15225	3.30907
8.13946	3.38234
8.1267	3.45607
8.11398	3.4426
8.10131	3.48104
8.08867	3.50844
8.07606	3.52854
8.0635	3.62098
8.05099	3.63024
8.0385	3.64852
8.02606	3.78113
8.01366	3.90265
8.00129	3.99217
7.98896	3.9965
7.97667	3.96565
7.96442	3.96897
7.9522	4.0328
7.94002	4.05678
7.92788	3.99372
7.91578	3.9755
7.90371	4.04881
7.89168	4.014
7.87969	3.85809
7.86773	3.85367
7.85581	4.07703
7.84392	4.25268
7.83207	4.3058
7.82026	4.3518
7.80849	4.37903
7.79674	4.44921
7.78503	4.48908
7.77337	4.50025
7.76173	4.55465
7.75012	4.65718
7.73856	4.79983
7.72703	4.84546
7.71553	4.74511
7.70406	4.73033
7.69263	4.72648
7.68123	4.70514
7.66987	4.82842
7.65855	4.97812
7.64725	4.91651
7.63598	4.93192
7.62475	5.07552
7.61356	5.03846
7.60239	5.0157
7.59126	5.06581
7.58017	5.18361
7.5691	5.23525
7.55806	5.23164
7.54707	5.38305
7.5361	5.46956
7.52516	5.37105
7.51425	5.42721
7.50338	5.51074
7.49253	5.53675
7.48172	5.6182
7.47094	5.71918
7.46019	5.66983
7.44947	5.59237
7.43879	5.55617
7.42813	5.51939
7.4175	5.4534
7.4069	5.32202
7.39634	5.26298
7.3858	5.26361
7.37529	5.16539
7.36482	5.13542
7.35437	5.13206
7.34396	5.03126
7.33357	5.08193
7.32321	5.13065
7.31288	5.13685
7.30258	5.26451
7.29231	5.43983
7.28207	5.56188
7.27185	5.68901
7.26167	5.7985
7.25152	6.04886
7.24139	6.24983
7.23129	6.39327
7.22122	6.61092
7.21117	6.82484
7.20116	7.00786
7.19117	7.27818
7.18121	7.44964
7.17128	7.62265
7.16137	7.67546
7.1515	7.68509
7.14164	7.74499
7.13182	7.79318
7.12203	7.90188
7.11225	8.09401
7.10251	8.31948
7.0928	8.51902
7.08311	8.59278
7.07344	8.70659
7.06381	8.73566
7.0542	8.86924
7.04461	9.03599
7.03506	9.05676
7.02552	9.1671
7.01601	9.23866
7.00653	9.259
6.99708	9.46197
6.98765	9.74854
6.97824	9.85256
6.96886	9.99669
6.95951	10.153
6.95018	10.1265
6.94087	10.074
6.9316	10.0808
6.92234	10.1409
6.91311	10.1626
6.90391	10.0063
6.89473	9.6948
6.88557	9.32361
6.87644	8.86148
6.86733	8.56412
6.85824	7.98993
6.84918	7.29341
6.84015	6.90763
6.83114	6.8643
6.82215	6.84002
6.81319	6.7798
6.80424	6.88483
6.79532	7.08414
6.78643	7.23614
6.77756	7.4337
6.76871	7.65186
6.75989	7.87323
6.75109	8.28531
6.74231	8.85428
6.73355	9.47447
6.72482	10.1472
6.71611	10.7853
6.70742	11.3695
6.69875	11.8593
6.69011	12.4237
6.68149	13.0705
6.67289	13.3745
6.66431	13.4074
6.65576	13.5284
6.64722	14.0634
6.63871	14.7408
6.63022	14.663
6.62175	14.3506
6.61331	14.2418
6.60488	14.2146
6.59648	14.2852
6.5881	14.2803
6.57974	14.2873
6.5714	14.097
6.56308	13.4422
6.55478	12.9356
6.54651	12.4436
6.53825	11.9073
6.53001	11.3939
6.5218	11.0395
6.51361	10.529
6.50544	10.152
6.49729	10.1161
6.48915	9.77167
6.48104	9.16525
6.47295	8.63553
6.46488	8.18251
6.45683	7.70962
6.4488	7.19259
6.44079	6.68797
6.4328	6.17839
6.42482	5.78974
6.41687	5.63161
6.40894	5.27588
6.40103	4.84413
6.39314	4.71664
6.38526	4.8214
6.37741	5.09053
6.36957	5.53941
6.36176	6.08348
6.35396	6.72485
6.34618	7.53779
6.33843	8.11694
6.33069	8.61707
6.32297	9.22534
6.31527	9.73434
6.30758	10.2675
6.29992	10.7013
6.29227	11.0813
6.28465	11.3815
6.27704	11.5398
6.26945	11.6376
6.26188	11.7265
6.25432	11.7422
6.24679	11.7191
6.23927	11.762
6.23177	11.7074
6.22429	11.6495
6.21683	11.5727
6.20938	11.4339
6.20195	11.3205
6.19454	11.3437
6.18715	11.5706
6.17978	11.4555
6.17242	11.1382
6.16508	11.0165
6.15776	10.9287
6.15045	10.7244
6.14317	10.5902
6.1359	10.4915
6.12864	10.4416
6.12141	10.5244
6.11419	10.6148
6.10699	10.3989
6.0998	10.2242
6.09263	10.1237
6.08549	10.1276
6.07835	10.2776
6.07123	10.3034
6.06413	10.1687
6.05705	10.3588
6.04998	10.8156
6.04293	10.519
6.0359	10.0923
6.02888	10.047
6.02187	10.0837
6.01489	10.144
6.00792	10.13
6.00096	10.2414
5.99403	10.4595
5.98711	10.5534
5.9802	10.4902
5.97331	10.4986
5.96644	10.5067
5.95958	10.4827
5.95274	10.5756
5.94591	10.7655
5.9391	11.1205
5.9323	11.0514
5.92552	10.7734
5.91876	10.7803
5.91201	10.6833
5.90528	10.7373
5.89856	11.1084
5.89186	11.0646
5.88517	11.0352
5.8785	11.031
5.87184	10.7441
5.8652	10.7411
5.85857	10.6426
5.85196	10.4467
5.84536	10.3554
5.83878	10.3802
5.83221	10.4865
5.82566	10.6851
5.81912	10.6386
5.81259	10.3112
5.80608	10.1516
5.79959	10.1067
5.79311	9.99605
5.78665	9.88734
5.78019	9.82358
5.77376	9.83853
5.76734	10.0112
5.76093	9.74472
5.75453	9.52986
5.74815	9.53588
5.74179	9.37769
5.73543	9.27628
5.7291	9.19799
5.72277	9.19208
5.71646	9.21186
5.71017	9.23792
5.70389	9.07068
5.69762	8.94252
5.69136	8.89229
5.68513	8.80803
5.6789	8.83826
5.67268	8.86043
5.66648	8.75384
5.6603	8.68095
5.65413	8.71518
5.64797	8.79423
5.64182	8.78272
5.63569	8.58085
5.62957	8.46
5.62347	8.33487
5.61737	8.23225
5.61129	8.12189
5.60522	7.87423
5.59917	7.65678
5.59313	7.46243
5.5871	7.28581
5.58109	7.27097
5.57509	7.21673
5.5691	7.06811
5.56312	7.05744
5.55716	7.17031
5.55121	7.30121
5.54528	7.44494
5.53935	7.70528
5.53344	7.88412
5.52754	8.10644
5.52166	8.31654
5.51578	8.47625
5.50992	8.61413
5.50407	8.74267
5.49823	8.77323
5.49241	8.9059
5.4866	9.07926
5.4808	9.11136
5.47501	9.10401
5.46923	9.25496
5.46347	9.44633
5.45772	9.52577
5.45198	9.56035
5.44625	9.61297
5.44054	9.69634
5.43484	9.72464
5.42914	9.88045
5.42347	10.0775
5.4178	10.0916
5.41214	10.068
5.4065	10.0968
5.40087	10.1923
5.39525	10.2357
5.38964	10.2766
5.38404	10.3436
5.37846	10.3494
5.37288	10.362
5.36732	10.4313
5.36177	10.5874
5.35623	10.7177
5.35071	10.804
5.34519	10.8104
5.33968	10.8694
5.33419	10.9885
5.32871	11.0388
5.32324	11.0794
5.31778	11.1767
5.31233	11.3083
5.30689	11.4298
5.30147	11.4993
5.29605	11.5229
5.29065	11.6819
5.28525	11.8057
5.27987	11.8723
5.2745	11.9576
5.26914	12.0957
5.26379	12.2614
5.25845	12.4299
5.25312	12.519
5.24781	12.6558
5.2425	12.8157
5.23721	12.9818
5.23192	13.1333
5.22665	13.2729
5.22138	13.3767
5.21613	13.5906
5.21089	13.7934
5.20566	13.9034
5.20044	14.0603
5.19522	14.1631
5.19002	14.2978
5.18483	14.479
5.17965	14.6196
5.17448	14.8265
5.16933	14.9875
5.16418	15.0859
5.15904	15.2363
5.15391	15.4899
5.14879	15.73
5.14368	15.9286
5.13859	15.9925
5.1335	16.1108
5.12842	16.3965
5.12335	16.5985
5.1183	16.6919
5.11325	16.8108
5.10821	16.8933
5.10318	16.943
5.09817	17.0789
5.09316	17.3407
5.08816	17.5648
5.08317	17.8333
5.07819	18.1234
5.07322	18.3126
5.06826	18.4743
5.06331	18.6579
5.05837	18.8602
5.05344	19.0806
5.04852	19.3193
5.04361	19.5371
5.03871	19.6775
5.03382	19.8294
5.02894	20.0232
5.02406	20.3043
5.0192	20.5395
5.01435	20.6894
5.0095	20.8611
5.00467	21.0387
4.99984	21.2143
4.99502	21.3957
4.99021	21.5457
4.98542	21.7411
4.98063	21.9368
4.97585	22.0752
4.97108	22.1726
4.96632	22.4325
4.96156	22.6707
4.95682	22.8505
4.95209	23.0836
4.94736	23.2882
4.94264	23.4297
4.93794	23.6212
4.93324	23.8056
4.92855	23.927
4.92387	24.1134
4.9192	24.3211
4.91453	24.5058
4.90988	24.6478
4.90524	24.7552
4.9006	24.9434
4.89597	25.1225
4.89135	25.2754
4.88674	25.4451
4.88214	25.6352
4.87755	25.7896
4.87296	25.9204
4.86839	26.0681
4.86382	26.2429
4.85926	26.4235
4.85471	26.5391
4.85017	26.6108
4.84564	26.8012
4.84111	27.0341
4.8366	27.1765
4.83209	27.2745
4.82759	27.3901
4.8231	27.4758
4.81862	27.6209
4.81415	27.7769
4.80968	27.9593
4.80522	28.1318
4.80077	28.2177
4.79633	28.3342
4.7919	28.4867
4.78747	28.5996
4.78306	28.6878
4.77865	28.7063
4.77425	28.7909
4.76986	28.9136
4.76547	29.0192
4.7611	29.111
4.75673	29.1789
4.75237	29.2406
4.74802	29.3417
4.74367	29.4028
4.73934	29.4175
4.73501	29.3696
4.73069	29.4116
4.72638	29.4183
4.72207	29.4254
4.71777	29.3369
4.71348	29.1884
4.7092	28.9542
4.70493	28.8294
4.70066	28.7906
4.69641	28.7267
4.69216	28.6156
4.68791	28.5571
4.68368	28.5477
4.67945	28.4993
4.67523	28.4554
4.67102	28.4986
4.66682	28.575
4.66262	28.6873
4.65843	28.8185
4.65425	28.944
4.65007	29.0847
4.64591	29.2181
4.64175	29.4142
4.6376	29.6605
4.63345	29.8464
4.62932	29.9687
4.62519	30.0741
4.62106	30.1109
4.61695	30.1811
4.61284	30.3599
4.60874	30.4988
4.60465	30.533
4.60056	30.5665
4.59648	30.6162
4.59241	30.6342
4.58835	30.6879
4.58429	30.7075
4.58024	30.7072
4.5762	30.739
4.57216	30.8112
4.56814	30.8679
4.56411	30.8204
4.5601	30.7538
4.55609	30.8124
4.55209	30.9455
4.5481	31.0297
4.54411	31.084
4.54013	31.029
4.53616	30.9206
4.5322	30.972
4.52824	31.0758
4.52429	31.1083
4.52034	31.1588
4.51641	31.1958
4.51247	31.1925
4.50855	31.2277
4.50463	31.2257
4.50072	31.3153
4.49682	31.4536
4.49292	31.4804
4.48903	31.5239
4.48515	31.6392
4.48127	31.6871
4.4774	31.7073
4.47354	31.7806
4.46968	31.8526
4.46584	31.9415
4.46199	32.0306
4.45815	32.0464
4.45432	32.066
4.4505	32.1341
4.44668	32.1765
4.44287	32.2269
4.43907	32.2935
4.43527	32.3558
4.43148	32.3696
4.4277	32.4099
4.42392	32.5027
4.42015	32.5305
4.41638	32.5665
4.41262	32.5978
4.40887	32.5947
4.40513	32.6125
4.40139	32.7466
4.39765	32.7825
4.39393	32.7428
4.39021	32.7608
4.38649	32.7854
4.38278	32.8437
4.37908	32.9177
4.37539	32.9347
4.3717	32.906
4.36801	32.916
4.36434	32.9708
4.36067	32.9404
4.357	32.9223
4.35335	32.9525
4.34969	32.9352
4.34605	32.9105
4.34241	32.9588
4.33877	32.9804
4.33514	32.9364
4.33152	32.9303
4.32791	32.9658
4.3243	32.981
4.32069	32.9586
4.3171	32.9155
4.31351	32.9207
4.30992	32.9892
4.30634	32.9783
4.30277	32.9884
4.2992	32.9779
4.29564	32.9346
4.29208	32.9273
4.28853	33.0197
4.28499	33.0992
4.28145	33.049
4.27792	32.9869
4.27439	32.9723
4.27087	33.0521
4.26735	33.0715
4.26384	33.1169
4.26034	33.1505
4.25684	33.0922
4.25335	33.047
4.24986	32.967
4.24638	32.9457
4.24291	33.022
4.23944	32.9635
4.23598	32.8696
4.23252	32.8643
4.22906	32.9091
4.22562	32.9374
4.22218	32.9239
4.21874	32.964
4.21531	33.0224
4.21189	32.9923
4.20847	32.946
4.20506	32.9611
4.20165	33.0078
4.19825	33.0224
4.19485	33.0045
4.19146	32.9693
4.18807	32.9136
4.18469	32.8757
4.18132	32.8737
4.17795	32.8906
4.17458	32.8632
4.17123	32.7757
4.16787	32.8026
4.16453	32.7837
4.16118	32.7632
4.15785	32.7231
4.15451	32.6145
4.15119	32.5884
4.14787	32.5631
4.14455	32.5092
4.14124	32.4441
4.13794	32.3548
4.13464	32.3719
4.13134	32.3913
4.12805	32.2955
4.12477	32.2512
4.12149	32.2704
4.11822	32.1695
4.11495	32.0081
4.11168	31.9352
4.10843	31.8609
4.10517	31.7538
4.10192	31.6888
4.09868	31.6201
4.09545	31.5926
4.09221	31.5207
4.08899	31.4481
4.08576	31.3805
4.08255	31.2977
4.07933	31.1817
4.07613	31.0662
4.07292	30.929
4.06973	30.8227
4.06654	30.781
4.06335	30.6658
4.06017	30.517
4.05699	30.4163
4.05382	30.2294
4.05065	29.9195
4.04749	29.5617
4.04433	29.1185
4.04118	28.7255
4.03803	28.4129
4.03489	28.0832
4.03175	27.7157
4.02862	27.3891
4.02549	27.0766
4.02237	26.8607
4.01925	26.67
4.01614	26.3169
4.01303	25.9002
4.00993	25.4046
4.00683	24.9833
4.00373	24.7128
4.00064	24.4042
3.99756	24.2106
3.99448	23.9996
3.9914	23.7834
3.98833	23.6446
3.98527	23.5579
3.98221	23.4854
3.97915	23.4358
3.9761	23.3745
3.97305	23.4064
3.97001	23.4938
3.96697	23.5128
3.96394	23.5267
3.96091	23.6318
3.95789	23.8027
3.95487	23.8494
3.95186	24.032
3.94885	24.3415
3.94584	24.4992
3.94284	24.7068
3.93984	24.9307
3.93685	25.0051
3.93386	24.9244
3.93088	24.7864
3.9279	24.751
3.92493	24.8001
3.92196	24.8164
3.919	24.8245
3.91604	24.737
3.91308	24.6936
3.91013	24.6488
3.90718	24.5429
3.90424	24.4365
3.9013	24.4881
3.89837	24.4421
3.89544	24.3997
3.89252	24.5046
3.8896	24.4832
3.88668	24.4421
3.88377	24.491
3.88086	24.5077
3.87796	24.5567
3.87506	24.5758
3.87217	24.6136
3.86928	24.6355
3.86639	24.6802
3.86351	24.8164
3.86064	24.8069
3.85776	24.7798
3.8549	24.8724
3.85203	24.8558
3.84917	24.7967
3.84631	24.8502
3.84346	24.8692
3.84062	24.8925
3.83777	24.9476
3.83494	25.0597
3.8321	25.2689
3.82927	25.4323
3.82644	25.5703
3.82362	25.7357
3.82081	25.8993
3.81799	26.0897
3.81518	26.2001
3.81238	26.294
3.80958	26.4763
3.80678	26.6716
3.80399	26.879
3.8012	27.069
3.79841	27.1777
3.79563	27.3219
3.79286	27.4609
3.79008	27.5019
3.78731	27.5523
3.78455	27.6296
3.78179	27.6364
3.77903	27.6092
3.77628	27.6359
3.77353	27.5744
3.77079	27.4798
3.76805	27.4228
3.76531	27.3142
3.76258	27.1703
3.75985	27.1022
3.75713	27.0671
3.7544	27.0323
3.75169	26.9322
3.74898	26.8726
3.74627	26.8914
3.74356	26.8887
3.74086	26.9114
3.73816	26.9251
3.73547	26.8737
3.73278	26.8341
3.7301	26.7507
3.72741	26.7512
3.72474	26.6782
3.72206	26.5935
3.71939	26.5081
3.71673	26.4609
3.71406	26.398
3.71141	26.2994
3.70875	26.2824
3.7061	26.1885
3.70345	26.0187
3.70081	25.9583
3.69817	25.8961
3.69553	25.8615
3.6929	25.7566
3.69027	25.6886
3.68765	25.5935
3.68503	25.4349
3.68241	25.2791
3.6798	25.1759
3.67719	25.1172
3.67458	25.0867
3.67198	25.0089
3.66938	24.8968
3.66678	24.7681
3.66419	24.6344
3.66161	24.4988
3.65902	24.4499
3.65644	24.3329
3.65387	24.1284
3.65129	24.0263
3.64872	23.9354
3.64616	23.8869
3.64359	23.8455
3.64103	23.7264
3.63848	23.5869
3.63593	23.4684
3.63338	23.3086
3.63084	23.1526
3.6283	23.0289
3.62576	22.9085
3.62322	22.8476
3.62069	22.7866
3.61817	22.6149
3.61564	22.4036
3.61312	22.3325
3.61061	22.2075
3.6081	22.0381
3.60559	21.9873
3.60308	21.9067
3.60058	21.7651
3.59808	21.6134
3.59558	21.4663
3.59309	21.3101
3.59061	21.201
3.58812	21.0365
3.58564	20.829
3.58316	20.625
3.58069	20.4556
3.57822	20.3524
3.57575	20.1837
3.57328	20.0058
3.57082	19.902
3.56836	19.842
3.56591	19.7572
3.56346	19.5542
3.56101	19.3493
3.55857	19.2368
3.55613	19.1008
3.55369	18.9648
3.55126	18.8416
3.54883	18.7241
3.5464	18.5469
3.54397	18.3156
3.54155	18.0691
3.53914	17.9226
3.53672	17.7813
3.53431	17.5453
3.5319	17.2277
3.5295	16.8685
3.5271	16.51
3.5247	16.2372
3.52231	15.8854
3.51991	15.5243
3.51753	15.2128
3.51514	14.9704
3.51276	14.8133
3.51038	14.6756
3.50801	14.5618
3.50563	14.3727
3.50327	14.1768
3.5009	14.1117
3.49854	13.9735
3.49618	13.7748
3.49382	13.5506
3.49147	13.3027
3.48912	13.259
3.48677	13.2623
3.48443	13.1377
3.48209	12.9463
3.47975	12.8065
3.47742	12.6835
3.47509	12.6127
3.47276	12.6729
