Name: Glaucophane Na_2(Mg,Fe^2+)_3Al_2Si_8O_22(OH)_2
Type: Mineral
Class: Silicates
Subclass: Inosilicates
Particle Size: 45-125um
Sample No.: IN-3A
Owner: JPL
Wavelength range: IR
Origin: USA, California
Collected by Ward's
Description: 





Measurement: Hemispherical reflectance
First Column: X
Second Column: Y
X Units:  Wavelength (micrometers)
Y Units:  Reflectance (percent)
First X Value: 15.3853
Last X Value: 2.00032
Number of X Values: 2256
Additional information: in03aa.txt
 
15.3853	3.79607
15.3397	3.73253
15.2945	3.75545
15.2495	3.82812
15.2048	3.7844
15.1603	3.58786
15.1161	3.67748
15.0722	3.85489
15.0285	3.93231
14.9851	3.82874
14.9419	3.53349
14.8989	3.62169
14.8563	3.67451
14.8138	3.31168
14.7716	3.09176
14.7296	3.00392
14.6879	2.87256
14.6464	2.83319
14.6052	2.79679
14.5641	2.91693
14.5233	3.18122
14.4828	3.22177
14.4424	3.08855
14.4023	3.1451
14.3624	3.14737
14.3227	3.16918
14.2833	3.13644
14.244	3.05292
14.205	2.94493
14.1662	2.61852
14.1276	2.34847
14.0892	2.01923
14.051	1.92664
14.0131	1.9779
13.9753	1.73886
13.9377	1.61439
13.9004	1.85277
13.8632	2.09781
13.8262	2.22115
13.7895	2.23383
13.7529	2.14726
13.7165	2.0744
13.6803	2.24786
13.6443	2.28327
13.6085	2.21326
13.5729	2.40764
13.5374	2.43516
13.5022	2.44492
13.4671	2.4518
13.4322	2.59854
13.3975	2.75848
13.363	2.84674
13.3286	2.94293
13.2944	2.93511
13.2604	2.91473
13.2266	2.83082
13.193	2.79932
13.1595	2.97632
13.1262	3.1611
13.093	3.2832
13.06	3.25909
13.0272	3.3095
12.9946	3.34318
12.9621	3.38489
12.9298	3.48554
12.8976	3.68593
12.8656	3.95625
12.8337	4.03044
12.8021	4.05651
12.7705	4.25557
12.7391	4.48565
12.7079	4.73921
12.6769	4.98828
12.6459	5.17559
12.6152	5.39852
12.5845	5.44777
12.5541	5.18149
12.5238	4.83874
12.4936	4.25169
12.4635	3.79278
12.4337	3.47534
12.4039	3.30794
12.3743	3.22424
12.3448	3.30347
12.3155	3.43108
12.2863	3.4898
12.2573	3.53046
12.2284	3.71447
12.1996	3.9679
12.171	4.0887
12.1425	4.10428
12.1141	4.13125
12.0859	4.27056
12.0578	4.568
12.0298	4.63272
12.0019	4.70621
11.9742	4.82445
11.9466	4.83104
11.9192	4.97615
11.8918	5.02693
11.8646	5.03444
11.8375	5.0957
11.8106	5.18442
11.7837	5.33403
11.757	5.48054
11.7304	5.50418
11.7039	5.59444
11.6776	5.8825
11.6513	6.15137
11.6252	6.11245
11.5992	6.05568
11.5733	6.18791
11.5475	6.2876
11.5219	6.26929
11.4963	6.42902
11.4709	6.51863
11.4455	6.70229
11.4203	6.89006
11.3952	6.987
11.3702	7.13779
11.3454	7.26797
11.3206	7.45085
11.2959	7.39897
11.2714	7.31072
11.2469	7.37068
11.2226	7.3615
11.1983	7.35618
11.1742	7.46183
11.1502	7.66463
11.1263	7.68309
11.1024	7.43593
11.0787	7.34031
11.0551	7.53727
11.0316	7.75986
11.0081	7.69378
10.9848	7.69861
10.9616	7.89882
10.9385	7.91044
10.9154	7.82876
10.8925	7.93149
10.8697	8.16966
10.8469	8.31766
10.8243	8.46157
10.8017	8.71519
10.7793	8.90632
10.7569	8.98836
10.7346	9.2653
10.7125	9.65752
10.6904	9.92101
10.6684	10.2906
10.6465	10.6721
10.6247	10.9271
10.6029	11.2082
10.5813	11.5708
10.5597	12.0013
10.5383	12.4217
10.5169	12.8512
10.4956	13.1274
10.4744	13.3323
10.4533	13.5743
10.4323	13.9793
10.4113	14.341
10.3904	14.5544
10.3697	14.7824
10.349	15.0161
10.3284	15.261
10.3078	15.581
10.2874	15.8091
10.267	15.896
10.2467	16.0823
10.2265	16.1828
10.2064	16.1806
10.1863	16.0973
10.1663	15.9902
10.1464	15.9045
10.1266	15.8486
10.1069	15.7493
10.0872	15.4561
10.0676	15.0235
10.0481	14.702
10.0287	14.4425
10.0093	14.2651
9.99005	13.9917
9.97084	13.6513
9.95169	13.2698
9.93263	12.85
9.91364	12.4783
9.89472	12.3508
9.87587	12.3892
9.8571	12.4877
9.83839	12.6815
9.81976	12.9017
9.80119	13.0128
9.78271	13.1709
9.76428	13.5683
9.74592	13.8089
9.72764	14.0794
9.70943	14.4129
9.69128	14.918
9.6732	15.3412
9.65518	15.6234
9.63724	15.9583
9.61935	16.3688
9.60155	16.7435
9.5838	17.0097
9.56611	17.3282
9.5485	17.6186
9.53094	17.8176
9.51345	18.0116
9.49604	18.174
9.47867	18.2204
9.46137	18.1462
9.44414	17.9157
9.42697	17.5923
9.40986	17.1096
9.39281	16.4385
9.37583	15.7996
9.35891	15.1169
9.34204	14.5577
9.32524	14.18
9.3085	13.9271
9.29182	13.615
9.27519	13.388
9.25863	13.2182
9.24213	13.1153
9.22568	13.0873
9.2093	13.1954
9.19297	13.2225
9.17669	12.9616
9.16048	12.6812
9.14433	12.4869
9.12823	12.3373
9.11218	12.1811
9.0962	12.0365
9.08027	11.9206
9.06439	11.8991
9.04858	12.0092
9.03281	11.9536
9.0171	11.9275
9.00145	11.9673
8.98585	11.964
8.9703	11.7933
8.9548	11.6796
8.93937	11.603
8.92398	11.4659
8.90865	11.3374
8.89337	11.1708
8.87814	10.9116
8.86296	10.6918
8.84784	10.6175
8.83277	10.5901
8.81774	10.4829
8.80277	10.117
8.78786	9.69698
8.77298	9.32006
8.75816	8.91856
8.7434	8.50475
8.72868	7.84723
8.714	7.12865
8.69938	6.55486
8.68481	6.20028
8.67029	6.29106
8.65581	6.71945
8.64139	7.22434
8.62701	7.65633
8.61268	8.08271
8.5984	8.42582
8.58416	8.46121
8.56997	8.3399
8.55583	8.31954
8.54174	8.3304
8.52769	8.28747
8.51368	8.06739
8.49973	7.87314
8.48582	7.62798
8.47195	7.26966
8.45813	6.90049
8.44436	6.38063
8.43062	5.81927
8.41693	5.18573
8.4033	4.47338
8.3897	3.97786
8.37614	3.58432
8.36264	3.19867
8.34917	2.83357
8.33574	2.64234
8.32236	2.38949
8.30903	2.10197
8.29573	1.94216
8.28248	1.83741
8.26927	1.64262
8.2561	1.49359
8.24298	1.43295
8.2299	1.37006
8.21685	1.38255
8.20385	1.36914
8.19089	1.30335
8.17797	1.31632
8.16509	1.27234
8.15225	1.32484
8.13946	1.39094
8.1267	1.39681
8.11398	1.32031
8.10131	1.30826
8.08867	1.3255
8.07606	1.32717
8.0635	1.30459
8.05099	1.34004
8.0385	1.38427
8.02606	1.39662
8.01366	1.49545
8.00129	1.54344
7.98896	1.60671
7.97667	1.67456
7.96442	1.71894
7.9522	1.72468
7.94002	1.67884
7.92788	1.70949
7.91578	1.77203
7.90371	1.8375
7.89168	1.84834
7.87969	1.99001
7.86773	2.14197
7.85581	2.17601
7.84392	2.13611
7.83207	2.13795
7.82026	2.23434
7.80849	2.2995
7.79674	2.3931
7.78503	2.54389
7.77337	2.59948
7.76173	2.58312
7.75012	2.57322
7.73856	2.65208
7.72703	2.78906
7.71553	2.87836
7.70406	2.88072
7.69263	2.86512
7.68123	2.93595
7.66987	2.98302
7.65855	3.12632
7.64725	3.17035
7.63598	3.17488
7.62475	3.36987
7.61356	3.51677
7.60239	3.51527
7.59126	3.49673
7.58017	3.53979
7.5691	3.57231
7.55806	3.62631
7.54707	3.69533
7.5361	3.73307
7.52516	3.76439
7.51425	3.78844
7.50338	3.87159
7.49253	3.98542
7.48172	3.97251
7.47094	3.96529
7.46019	4.00245
7.44947	4.05909
7.43879	4.13439
7.42813	4.25237
7.4175	4.23564
7.4069	4.18258
7.39634	4.29254
7.3858	4.34225
7.37529	4.43676
7.36482	4.61684
7.35437	4.64551
7.34396	4.63879
7.33357	4.68001
7.32321	4.77123
7.31288	4.81968
7.30258	4.89754
7.29231	4.96406
7.28207	4.97182
7.27185	4.96864
7.26167	4.99917
7.25152	5.10838
7.24139	5.1428
7.23129	5.09557
7.22122	5.14519
7.21117	5.3236
7.20116	5.32719
7.19117	5.32911
7.18121	5.43423
7.17128	5.61285
7.16137	5.69403
7.1515	5.70628
7.14164	5.73962
7.13182	5.78551
7.12203	5.81011
7.11225	5.81299
7.10251	5.90248
7.0928	6.01033
7.08311	6.12515
7.07344	6.18364
7.06381	6.20461
7.0542	6.29461
7.04461	6.35427
7.03506	6.38119
7.02552	6.43675
7.01601	6.51413
7.00653	6.64189
6.99708	6.78467
6.98765	6.91579
6.97824	6.96648
6.96886	6.98622
6.95951	7.10578
6.95018	7.19809
6.94087	7.273
6.9316	7.35537
6.92234	7.4197
6.91311	7.56476
6.90391	7.62843
6.89473	7.64383
6.88557	7.7279
6.87644	7.83552
6.86733	8.02405
6.85824	8.04858
6.84918	7.99654
6.84015	8.07842
6.83114	8.17737
6.82215	8.24848
6.81319	8.1716
6.80424	8.22764
6.79532	8.46847
6.78643	8.6009
6.77756	8.63836
6.76871	8.67193
6.75989	8.70475
6.75109	8.73382
6.74231	8.75864
6.73355	8.88048
6.72482	9.06214
6.71611	9.0996
6.70742	9.07066
6.69875	9.09911
6.69011	9.19933
6.68149	9.3166
6.67289	9.31062
6.66431	9.27536
6.65576	9.24671
6.64722	9.31415
6.63871	9.47949
6.63022	9.42319
6.62175	9.30026
6.61331	9.2488
6.60488	9.25824
6.59648	9.29516
6.5881	9.2963
6.57974	9.35328
6.5714	9.44684
6.56308	9.37812
6.55478	9.2841
6.54651	9.18859
6.53825	9.19656
6.53001	9.27604
6.5218	9.39291
6.51361	9.29721
6.50544	9.35952
6.49729	9.60722
6.48915	9.61627
6.48104	9.47332
6.47295	9.35407
6.46488	9.27019
6.45683	9.28053
6.4488	9.35684
6.44079	9.39899
6.4328	9.43449
6.42482	9.54914
6.41687	9.73527
6.40894	9.71429
6.40103	9.48234
6.39314	9.4036
6.38526	9.42056
6.37741	9.47975
6.36957	9.48985
6.36176	9.49331
6.35396	9.59827
6.34618	9.67168
6.33843	9.57817
6.33069	9.46409
6.32297	9.45498
6.31527	9.46679
6.30758	9.43728
6.29992	9.42878
6.29227	9.41402
6.28465	9.38962
6.27704	9.36043
6.26945	9.36259
6.26188	9.32812
6.25432	9.32499
6.24679	9.36308
6.23927	9.33339
6.23177	9.23492
6.22429	9.07967
6.21683	9.04349
6.20938	9.019
6.20195	8.96468
6.19454	8.8742
6.18715	8.94935
6.17978	8.8738
6.17242	8.71212
6.16508	8.60865
6.15776	8.45888
6.15045	8.29007
6.14317	8.22746
6.1359	8.11324
6.12864	7.96822
6.12141	7.85565
6.11419	7.73642
6.10699	7.52328
6.0998	7.38718
6.09263	7.29915
6.08549	7.18039
6.07835	7.22035
6.07123	7.34015
6.06413	7.31691
6.05705	7.32152
6.04998	7.55299
6.04293	7.43949
6.0359	7.26457
6.02888	7.23687
6.02187	7.24275
6.01489	7.27054
6.00792	7.22529
6.00096	7.31842
5.99403	7.43756
5.98711	7.37917
5.9802	7.33431
5.97331	7.45741
5.96644	7.57128
5.95958	7.61042
5.95274	7.73125
5.94591	7.79903
5.9391	7.94944
5.9323	8.02148
5.92552	8.07182
5.91876	8.14085
5.91201	8.15284
5.90528	8.25956
5.89856	8.44986
5.89186	8.5093
5.88517	8.682
5.8785	8.77862
5.87184	8.64827
5.8652	8.70852
5.85857	8.77079
5.85196	8.73473
5.84536	8.72748
5.83878	8.79288
5.83221	8.82884
5.82566	8.85477
5.81912	8.80925
5.81259	8.6762
5.80608	8.6146
5.79959	8.527
5.79311	8.39129
5.78665	8.44444
5.78019	8.48955
5.77376	8.39884
5.76734	8.41401
5.76093	8.28159
5.75453	8.18669
5.74815	8.28668
5.74179	8.19962
5.73543	8.11024
5.7291	8.1031
5.72277	8.12172
5.71646	8.15061
5.71017	8.17116
5.70389	8.03464
5.69762	7.97302
5.69136	7.98138
5.68513	7.95704
5.6789	7.92906
5.67268	7.89527
5.66648	7.7501
5.6603	7.69717
5.65413	7.73935
5.64797	7.74464
5.64182	7.79479
5.63569	7.76861
5.62957	7.73677
5.62347	7.70926
5.61737	7.78787
5.61129	7.96758
5.60522	7.96335
5.59917	7.85556
5.59313	7.87988
5.5871	8.02913
5.58109	8.18522
5.57509	8.20931
5.5691	8.19506
5.56312	8.27654
5.55716	8.40561
5.55121	8.55017
5.54528	8.65119
5.53935	8.7166
5.53344	8.78692
5.52754	8.92438
5.52166	9.04053
5.51578	9.10983
5.50992	9.1285
5.50407	9.17939
5.49823	9.26404
5.49241	9.36568
5.4866	9.48224
5.4808	9.62807
5.47501	9.68355
5.46923	9.81754
5.46347	9.97729
5.45772	9.93478
5.45198	9.98303
5.44625	10.143
5.44054	10.3453
5.43484	10.448
5.42914	10.5631
5.42347	10.7225
5.4178	10.7206
5.41214	10.6954
5.4065	10.6403
5.40087	10.6153
5.39525	10.6598
5.38964	10.6186
5.38404	10.5805
5.37846	10.664
5.37288	10.6943
5.36732	10.5719
5.36177	10.4278
5.35623	10.4944
5.35071	10.6043
5.34519	10.5826
5.33968	10.523
5.33419	10.5771
5.32871	10.6772
5.32324	10.8011
5.31778	10.8567
5.31233	10.8391
5.30689	10.8577
5.30147	10.9924
5.29605	11.0831
5.29065	11.2299
5.28525	11.3259
5.27987	11.3957
5.2745	11.537
5.26914	11.642
5.26379	11.7295
5.25845	11.8295
5.25312	11.8838
5.24781	11.9263
5.2425	12.0084
5.23721	12.145
5.23192	12.2072
5.22665	12.2991
5.22138	12.4472
5.21613	12.5991
5.21089	12.7096
5.20566	12.7693
5.20044	12.9335
5.19522	13.1242
5.19002	13.2925
5.18483	13.3933
5.17965	13.4934
5.17448	13.6446
5.16933	13.8176
5.16418	13.9064
5.15904	13.9656
5.15391	14.129
5.14879	14.3234
5.14368	14.4024
5.13859	14.4678
5.1335	14.5742
5.12842	14.7328
5.12335	14.952
5.1183	15.167
5.11325	15.2656
5.10821	15.3534
5.10318	15.4857
5.09817	15.5914
5.09316	15.7265
5.08816	15.8573
5.08317	15.931
5.07819	16.0227
5.07322	16.0729
5.06826	16.1185
5.06331	16.1581
5.05837	16.1439
5.05344	16.121
5.04852	16.1006
5.04361	16.1213
5.03871	16.1589
5.03382	16.1941
5.02894	16.2315
5.02406	16.2448
5.0192	16.2466
5.01435	16.3023
5.0095	16.4368
5.00467	16.4945
4.99984	16.4932
4.99502	16.4644
4.99021	16.4708
4.98542	16.4836
4.98063	16.4911
4.97585	16.446
4.97108	16.3789
4.96632	16.3428
4.96156	16.364
4.95682	16.33
4.95209	16.2606
4.94736	16.2187
4.94264	16.2387
4.93794	16.2627
4.93324	16.2071
4.92855	16.1821
4.92387	16.2802
4.9192	16.3606
4.91453	16.4724
4.90988	16.6679
4.90524	16.7488
4.9006	16.8238
4.89597	16.9176
4.89135	17.0273
4.88674	17.1143
4.88214	17.2008
4.87755	17.3325
4.87296	17.5102
4.86839	17.6248
4.86382	17.8268
4.85926	18.1093
4.85471	18.3115
4.85017	18.4551
4.84564	18.5559
4.84111	18.7503
4.8366	19.0104
4.83209	19.2571
4.82759	19.4031
4.8231	19.4712
4.81862	19.6168
4.81415	19.7133
4.80968	19.7861
4.80522	19.9363
4.80077	20.0028
4.79633	20.1067
4.7919	20.354
4.78747	20.5249
4.78306	20.6455
4.77865	20.8237
4.77425	20.9913
4.76986	21.1553
4.76547	21.4104
4.7611	21.6714
4.75673	21.9474
4.75237	22.2129
4.74802	22.5313
4.74367	22.7014
4.73934	22.7866
4.73501	22.9517
4.73069	23.1434
4.72638	23.3603
4.72207	23.462
4.71777	23.5692
4.71348	23.7289
4.7092	23.8469
4.70493	23.9439
4.70066	24.0318
4.69641	24.086
4.69216	24.1424
4.68791	24.2632
4.68368	24.4124
4.67945	24.5265
4.67523	24.5746
4.67102	24.5878
4.66682	24.6943
4.66262	24.8268
4.65843	24.8886
4.65425	24.9016
4.65007	24.919
4.64591	24.9808
4.64175	25.0507
4.6376	25.1388
4.63345	25.1486
4.62932	25.2248
4.62519	25.3194
4.62106	25.422
4.61695	25.5063
4.61284	25.5637
4.60874	25.6502
4.60465	25.7507
4.60056	25.9135
4.59648	26.0852
4.59241	26.2727
4.58835	26.463
4.58429	26.6423
4.58024	26.8526
4.5762	27.0839
4.57216	27.3069
4.56814	27.4982
4.56411	27.6953
4.5601	27.8908
4.55609	28.167
4.55209	28.3403
4.5481	28.4755
4.54411	28.6403
4.54013	28.8318
4.53616	28.9633
4.5322	29.0679
4.52824	29.2923
4.52429	29.4364
4.52034	29.4089
4.51641	29.3622
4.51247	29.4924
4.50855	29.6077
4.50463	29.5752
4.50072	29.5227
4.49682	29.5781
4.49292	29.6461
4.48903	29.7194
4.48515	29.8235
4.48127	29.8502
4.4774	29.9217
4.47354	30.0269
4.46968	30.1186
4.46584	30.1867
4.46199	30.342
4.45815	30.5597
4.45432	30.7298
4.4505	30.9611
4.44668	31.1893
4.44287	31.3903
4.43907	31.5801
4.43527	31.8282
4.43148	32.08
4.4277	32.2486
4.42392	32.4605
4.42015	32.711
4.41638	32.892
4.41262	33.1097
4.40887	33.2444
4.40513	33.3305
4.40139	33.5278
4.39765	33.7234
4.39393	33.9203
4.39021	34.0517
4.38649	34.2108
4.38278	34.351
4.37908	34.4433
4.37539	34.4772
4.3717	34.5886
4.36801	34.7432
4.36434	34.8036
4.36067	34.8351
4.357	34.956
4.35335	35.0051
4.34969	35.0208
4.34605	35.0585
4.34241	35.0766
4.33877	35.1486
4.33514	35.1723
4.33152	35.2147
4.32791	35.3046
4.3243	35.2665
4.32069	35.1578
4.3171	35.1792
4.31351	35.1793
4.30992	35.1582
4.30634	35.1637
4.30277	35.1425
4.2992	35.1542
4.29564	35.1075
4.29208	35.1145
4.28853	35.0921
4.28499	35.081
4.28145	35.1696
4.27792	35.1859
4.27439	35.1504
4.27087	35.1894
4.26735	35.2795
4.26384	35.4136
4.26034	35.5665
4.25684	35.6517
4.25335	35.5748
4.24986	35.418
4.24638	35.3161
4.24291	35.249
4.23944	35.217
4.23598	35.2125
4.23252	35.1797
4.22906	35.1598
4.22562	35.2126
4.22218	35.3637
4.21874	35.4733
4.21531	35.577
4.21189	35.72
4.20847	35.8177
4.20506	35.8902
4.20165	36.0259
4.19825	36.0351
4.19485	36.0615
4.19146	36.129
4.18807	36.2074
4.18469	36.1966
4.18132	36.2267
4.17795	36.27
4.17458	36.2986
4.17123	36.2846
4.16787	36.2709
4.16453	36.3083
4.16118	36.3205
4.15785	36.3517
4.15451	36.4225
4.15119	36.4346
4.14787	36.4136
4.14455	36.4445
4.14124	36.4998
4.13794	36.5266
4.13464	36.5299
4.13134	36.5412
4.12805	36.5318
4.12477	36.4767
4.12149	36.5105
4.11822	36.5338
4.11495	36.4719
4.11168	36.4258
4.10843	36.4734
4.10517	36.5797
4.10192	36.5635
4.09868	36.5115
4.09545	36.5418
4.09221	36.5483
4.08899	36.5195
4.08576	36.5177
4.08255	36.5445
4.07933	36.4976
4.07613	36.515
4.07292	36.5356
4.06973	36.4945
4.06654	36.454
4.06335	36.3711
4.06017	36.3785
4.05699	36.3543
4.05382	36.3586
4.05065	36.3164
4.04749	36.2758
4.04433	36.261
4.04118	36.2225
4.03803	36.1117
4.03489	35.9993
4.03175	35.9472
4.02862	35.9353
4.02549	35.8782
4.02237	35.8461
4.01925	35.8607
4.01614	35.7702
4.01303	35.6979
4.00993	35.6812
4.00683	35.5594
4.00373	35.5108
4.00064	35.5498
3.99756	35.539
3.99448	35.4477
3.9914	35.4203
3.98833	35.4827
3.98527	35.5021
3.98221	35.4196
3.97915	35.3246
3.9761	35.3138
3.97305	35.3488
3.97001	35.3471
3.96697	35.3615
3.96394	35.3175
3.96091	35.2755
3.95789	35.2702
3.95487	35.285
3.95186	35.2732
3.94885	35.2892
3.94584	35.3335
3.94284	35.315
3.93984	35.3392
3.93685	35.3196
3.93386	35.3221
3.93088	35.2909
3.9279	35.1949
3.92493	35.1332
3.92196	35.1712
3.919	35.1495
3.91604	35.0726
3.91308	35.07
3.91013	35.0902
3.90718	35.0489
3.90424	35.0822
3.9013	35.141
3.89837	35.1384
3.89544	35.1278
3.89252	35.0977
3.8896	35.0838
3.88668	35.0389
3.88377	34.9563
3.88086	34.9517
3.87796	34.9631
3.87506	35.0003
3.87217	35.0062
3.86928	34.966
3.86639	34.9592
3.86351	34.925
3.86064	34.8518
3.85776	34.8504
3.8549	34.8154
3.85203	34.7895
3.84917	34.7843
3.84631	34.7322
3.84346	34.6463
3.84062	34.6395
3.83777	34.6499
3.83494	34.6983
3.8321	34.5678
3.82927	34.4581
3.82644	34.5017
3.82362	34.4878
3.82081	34.4801
3.81799	34.5343
3.81518	34.4954
3.81238	34.3593
3.80958	34.2901
3.80678	34.271
3.80399	34.2124
3.8012	34.2599
3.79841	34.2039
3.79563	34.1397
3.79286	34.182
3.79008	34.1348
3.78731	34.0233
3.78455	33.9824
3.78179	34.0184
3.77903	33.99
3.77628	33.9392
3.77353	33.9327
3.77079	33.8382
3.76805	33.7656
3.76531	33.7856
3.76258	33.7456
3.75985	33.6485
3.75713	33.6622
3.7544	33.7301
3.75169	33.7661
3.74898	33.6724
3.74627	33.5394
3.74356	33.512
3.74086	33.5243
3.73816	33.4385
3.73547	33.3727
3.73278	33.3441
3.7301	33.2594
3.72741	33.2045
3.72474	33.1658
3.72206	33.1142
3.71939	33.0747
3.71673	33.0512
3.71406	33.0366
3.71141	32.9884
3.70875	32.9939
3.7061	32.9181
3.70345	32.8246
3.70081	32.8081
3.69817	32.8008
3.69553	32.7107
3.6929	32.6627
3.69027	32.6735
3.68765	32.668
3.68503	32.5958
3.68241	32.5815
3.6798	32.5411
3.67719	32.4647
3.67458	32.4315
3.67198	32.373
3.66938	32.364
3.66678	32.256
3.66419	32.11
3.66161	32.059
3.65902	32.0495
3.65644	31.9892
3.65387	31.9857
3.65129	31.9186
3.64872	31.9157
3.64616	31.8908
3.64359	31.7743
3.64103	31.7055
3.63848	31.6392
3.63593	31.5434
3.63338	31.5389
3.63084	31.524
3.6283	31.5182
3.62576	31.5059
3.62322	31.4183
3.62069	31.3409
3.61817	31.2934
3.61564	31.2427
3.61312	31.1498
3.61061	31.0706
3.6081	31.0363
3.60559	31.0888
3.60308	31.0551
3.60058	30.9584
3.59808	30.9146
3.59558	30.8945
3.59309	30.7785
3.59061	30.7098
3.58812	30.7221
3.58564	30.6673
3.58316	30.6495
3.58069	30.5629
3.57822	30.4831
3.57575	30.3783
3.57328	30.264
3.57082	30.2422
3.56836	30.2096
3.56591	30.1664
3.56346	30.1273
3.56101	30.0859
3.55857	29.9606
3.55613	29.8551
3.55369	29.8853
3.55126	29.8775
3.54883	29.8121
3.5464	29.7756
3.54397	29.6635
3.54155	29.619
3.53914	29.5084
3.53672	29.3824
3.53431	29.2701
3.5319	29.2415
3.5295	29.2487
3.5271	29.2351
3.5247	29.197
3.52231	29.041
3.51991	28.9294
3.51753	28.9026
3.51514	28.7872
3.51276	28.6883
3.51038	28.5572
3.50801	28.4641
3.50563	28.4897
3.50327	28.4411
3.5009	28.3871
3.49854	28.3288
3.49618	28.4061
3.49382	28.3484
3.49147	28.223
3.48912	28.1565
3.48677	28.1185
3.48443	28.004
3.48209	27.905
3.47975	27.8599
3.47742	27.8588
3.47509	27.7915
3.47276	27.7091
3.47044	27.6893
3.46812	27.647
3.4658	27.6328
3.46348	27.5831
