Name: Albite (Feldspar) (K,Na)AlSi_3O_8
Type: Mineral
Class: Silicates
Subclass: Tectosilicates
Particle Size: 45-125um
Sample No.: TS-6A
Owner: JPL
Wavelength range: VNIR-SWIR
Origin: Unknown.
Collected by:  JPL
Description: 





Measurement: Hemispherical reflectance
First Column: X
Second Column: Y
X Units: Wavelength (micrometers)
Y Units: Reflectance (percent)
First X Value: 2.500
Last X Value: 0.400
Number of X Values: 2101
Additional information: ts06aa.txt

2.500  68.739285
2.499  68.755129
2.498  68.620852
2.497  68.723226
2.496  68.465445
2.495  68.930426
2.494  68.827403
2.493  68.920479
2.492  68.758068
2.491  68.899121
2.490  68.833659
2.489  68.878956
2.488  68.846965
2.487  68.747100
2.486  68.935410
2.485  69.176331
2.484  68.947202
2.483  68.809885
2.482  68.861860
2.481  68.981327
2.480  68.953724
2.479  69.125890
2.478  69.017414
2.477  69.070597
2.476  69.059480
2.475  69.238987
2.474  69.156861
2.473  69.090954
2.472  69.140701
2.471  69.215847
2.470  69.139527
2.469  69.196396
2.468  69.239714
2.467  69.267628
2.466  69.370709
2.465  69.418450
2.464  69.295794
2.463  69.445449
2.462  69.419420
2.461  69.389057
2.460  69.286349
2.459  69.330395
2.458  69.395849
2.457  69.440290
2.456  69.451564
2.455  69.454838
2.454  69.454730
2.453  69.533587
2.452  69.560090
2.451  69.599684
2.450  69.516573
2.449  69.508611
2.448  69.527590
2.447  69.555965
2.446  69.560542
2.445  69.582957
2.444  69.591945
2.443  69.639180
2.442  69.607455
2.441  69.639470
2.440  69.702744
2.439  69.730087
2.438  69.717484
2.437  69.680405
2.436  69.707519
2.435  69.930089
2.434  69.941703
2.433  69.978824
2.432  69.929665
2.431  69.940790
2.430  70.030293
2.429  70.148269
2.428  70.111943
2.427  70.186190
2.426  70.201804
2.425  70.297129
2.424  70.295951
2.423  70.352389
2.422  70.424194
2.421  70.478714
2.420  70.445943
2.419  70.518642
2.418  70.645679
2.417  70.687444
2.416  70.788392
2.415  70.908850
2.414  70.896703
2.413  70.899233
2.412  70.932656
2.411  71.072379
2.410  71.103116
2.409  71.178432
2.408  71.315146
2.407  71.411062
2.406  71.388725
2.405  71.397987
2.404  71.402330
2.403  71.454597
2.402  71.501687
2.401  71.591291
2.400  71.593221
2.399  71.634360
2.398  71.639753
2.397  71.702726
2.396  71.734564
2.395  71.838867
2.394  71.858607
2.393  71.870757
2.392  71.954709
2.391  71.987767
2.390  71.957401
2.389  72.051494
2.388  72.083283
2.387  72.076272
2.386  72.041078
2.385  72.071453
2.384  72.096765
2.383  72.093518
2.382  72.164435
2.381  72.210677
2.380  72.235696
2.379  72.228811
2.378  72.244223
2.377  72.292826
2.376  72.305472
2.375  72.316174
2.374  72.391731
2.373  72.392730
2.372  72.332672
2.371  72.345932
2.370  72.342715
2.369  72.361254
2.368  72.401353
2.367  72.376886
2.366  72.426187
2.365  72.470412
2.364  72.429998
2.363  72.391990
2.362  72.317923
2.361  72.335278
2.360  72.326904
2.359  72.296473
2.358  72.358867
2.357  72.356965
2.356  72.280221
2.355  72.221943
2.354  72.211931
2.353  72.231644
2.352  72.179631
2.351  72.160970
2.350  72.125138
2.349  72.089908
2.348  72.113308
2.347  72.079676
2.346  72.123686
2.345  72.122465
2.344  72.108829
2.343  72.146019
2.342  72.153132
2.341  72.140484
2.340  72.130246
2.339  72.106594
2.338  72.179567
2.337  72.246891
2.336  72.206877
2.335  72.217902
2.334  72.287937
2.333  72.317996
2.332  72.375252
2.331  72.399667
2.330  72.453347
2.329  72.476095
2.328  72.557681
2.327  72.649442
2.326  72.666587
2.325  72.664433
2.324  72.740133
2.323  72.831289
2.322  72.885928
2.321  72.881596
2.320  72.942088
2.319  73.045015
2.318  73.059151
2.317  73.103119
2.316  73.187065
2.315  73.227100
2.314  73.284335
2.313  73.354559
2.312  73.430324
2.311  73.422050
2.310  73.514929
2.309  73.585867
2.308  73.622276
2.307  73.597117
2.306  73.745439
2.305  73.767672
2.304  73.821390
2.303  73.908446
2.302  73.895655
2.301  73.999302
2.300  74.070640
2.299  74.116464
2.298  74.182984
2.297  74.184814
2.296  74.226835
2.295  74.293834
2.294  74.319590
2.293  74.405872
2.292  74.478162
2.291  74.495107
2.290  74.462581
2.289  74.540982
2.288  74.648024
2.287  74.628104
2.286  74.720719
2.285  74.669099
2.284  74.702294
2.283  74.692078
2.282  74.721280
2.281  74.780882
2.280  74.828757
2.279  74.869960
2.278  74.851486
2.277  74.856647
2.276  74.944762
2.275  74.953097
2.274  74.963585
2.273  74.910959
2.272  74.977487
2.271  74.948785
2.270  74.957876
2.269  74.970157
2.268  74.914237
2.267  74.977198
2.266  74.986140
2.265  74.966746
2.264  74.933177
2.263  74.933005
2.262  74.981255
2.261  74.962245
2.260  74.940434
2.259  74.973198
2.258  74.958765
2.257  74.980837
2.256  74.993626
2.255  74.939718
2.254  74.922427
2.253  74.867019
2.252  74.984227
2.251  74.937964
2.250  74.930078
2.249  74.915669
2.248  74.955591
2.247  74.895328
2.246  74.979786
2.245  74.978127
2.244  74.944911
2.243  74.985745
2.242  74.975255
2.241  74.990875
2.240  75.032314
2.239  75.015426
2.238  75.005946
2.237  75.013951
2.236  75.041817
2.235  75.011363
2.234  75.026608
2.233  74.942579
2.232  75.068647
2.231  74.970995
2.230  74.929954
2.229  74.902812
2.228  74.895436
2.227  74.796259
2.226  74.904085
2.225  74.821336
2.224  74.755178
2.223  74.631452
2.222  74.604428
2.221  74.486269
2.220  74.456993
2.219  74.426247
2.218  74.293385
2.217  74.221012
2.216  74.156958
2.215  73.967262
2.214  73.949512
2.213  73.763746
2.212  73.784894
2.211  73.589795
2.210  73.523752
2.209  73.467944
2.208  73.308653
2.207  73.364653
2.206  73.104784
2.205  73.090572
2.204  73.002198
2.203  72.995284
2.202  72.984028
2.201  72.861991
2.200  72.850725
2.199  72.816230
2.198  72.825481
2.197  72.808008
2.196  72.826030
2.195  72.816782
2.194  72.894566
2.193  72.906242
2.192  73.068576
2.191  73.113155
2.190  73.231912
2.189  73.345127
2.188  73.584735
2.187  73.699568
2.186  73.815970
2.185  73.969171
2.184  74.171133
2.183  74.298486
2.182  74.466595
2.181  74.551829
2.180  74.702131
2.179  74.847795
2.178  74.961245
2.177  75.254269
2.176  75.301804
2.175  75.502536
2.174  75.623460
2.173  75.712588
2.172  75.901629
2.171  75.928484
2.170  76.066653
2.169  76.240512
2.168  76.330670
2.167  76.384737
2.166  76.506294
2.165  76.543283
2.164  76.641667
2.163  76.740239
2.162  76.855736
2.161  76.961235
2.160  77.027524
2.159  77.045720
2.158  77.117037
2.157  77.207483
2.156  77.268094
2.155  77.337596
2.154  77.415250
2.153  77.495798
2.152  77.556521
2.151  77.522535
2.150  77.498116
2.149  77.609423
2.148  77.545854
2.147  77.618604
2.146  77.684241
2.145  77.741790
2.144  77.715373
2.143  77.690479
2.142  77.777567
2.141  77.771891
2.140  77.786899
2.139  77.754208
2.138  77.709702
2.137  77.710670
2.136  77.695253
2.135  77.685644
2.134  77.661208
2.133  77.665496
2.132  77.693421
2.131  77.621582
2.130  77.581539
2.129  77.601897
2.128  77.518062
2.127  77.449757
2.126  77.475243
2.125  77.489877
2.124  77.440124
2.123  77.311434
2.122  77.277965
2.121  77.267363
2.120  77.224631
2.119  77.190874
2.118  77.162759
2.117  77.112023
2.116  77.044897
2.115  76.998749
2.114  76.981470
2.113  76.948204
2.112  76.864241
2.111  76.801755
2.110  76.810620
2.109  76.774620
2.108  76.700261
2.107  76.711459
2.106  76.682004
2.105  76.632335
2.104  76.592235
2.103  76.547277
2.102  76.541986
2.101  76.549278
2.100  76.525040
2.099  76.457547
2.098  76.473911
2.097  76.500509
2.096  76.531658
2.095  76.551647
2.094  76.543000
2.093  76.569648
2.092  76.579352
2.091  76.591678
2.090  76.646261
2.089  76.688488
2.088  76.648927
2.087  76.641859
2.086  76.684433
2.085  76.686312
2.084  76.665538
2.083  76.680123
2.082  76.688806
2.081  76.691119
2.080  76.712587
2.079  76.700765
2.078  76.709985
2.077  76.741115
2.076  76.766551
2.075  76.763681
2.074  76.777331
2.073  76.786131
2.072  76.782862
2.071  76.807826
2.070  76.819424
2.069  76.795694
2.068  76.804917
2.067  76.812647
2.066  76.801530
2.065  76.801490
2.064  76.855461
2.063  76.841919
2.062  76.819139
2.061  76.829168
2.060  76.803178
2.059  76.855340
2.058  76.862898
2.057  76.844738
2.056  76.781190
2.055  76.776958
2.054  76.813291
2.053  76.852013
2.052  76.872563
2.051  76.839531
2.050  76.844525
2.049  76.856408
2.048  76.839109
2.047  76.878496
2.046  76.837245
2.045  76.819492
2.044  76.780287
2.043  76.758983
2.042  76.784818
2.041  76.812518
2.040  76.792040
2.039  76.799099
2.038  76.829319
2.037  76.817302
2.036  76.759647
2.035  76.724121
2.034  76.718026
2.033  76.724719
2.032  76.675908
2.031  76.638401
2.030  76.663508
2.029  76.675193
2.028  76.652461
2.027  76.663565
2.026  76.650135
2.025  76.615734
2.024  76.548455
2.023  76.536870
2.022  76.568630
2.021  76.532944
2.020  76.408156
2.019  76.462288
2.018  76.447225
2.017  76.443620
2.016  76.373408
2.015  76.367008
2.014  76.362424
2.013  76.336729
2.012  76.299803
2.011  76.338232
2.010  76.282488
2.009  76.215114
2.008  76.235914
2.007  76.225644
2.006  76.168383
2.005  76.177398
2.004  76.150116
2.003  76.125621
2.002  76.123810
2.001  76.166919
2.000  76.077678
1.999  75.956563
1.998  75.987744
1.997  75.989755
1.996  75.901275
1.995  75.907253
1.994  75.846749
1.993  75.837718
1.992  75.726988
1.991  75.769344
1.990  75.714360
1.989  75.677676
1.988  75.672137
1.987  75.542742
1.986  75.523709
1.985  75.450599
1.984  75.483238
1.983  75.494201
1.982  75.388135
1.981  75.338109
1.980  75.297135
1.979  75.304910
1.978  75.286293
1.977  75.292380
1.976  75.221977
1.975  75.170525
1.974  75.150687
1.973  75.212028
1.972  75.116155
1.971  75.101082
1.970  75.021087
1.969  75.030931
1.968  74.931118
1.967  74.931462
1.966  74.899409
1.965  74.869482
1.964  74.843584
1.963  74.887353
1.962  74.867395
1.961  74.766541
1.960  74.726414
1.959  74.748903
1.958  74.617975
1.957  74.693406
1.956  74.637000
1.955  74.675432
1.954  74.673728
1.953  74.622747
1.952  74.561560
1.951  74.508748
1.950  74.459387
1.949  74.492309
1.948  74.450290
1.947  74.460029
1.946  74.428349
1.945  74.449704
1.944  74.313270
1.943  74.368601
1.942  74.325128
1.941  74.291982
1.940  74.251210
1.939  74.316520
1.938  74.177606
1.937  74.138923
1.936  74.168504
1.935  74.086014
1.934  73.967276
1.933  74.058158
1.932  73.909320
1.931  73.995999
1.930  73.965117
1.929  73.895265
1.928  73.842159
1.927  73.821591
1.926  73.712480
1.925  73.762641
1.924  73.624850
1.923  73.605211
1.922  73.514431
1.921  73.531154
1.920  73.456219
1.919  73.417514
1.918  73.384388
1.917  73.326545
1.916  73.287347
1.915  73.279933
1.914  73.207614
1.913  73.237520
1.912  73.237168
1.911  73.252348
1.910  73.297363
1.909  73.307458
1.908  73.365934
1.907  73.464828
1.906  73.540100
1.905  73.654957
1.904  73.728834
1.903  73.911242
1.902  74.038450
1.901  74.323677
1.900  74.401557
1.899  74.581501
1.898  74.789169
1.897  74.976290
1.896  75.114254
1.895  75.329098
1.894  75.468827
1.893  75.654150
1.892  75.849977
1.891  76.042339
1.890  76.120037
1.889  76.271437
1.888  76.299936
1.887  76.420656
1.886  76.484329
1.885  76.645714
1.884  76.671177
1.883  76.777732
1.882  76.817296
1.881  76.983534
1.880  76.959398
1.879  77.047303
1.878  77.095247
1.877  77.130703
1.876  77.141947
1.875  77.208508
1.874  77.169633
1.873  77.249658
1.872  77.360392
1.871  77.295495
1.870  77.312062
1.869  77.345597
1.868  77.330922
1.867  77.311778
1.866  77.391303
1.865  77.465094
1.864  77.449473
1.863  77.477665
1.862  77.471245
1.861  77.422883
1.860  77.442235
1.859  77.471991
1.858  77.416888
1.857  77.477625
1.856  77.435354
1.855  77.510772
1.854  77.496171
1.853  77.510087
1.852  77.558979
1.851  77.552520
1.850  77.533988
1.849  77.544708
1.848  77.469246
1.847  77.457478
1.846  77.514885
1.845  77.541736
1.844  77.514504
1.843  77.499537
1.842  77.430488
1.841  77.455652
1.840  77.433665
1.839  77.462944
1.838  77.489272
1.837  77.434698
1.836  77.478679
1.835  77.484454
1.834  77.461793
1.833  77.462278
1.832  77.461821
1.831  77.440007
1.830  77.444990
1.829  77.463278
1.828  77.425299
1.827  77.464225
1.826  77.433279
1.825  77.448993
1.824  77.422238
1.823  77.466291
1.822  77.444525
1.821  77.429530
1.820  77.448647
1.819  77.433441
1.818  77.456881
1.817  77.431331
1.816  77.454145
1.815  77.485054
1.814  77.418901
1.813  77.455857
1.812  77.453951
1.811  77.438397
1.810  77.432796
1.809  77.468039
1.808  77.436489
1.807  77.426929
1.806  77.408244
1.805  77.399803
1.804  77.419015
1.803  77.434847
1.802  77.434519
1.801  77.414638
1.800  77.418712
1.799  77.388976
1.798  77.399085
1.797  77.411422
1.796  77.408792
1.795  77.425110
1.794  77.378342
1.793  77.365995
1.792  77.358543
1.791  77.335808
1.790  77.323585
1.789  77.332813
1.788  77.345505
1.787  77.351242
1.786  77.324696
1.785  77.291778
1.784  77.297020
1.783  77.273368
1.782  77.278879
1.781  77.307792
1.780  77.296683
1.779  77.274145
1.778  77.247065
1.777  77.254726
1.776  77.241664
1.775  77.214258
1.774  77.266198
1.773  77.271523
1.772  77.258010
1.771  77.206899
1.770  77.210969
1.769  77.228788
1.768  77.253859
1.767  77.230031
1.766  77.216580
1.765  77.207820
1.764  77.195315
1.763  77.214741
1.762  77.164487
1.761  77.160860
1.760  77.174506
1.759  77.130934
1.758  77.177633
1.757  77.207469
1.756  77.196366
1.755  77.187988
1.754  77.203013
1.753  77.178503
1.752  77.169570
1.751  77.184892
1.750  77.201109
1.749  77.177978
1.748  77.168383
1.747  77.203514
1.746  77.213157
1.745  77.156717
1.744  77.121900
1.743  77.173451
1.742  77.174175
1.741  77.174489
1.740  77.184796
1.739  77.166137
1.738  77.162363
1.737  77.151677
1.736  77.161356
1.735  77.156797
1.734  77.201330
1.733  77.180553
1.732  77.165122
1.731  77.101850
1.730  77.152921
1.729  77.143966
1.728  77.097133
1.727  77.152647
1.726  77.159525
1.725  77.155390
1.724  77.157444
1.723  77.110252
1.722  77.133342
1.721  77.196259
1.720  77.162245
1.719  77.135832
1.718  77.090896
1.717  77.109766
1.716  77.087160
1.715  77.073510
1.714  77.113794
1.713  77.093532
1.712  77.078068
1.711  77.097683
1.710  77.089293
1.709  77.070748
1.708  77.078270
1.707  77.045202
1.706  77.087655
1.705  77.031473
1.704  77.001321
1.703  76.971582
1.702  77.021810
1.701  76.960445
1.700  77.012141
1.699  76.941321
1.698  76.995196
1.697  76.947463
1.696  77.013110
1.695  76.968779
1.694  76.951356
1.693  76.906677
1.692  77.000430
1.691  76.913032
1.690  76.996294
1.689  76.961006
1.688  76.928032
1.687  76.941924
1.686  76.982804
1.685  76.878441
1.684  76.850337
1.683  76.832667
1.682  76.899020
1.681  76.856328
1.680  76.848001
1.679  76.831740
1.678  76.850663
1.677  76.823542
1.676  76.798826
1.675  76.846535
1.674  76.895573
1.673  76.823920
1.672  76.787045
1.671  76.788670
1.670  76.774721
1.669  76.805155
1.668  76.731176
1.667  76.779129
1.666  76.740594
1.665  76.727541
1.664  76.799012
1.663  76.768540
1.662  76.779657
1.661  76.740462
1.660  76.655352
1.659  76.697736
1.658  76.723459
1.657  76.690427
1.656  76.701270
1.655  76.763348
1.654  76.662325
1.653  76.649150
1.652  76.722754
1.651  76.598219
1.650  76.630120
1.649  76.591726
1.648  76.679203
1.647  76.686638
1.646  76.680985
1.645  76.523362
1.644  76.584166
1.643  76.616510
1.642  76.568455
1.641  76.511660
1.640  76.718638
1.639  76.611938
1.638  76.571811
1.637  76.490929
1.636  76.469087
1.635  76.523654
1.634  76.595062
1.633  76.507711
1.632  76.460969
1.631  76.452615
1.630  76.472090
1.629  76.478270
1.628  76.472738
1.627  76.442482
1.626  76.467929
1.625  76.459715
1.624  76.451272
1.623  76.390980
1.622  76.415825
1.621  76.314246
1.620  76.374544
1.619  76.384571
1.618  76.328171
1.617  76.290754
1.616  76.380798
1.615  76.260243
1.614  76.396181
1.613  76.255517
1.612  76.284789
1.611  76.254603
1.610  76.276488
1.609  76.233306
1.608  76.300388
1.607  76.237534
1.606  76.156348
1.605  76.161034
1.604  76.205129
1.603  76.149719
1.602  76.186322
1.601  76.193907
1.600  76.115044
1.599  76.047073
1.598  76.137357
1.597  76.089694
1.596  76.093635
1.595  76.004641
1.594  76.021524
1.593  76.107186
1.592  76.013849
1.591  75.936997
1.590  75.999696
1.589  76.004040
1.588  75.986759
1.587  75.920814
1.586  75.863687
1.585  75.832886
1.584  75.890384
1.583  75.857839
1.582  75.868747
1.581  75.813249
1.580  75.796278
1.579  75.800846
1.578  75.744945
1.577  75.762050
1.576  75.746467
1.575  75.676537
1.574  75.657806
1.573  75.628564
1.572  75.621570
1.571  75.598776
1.570  75.570279
1.569  75.598747
1.568  75.620760
1.567  75.567098
1.566  75.538607
1.565  75.465611
1.564  75.443454
1.563  75.444162
1.562  75.500564
1.561  75.403012
1.560  75.386462
1.559  75.367082
1.558  75.362733
1.557  75.346552
1.556  75.315067
1.555  75.251042
1.554  75.217063
1.553  75.201439
1.552  75.277566
1.551  75.213243
1.550  75.215061
1.549  75.174902
1.548  75.161529
1.547  75.200495
1.546  75.148114
1.545  75.079061
1.544  75.046757
1.543  75.073274
1.542  74.993977
1.541  74.999148
1.540  75.012283
1.539  74.896946
1.538  74.884305
1.537  74.891676
1.536  74.889966
1.535  74.815669
1.534  74.847388
1.533  74.860426
1.532  74.786716
1.531  74.721052
1.530  74.754681
1.529  74.746274
1.528  74.676632
1.527  74.676001
1.526  74.623408
1.525  74.617448
1.524  74.658092
1.523  74.587320
1.522  74.530667
1.521  74.485077
1.520  74.473834
1.519  74.421954
1.518  74.430726
1.517  74.396427
1.516  74.350193
1.515  74.345187
1.514  74.288572
1.513  74.281171
1.512  74.291673
1.511  74.270043
1.510  74.193832
1.509  74.154477
1.508  74.214870
1.507  74.177277
1.506  74.090811
1.505  74.054101
1.504  74.056868
1.503  74.010568
1.502  73.972752
1.501  73.965180
1.500  73.948887
1.499  73.935629
1.498  73.844440
1.497  73.814646
1.496  73.833729
1.495  73.850177
1.494  73.815704
1.493  73.736149
1.492  73.683850
1.491  73.669251
1.490  73.669079
1.489  73.618320
1.488  73.567026
1.487  73.548745
1.486  73.532832
1.485  73.583304
1.484  73.525180
1.483  73.427526
1.482  73.420532
1.481  73.403777
1.480  73.336872
1.479  73.320023
1.478  73.295756
1.477  73.255183
1.476  73.228626
1.475  73.184065
1.474  73.084705
1.473  73.080950
1.472  73.076440
1.471  73.038770
1.470  73.028171
1.469  72.994398
1.468  72.989488
1.467  72.964434
1.466  72.906262
1.465  72.908394
1.464  72.862682
1.463  72.791141
1.462  72.801702
1.461  72.774859
1.460  72.669367
1.459  72.708131
1.458  72.704687
1.457  72.671282
1.456  72.588532
1.455  72.591880
1.454  72.625263
1.453  72.580125
1.452  72.515044
1.451  72.521345
1.450  72.479015
1.449  72.447077
1.448  72.415476
1.447  72.340597
1.446  72.252451
1.445  72.252178
1.444  72.248426
1.443  72.218393
1.442  72.237559
1.441  72.202237
1.440  72.107378
1.439  72.128532
1.438  72.049430
1.437  71.991440
1.436  71.984341
1.435  71.983518
1.434  71.866315
1.433  71.841730
1.432  71.799259
1.431  71.813895
1.430  71.701621
1.429  71.720530
1.428  71.594795
1.427  71.498214
1.426  71.386507
1.425  71.372793
1.424  71.283321
1.423  71.078441
1.422  70.897618
1.421  70.857639
1.420  70.676049
1.419  70.499174
1.418  70.313585
