Name: Siliceous Oolite
Type: Rock
Class: Sedimentary
Subclass: Siliceous
Particle Size: Solid surface
Sample No.: Ward77.txt
Owner: JPL
Wavelength range:  VNIR SWIR IR
Origin: Ward's Collection of American Rocks.  Sample locality - State College, Center County, Pennsylvania.
Collected by:  Ward's Natural Science
Description: A light gray rock consisting of small gray siliceous oolites
cemented by a light gray compact silica.
Geologic age - Cambrian.



Measurement: Hemispherical reflectance
First Column: X
Second Column: Y
X Units: Wavelength (micrometers)
Y Units: Reflectance (percent)
First X Value: 2.500
Last X Value: 0.400
Number of X Values: 2101
Additional information: None

2.500  42.661799
2.499  42.468469
2.498  42.404457
2.497  42.654405
2.496  42.323047
2.495  42.864530
2.494  42.577573
2.493  42.778381
2.492  42.688190
2.491  42.945181
2.490  42.948993
2.489  43.014196
2.488  42.919401
2.487  43.112741
2.486  42.824624
2.485  43.180837
2.484  43.168930
2.483  43.302961
2.482  43.205020
2.481  43.527576
2.480  43.455256
2.479  43.587922
2.478  43.366095
2.477  43.687743
2.476  43.532337
2.475  43.749007
2.474  43.822451
2.473  43.842404
2.472  43.808014
2.471  43.938594
2.470  43.891639
2.469  44.044989
2.468  44.057475
2.467  44.272861
2.466  44.059511
2.465  44.362040
2.464  44.279310
2.463  44.332424
2.462  44.381070
2.461  44.465091
2.460  44.424427
2.459  44.724852
2.458  44.722225
2.457  44.747548
2.456  44.833384
2.455  44.925709
2.454  44.837617
2.453  44.956139
2.452  45.022029
2.451  45.256199
2.450  45.250221
2.449  45.184694
2.448  45.271049
2.447  45.411340
2.446  45.389366
2.445  45.589581
2.444  45.555669
2.443  45.665871
2.442  45.707462
2.441  45.732866
2.440  45.755471
2.439  45.964677
2.438  45.910174
2.437  46.107012
2.436  46.074592
2.435  46.129805
2.434  46.212200
2.433  46.297677
2.432  46.307976
2.431  46.395963
2.430  46.409263
2.429  46.419961
2.428  46.574724
2.427  46.633672
2.426  46.633203
2.425  46.756601
2.424  46.834364
2.423  46.905164
2.422  46.874378
2.421  47.075968
2.420  47.052136
2.419  47.078271
2.418  47.156750
2.417  47.249071
2.416  47.267135
2.415  47.335190
2.414  47.361861
2.413  47.473293
2.412  47.516506
2.411  47.538003
2.410  47.599618
2.409  47.727488
2.408  47.718510
2.407  47.792075
2.406  47.786922
2.405  47.940951
2.404  47.935735
2.403  47.994918
2.402  48.045593
2.401  48.095575
2.400  48.127991
2.399  48.165605
2.398  48.269127
2.397  48.345752
2.396  48.296691
2.395  48.327923
2.394  48.384865
2.393  48.519248
2.392  48.524027
2.391  48.582674
2.390  48.616061
2.389  48.679378
2.388  48.786300
2.387  48.831993
2.386  48.859603
2.385  48.934355
2.384  48.889114
2.383  48.890695
2.382  48.974959
2.381  48.985210
2.380  49.126967
2.379  49.227187
2.378  49.226723
2.377  49.293702
2.376  49.328220
2.375  49.398285
2.374  49.436626
2.373  49.411375
2.372  49.464135
2.371  49.499224
2.370  49.483914
2.369  49.555138
2.368  49.635520
2.367  49.694928
2.366  49.716963
2.365  49.762235
2.364  49.772871
2.363  49.845086
2.362  49.897339
2.361  49.883505
2.360  49.872980
2.359  49.893456
2.358  49.958064
2.357  49.972632
2.356  50.011938
2.355  50.079321
2.354  50.124242
2.353  50.172861
2.352  50.192263
2.351  50.186189
2.350  50.155042
2.349  50.181527
2.348  50.234450
2.347  50.300377
2.346  50.318518
2.345  50.333146
2.344  50.374754
2.343  50.332273
2.342  50.378518
2.341  50.409201
2.340  50.402990
2.339  50.433523
2.338  50.442751
2.337  50.411466
2.336  50.450323
2.335  50.455196
2.334  50.458354
2.333  50.521659
2.332  50.516230
2.331  50.509628
2.330  50.598230
2.329  50.551505
2.328  50.582106
2.327  50.595260
2.326  50.662736
2.325  50.636284
2.324  50.681379
2.323  50.641496
2.322  50.660157
2.321  50.727220
2.320  50.742765
2.319  50.700070
2.318  50.710460
2.317  50.752490
2.316  50.812720
2.315  50.793280
2.314  50.838554
2.313  50.852856
2.312  50.831599
2.311  50.782164
2.310  50.863051
2.309  50.893508
2.308  50.875863
2.307  50.837969
2.306  50.928547
2.305  50.890839
2.304  50.939121
2.303  50.900542
2.302  51.003069
2.301  50.990241
2.300  50.957830
2.299  50.941804
2.298  50.934920
2.297  50.988596
2.296  50.987133
2.295  50.931517
2.294  50.929102
2.293  50.968447
2.292  50.993269
2.291  50.969574
2.290  51.063069
2.289  50.984605
2.288  51.027663
2.287  51.013940
2.286  51.137931
2.285  51.081249
2.284  51.103494
2.283  51.098606
2.282  51.142260
2.281  51.088425
2.280  51.179123
2.279  51.176575
2.278  51.151450
2.277  51.187595
2.276  51.215520
2.275  51.181083
2.274  51.152299
2.273  51.083525
2.272  51.220425
2.271  51.196599
2.270  51.229749
2.269  51.141475
2.268  51.222129
2.267  51.188339
2.266  51.286313
2.265  51.228271
2.264  51.257869
2.263  51.234244
2.262  51.321007
2.261  51.155124
2.260  51.203494
2.259  51.271247
2.258  51.235284
2.257  51.196570
2.256  51.253167
2.255  51.238081
2.254  51.195834
2.253  51.234314
2.252  51.365847
2.251  51.313641
2.250  51.285569
2.249  51.289865
2.248  51.308011
2.247  51.205877
2.246  51.301394
2.245  51.334842
2.244  51.281737
2.243  51.263149
2.242  51.295201
2.241  51.227019
2.240  51.333125
2.239  51.316712
2.238  51.324088
2.237  51.259710
2.236  51.334070
2.235  51.326951
2.234  51.412328
2.233  51.350349
2.232  51.393210
2.231  51.301476
2.230  51.312517
2.229  51.249570
2.228  51.359892
2.227  51.368573
2.226  51.408418
2.225  51.328373
2.224  51.365303
2.223  51.185003
2.222  51.255622
2.221  51.257045
2.220  51.328162
2.219  51.332717
2.218  51.350950
2.217  51.269368
2.216  51.331404
2.215  51.428851
2.214  51.422385
2.213  51.405663
2.212  51.478955
2.211  51.335287
2.210  51.441038
2.209  51.480656
2.208  51.442886
2.207  51.329106
2.206  51.467913
2.205  51.516206
2.204  51.545646
2.203  51.513546
2.202  51.584433
2.201  51.650361
2.200  51.677828
2.199  51.705207
2.198  51.726739
2.197  51.758159
2.196  51.794160
2.195  51.808267
2.194  51.848104
2.193  51.927643
2.192  51.904011
2.191  51.925435
2.190  51.987564
2.189  51.948858
2.188  52.061833
2.187  52.102305
2.186  52.194954
2.185  52.258578
2.184  52.264732
2.183  52.324140
2.182  52.382964
2.181  52.428309
2.180  52.471243
2.179  52.463890
2.178  52.524664
2.177  52.582491
2.176  52.706897
2.175  52.707146
2.174  52.820093
2.173  52.790466
2.172  52.846134
2.171  52.876922
2.170  52.990496
2.169  52.954803
2.168  52.953266
2.167  53.020198
2.166  53.087574
2.165  53.142308
2.164  53.132046
2.163  53.126473
2.162  53.202730
2.161  53.161801
2.160  53.247585
2.159  53.217622
2.158  53.338364
2.157  53.295145
2.156  53.416100
2.155  53.312992
2.154  53.358047
2.153  53.305312
2.152  53.343483
2.151  53.469985
2.150  53.401022
2.149  53.395090
2.148  53.397263
2.147  53.385962
2.146  53.434362
2.145  53.416987
2.144  53.459090
2.143  53.430075
2.142  53.471700
2.141  53.425787
2.140  53.399580
2.139  53.337336
2.138  53.418556
2.137  53.424923
2.136  53.408019
2.135  53.312411
2.134  53.315459
2.133  53.287252
2.132  53.252070
2.131  53.224659
2.130  53.241816
2.129  53.147670
2.128  53.114858
2.127  52.996088
2.126  53.015336
2.125  53.006601
2.124  52.962611
2.123  52.933128
2.122  52.920150
2.121  52.918626
2.120  52.892383
2.119  52.810843
2.118  52.735700
2.117  52.664716
2.116  52.668826
2.115  52.661458
2.114  52.590494
2.113  52.468246
2.112  52.488207
2.111  52.426927
2.110  52.379608
2.109  52.294892
2.108  52.279217
2.107  52.236669
2.106  52.186393
2.105  52.056634
2.104  52.011607
2.103  52.001177
2.102  51.990234
2.101  51.880350
2.100  51.849500
2.099  51.857634
2.098  51.886504
2.097  51.835375
2.096  51.845542
2.095  51.809812
2.094  51.779358
2.093  51.740253
2.092  51.760468
2.091  51.750139
2.090  51.757507
2.089  51.717492
2.088  51.681302
2.087  51.690994
2.086  51.649528
2.085  51.615202
2.084  51.695153
2.083  51.638457
2.082  51.602564
2.081  51.581587
2.080  51.522967
2.079  51.493961
2.078  51.520578
2.077  51.533152
2.076  51.499202
2.075  51.471995
2.074  51.408752
2.073  51.384637
2.072  51.395149
2.071  51.368789
2.070  51.337643
2.069  51.350231
2.068  51.302370
2.067  51.240814
2.066  51.230617
2.065  51.217207
2.064  51.235905
2.063  51.220128
2.062  51.203900
2.061  51.192270
2.060  51.128684
2.059  51.116963
2.058  51.104626
2.057  51.087868
2.056  50.994954
2.055  50.939100
2.054  50.947675
2.053  50.915849
2.052  50.865635
2.051  50.897916
2.050  50.859059
2.049  50.893942
2.048  50.845704
2.047  50.797296
2.046  50.747309
2.045  50.702032
2.044  50.671059
2.043  50.659012
2.042  50.550827
2.041  50.529106
2.040  50.531641
2.039  50.520520
2.038  50.410709
2.037  50.379106
2.036  50.380272
2.035  50.384453
2.034  50.358772
2.033  50.293737
2.032  50.202465
2.031  50.128439
2.030  50.081716
2.029  50.072160
2.028  49.994533
2.027  49.925533
2.026  49.884329
2.025  49.844382
2.024  49.752600
2.023  49.711570
2.022  49.676757
2.021  49.680398
2.020  49.539503
2.019  49.497768
2.018  49.441399
2.017  49.368931
2.016  49.302662
2.015  49.281449
2.014  49.229618
2.013  49.210553
2.012  49.132338
2.011  49.047368
2.010  49.007383
2.009  48.990755
2.008  48.870668
2.007  48.832325
2.006  48.799082
2.005  48.666952
2.004  48.607951
2.003  48.556073
2.002  48.449177
2.001  48.440948
2.000  48.333272
1.999  48.323770
1.998  48.264527
1.997  48.215994
1.996  48.120326
1.995  48.054023
1.994  47.900855
1.993  47.875696
1.992  47.726806
1.991  47.759301
1.990  47.685183
1.989  47.621316
1.988  47.491117
1.987  47.495295
1.986  47.402465
1.985  47.272369
1.984  47.256702
1.983  47.201121
1.982  47.076042
1.981  47.037819
1.980  46.910834
1.979  46.900258
1.978  46.801860
1.977  46.788958
1.976  46.644987
1.975  46.594541
1.974  46.528522
1.973  46.538676
1.972  46.409974
1.971  46.383001
1.970  46.176353
1.969  46.243097
1.968  46.103110
1.967  46.124326
1.966  46.014582
1.965  45.990425
1.964  45.958782
1.963  45.946698
1.962  45.784994
1.961  45.797308
1.960  45.652198
1.959  45.668106
1.958  45.566365
1.957  45.557376
1.956  45.464636
1.955  45.477044
1.954  45.408688
1.953  45.308084
1.952  45.242073
1.951  45.324099
1.950  45.214201
1.949  45.177360
1.948  45.068795
1.947  45.096777
1.946  45.049779
1.945  45.102946
1.944  45.007733
1.943  45.085401
1.942  44.961698
1.941  44.981676
1.940  44.883673
1.939  44.882484
1.938  44.895282
1.937  44.920504
1.936  44.855983
1.935  44.903491
1.934  44.820839
1.933  44.913786
1.932  44.809803
1.931  44.916380
1.930  44.823739
1.929  44.977222
1.928  44.886312
1.927  44.946669
1.926  44.807266
1.925  45.030805
1.924  44.878065
1.923  45.067127
1.922  44.954290
1.921  45.031790
1.920  45.086997
1.919  45.133562
1.918  45.043198
1.917  45.259912
1.916  45.286082
1.915  45.359386
1.914  45.406124
1.913  45.521661
1.912  45.568377
1.911  45.721628
1.910  45.785003
1.909  45.978428
1.908  46.102920
1.907  46.239605
1.906  46.355718
1.905  46.589724
1.904  46.809505
1.903  46.940265
1.902  47.131930
1.901  47.380421
1.900  47.533599
1.899  47.737293
1.898  47.993516
1.897  48.270419
1.896  48.423374
1.895  48.726743
1.894  48.911420
1.893  49.187243
1.892  49.327144
1.891  49.570073
1.890  49.772732
1.889  50.048191
1.888  50.310650
1.887  50.427618
1.886  50.620050
1.885  50.859297
1.884  50.977442
1.883  51.204540
1.882  51.373752
1.881  51.422864
1.880  51.640837
1.879  51.774667
1.878  51.866705
1.877  52.026903
1.876  52.134153
1.875  52.228864
1.874  52.216533
1.873  52.512996
1.872  52.531064
1.871  52.675527
1.870  52.706542
1.869  52.746011
1.868  52.767556
1.867  52.804685
1.866  52.859361
1.865  52.982463
1.864  52.929853
1.863  52.996812
1.862  53.007165
1.861  53.065517
1.860  53.055496
1.859  53.154819
1.858  53.158925
1.857  53.139463
1.856  53.072306
1.855  53.173758
1.854  53.201218
1.853  53.214494
1.852  53.165804
1.851  53.195221
1.850  53.114643
1.849  53.113906
1.848  53.175662
1.847  53.262460
1.846  53.155914
1.845  53.209412
1.844  53.193874
1.843  53.143721
1.842  53.218640
1.841  53.195050
1.840  53.220427
1.839  53.170765
1.838  53.190989
1.837  53.163121
1.836  53.147223
1.835  53.139092
1.834  53.123541
1.833  53.113036
1.832  53.087734
1.831  53.121578
1.830  53.095925
1.829  53.076668
1.828  53.119089
1.827  53.097328
1.826  53.088681
1.825  53.080407
1.824  53.030691
1.823  53.051232
1.822  53.016997
1.821  53.051880
1.820  53.020183
1.819  53.010534
1.818  52.963702
1.817  52.956094
1.816  52.921373
1.815  52.949039
1.814  52.909306
1.813  52.859322
1.812  52.877163
1.811  52.933309
1.810  52.906125
1.809  52.866876
1.808  52.897891
1.807  52.919117
1.806  52.872845
1.805  52.867077
1.804  52.850510
1.803  52.840213
1.802  52.812663
1.801  52.847961
1.800  52.798946
1.799  52.788925
1.798  52.781451
1.797  52.788323
1.796  52.821443
1.795  52.863556
1.794  52.848103
1.793  52.790177
1.792  52.771134
1.791  52.769778
1.790  52.749888
1.789  52.774740
1.788  52.760545
1.787  52.726494
1.786  52.713954
1.785  52.684028
1.784  52.675389
1.783  52.681854
1.782  52.704091
1.781  52.681420
1.780  52.670430
1.779  52.703845
1.778  52.722063
1.777  52.700192
1.776  52.660218
1.775  52.653465
1.774  52.648808
1.773  52.692269
1.772  52.690006
1.771  52.653564
1.770  52.670511
1.769  52.598876
1.768  52.603001
1.767  52.634036
1.766  52.598573
1.765  52.602683
1.764  52.601268
1.763  52.576770
1.762  52.589702
1.761  52.600628
1.760  52.616493
1.759  52.620464
1.758  52.596516
1.757  52.578907
1.756  52.537788
1.755  52.564328
1.754  52.561167
1.753  52.476026
1.752  52.539195
1.751  52.553239
1.750  52.529929
1.749  52.507725
1.748  52.504920
1.747  52.494327
1.746  52.550481
1.745  52.508888
1.744  52.522248
1.743  52.539698
1.742  52.558363
1.741  52.532478
1.740  52.580665
1.739  52.539243
1.738  52.515017
1.737  52.505375
1.736  52.572371
1.735  52.549067
1.734  52.541508
1.733  52.487865
1.732  52.500239
1.731  52.465885
1.730  52.501560
1.729  52.488135
1.728  52.496044
1.727  52.487167
1.726  52.495242
1.725  52.429446
1.724  52.407437
1.723  52.337005
1.722  52.484591
1.721  52.443704
1.720  52.408725
1.719  52.435166
1.718  52.387215
1.717  52.363524
1.716  52.359632
1.715  52.256080
1.714  52.373155
1.713  52.387286
1.712  52.385882
1.711  52.245070
1.710  52.239214
1.709  52.263821
1.708  52.340179
1.707  52.243673
1.706  52.247955
1.705  52.188268
1.704  52.189501
1.703  52.216864
1.702  52.223836
1.701  52.141130
1.700  52.155587
1.699  52.147716
1.698  52.143788
1.697  52.107033
1.696  52.056219
1.695  52.074628
1.694  52.070003
1.693  52.053587
1.692  52.072151
1.691  52.025219
1.690  52.055301
1.689  52.018177
1.688  52.137762
1.687  52.023869
1.686  51.969166
1.685  51.856312
1.684  51.995222
1.683  51.960036
1.682  51.993637
1.681  51.957387
1.680  51.980649
1.679  51.843649
1.678  51.890694
1.677  51.877549
1.676  51.943661
1.675  51.853239
1.674  51.844967
1.673  51.767780
1.672  51.898347
1.671  51.795716
1.670  51.845691
1.669  51.829011
1.668  51.648824
1.667  51.700644
1.666  51.746914
1.665  51.637134
1.664  51.723252
1.663  51.697257
1.662  51.697811
1.661  51.618096
1.660  51.674148
1.659  51.645809
1.658  51.626535
1.657  51.628024
1.656  51.610859
1.655  51.552942
1.654  51.590915
1.653  51.507390
1.652  51.592889
1.651  51.474092
1.650  51.544874
1.649  51.542508
1.648  51.544659
1.647  51.514733
1.646  51.530309
1.645  51.463011
1.644  51.464752
1.643  51.343456
1.642  51.511816
1.641  51.274343
1.640  51.441389
1.639  51.297073
1.638  51.339505
1.637  51.356187
1.636  51.380994
1.635  51.285129
1.634  51.328244
1.633  51.293362
1.632  51.226438
1.631  51.266592
1.630  51.316888
1.629  51.193123
1.628  51.263340
1.627  51.180838
1.626  51.215087
1.625  51.136802
1.624  51.181591
1.623  51.100238
1.622  51.177072
1.621  51.070029
1.620  51.122660
1.619  51.101809
1.618  51.105830
1.617  51.042686
1.616  51.108551
1.615  50.967877
1.614  51.047352
1.613  50.974800
1.612  51.023430
1.611  51.053371
1.610  50.990796
1.609  50.945107
1.608  50.942958
1.607  50.823453
1.606  50.938269
1.605  50.874300
1.604  50.946469
1.603  50.788275
1.602  50.882803
1.601  50.815782
1.600  50.836562
1.599  50.760933
1.598  50.850828
1.597  50.750989
1.596  50.801006
1.595  50.651785
1.594  50.709492
1.593  50.719408
1.592  50.738812
1.591  50.622676
1.590  50.634503
1.589  50.633924
1.588  50.615147
1.587  50.556847
1.586  50.610928
1.585  50.604821
1.584  50.622684
1.583  50.476338
1.582  50.474302
1.581  50.535015
1.580  50.488172
1.579  50.473256
1.578  50.495347
1.577  50.393170
1.576  50.436643
1.575  50.328375
1.574  50.376537
1.573  50.340259
1.572  50.316968
1.571  50.274806
1.570  50.246019
1.569  50.245442
1.568  50.243972
1.567  50.176418
1.566  50.212005
1.565  50.241461
1.564  50.196925
1.563  50.125654
1.562  50.098876
1.561  50.041341
1.560  50.077370
1.559  50.054156
1.558  50.095559
1.557  50.052358
1.556  49.930649
1.555  49.964460
1.554  49.968413
1.553  49.920224
1.552  49.882758
1.551  49.872642
1.550  49.883866
1.549  49.816492
1.548  49.784662
1.547  49.757791
1.546  49.784881
1.545  49.750507
1.544  49.732992
1.543  49.701239
1.542  49.716912
1.541  49.701766
1.540  49.657809
1.539  49.609429
1.538  49.614208
1.537  49.564378
1.536  49.609610
1.535  49.519233
1.534  49.456971
1.533  49.427713
1.532  49.473759
1.531  49.419363
1.530  49.396136
1.529  49.311236
1.528  49.321240
1.527  49.292021
1.526  49.263943
1.525  49.232303
1.524  49.222745
1.523  49.227784
1.522  49.170472
1.521  49.121510
1.520  49.091034
1.519  49.102034
1.518  49.159340
1.517  49.077184
1.516  49.009221
1.515  49.008175
1.514  48.992495
1.513  48.964275
1.512  48.928381
1.511  48.903182
1.510  48.922396
1.509  48.891865
1.508  48.857987
1.507  48.805274
1.506  48.735554
1.505  48.710635
1.504  48.679483
1.503  48.610113
1.502  48.573318
1.501  48.614169
1.500  48.571155
1.499  48.532395
1.498  48.587545
1.497  48.568383
1.496  48.504280
1.495  48.533464
1.494  48.479287
1.493  48.409874
1.492  48.384190
1.491  48.336179
1.490  48.318789
1.489  48.283168
1.488  48.257178
1.487  48.212522
1.486  48.170670
1.485  48.150952
1.484  48.051108
1.483  48.050326
1.482  48.060131
1.481  47.989858
1.480  47.959262
1.479  48.044985
1.478  48.004488
1.477  47.948456
1.476  47.883563
1.475  47.880302
1.474  47.815425
1.473  47.798026
1.472  47.782584
1.471  47.787402
1.470  47.734171
1.469  47.704651
1.468  47.629580
1.467  47.619145
1.466  47.569681
1.465  47.620955
1.464  47.593112
1.463  47.580945
1.462  47.559842
1.461  47.556952
1.460  47.526044
1.459  47.540026
1.458  47.521939
1.457  47.517639
1.456  47.508390
1.455  47.470457
1.454  47.359131
1.453  47.404256
1.452  47.453228
1.451  47.425772
1.450  47.299596
1.449  47.357962
1.448  47.300032
1.447  47.301215
1.446  47.297520
1.445  47.304893
1.444  47.211678
1.443  47.234620
1.442  47.245941
1.441  47.209720
1.440  47.195174
1.439  47.208753
1.438  47.161995
1.437  47.197731
1.436  47.117786
1.435  47.113981
1.434  47.126429
1.433  47.161159
1.432  47.064345
1.431  47.125392
1.430  47.095000
