Name: Aporhyolite (felsite)
Type: Rock
Class: Igneous
Subclass:  Felsic 
Particle Size: Solid surface
Sample No.: Ward05.txt
Owner: JPL
Wavelength range:  VNIR SWIR IR 
Origin: Ward's Collection of American Rocks.  Sample locality - Mattapan, Suffolk County, Massachusetts.
Collected by:  Ward's Natural Science
Description: A dense felsitic rock varying in color from salmon to red.
The original flow structure is often apparent.
Geologic age - Devonian or Carboniferous. Geologic name - Mattapan Felsite.



Measurement: Hemispherical reflectance
First Column: X
Second Column: Y
X Units: Wavelength (micrometers)
Y Units: Reflectance (percent)
First X Value: 2.500
Last X Value: 0.400
Number of X Values: 2101
Additional information: None

2.500  19.184832
2.499  18.680907
2.498  19.206044
2.497  18.906962
2.496  18.670724
2.495  18.834983
2.494  18.871528
2.493  18.856820
2.492  19.036424
2.491  18.649796
2.490  18.850571
2.489  18.757130
2.488  18.890076
2.487  18.694512
2.486  18.920067
2.485  18.651362
2.484  18.860906
2.483  18.710090
2.482  18.857451
2.481  18.666665
2.480  18.714940
2.479  18.667357
2.478  18.760301
2.477  18.592547
2.476  18.686154
2.475  18.566350
2.474  18.623857
2.473  18.545144
2.472  18.603711
2.471  18.467880
2.470  18.564853
2.469  18.400588
2.468  18.468643
2.467  18.354692
2.466  18.551549
2.465  18.327958
2.464  18.549098
2.463  18.201114
2.462  18.463266
2.461  18.253753
2.460  18.492859
2.459  18.267806
2.458  18.331218
2.457  18.208277
2.456  18.468788
2.455  18.190344
2.454  18.282766
2.453  18.171298
2.452  18.300538
2.451  18.123358
2.450  18.127901
2.449  18.183775
2.448  18.246113
2.447  18.215854
2.446  18.357343
2.445  18.098243
2.444  18.211269
2.443  18.177287
2.442  18.311071
2.441  18.208896
2.440  18.413725
2.439  18.440982
2.438  18.390163
2.437  18.357827
2.436  18.438124
2.435  18.364554
2.434  18.445944
2.433  18.414846
2.432  18.479801
2.431  18.463481
2.430  18.616369
2.429  18.512169
2.428  18.635293
2.427  18.529103
2.426  18.638606
2.425  18.591505
2.424  18.676965
2.423  18.596553
2.422  18.794723
2.421  18.663629
2.420  18.671527
2.419  18.752522
2.418  18.828892
2.417  18.790686
2.416  18.864294
2.415  18.851382
2.414  18.880281
2.413  18.841034
2.412  18.925527
2.411  18.834577
2.410  18.875394
2.409  18.895591
2.408  18.918595
2.407  18.860387
2.406  18.914609
2.405  18.902878
2.404  18.954593
2.403  18.945095
2.402  18.894422
2.401  18.859978
2.400  18.909098
2.399  18.907555
2.398  18.948171
2.397  18.883069
2.396  18.876617
2.395  18.794698
2.394  18.800474
2.393  18.783821
2.392  18.870618
2.391  18.796649
2.390  18.811945
2.389  18.715265
2.388  18.751997
2.387  18.696168
2.386  18.719650
2.385  18.776831
2.384  18.768007
2.383  18.668377
2.382  18.678995
2.381  18.652496
2.380  18.631116
2.379  18.590543
2.378  18.571561
2.377  18.577108
2.376  18.625093
2.375  18.600468
2.374  18.639267
2.373  18.599711
2.372  18.610386
2.371  18.555063
2.370  18.585061
2.369  18.621104
2.368  18.607206
2.367  18.598558
2.366  18.623881
2.365  18.587574
2.364  18.572942
2.363  18.581088
2.362  18.601633
2.361  18.623302
2.360  18.643684
2.359  18.631931
2.358  18.623785
2.357  18.607198
2.356  18.621117
2.355  18.686408
2.354  18.707113
2.353  18.689906
2.352  18.655308
2.351  18.671453
2.350  18.687837
2.349  18.740466
2.348  18.734921
2.347  18.734385
2.346  18.821334
2.345  18.890895
2.344  18.844840
2.343  18.865234
2.342  18.899738
2.341  18.986539
2.340  19.025291
2.339  19.099616
2.338  19.132022
2.337  19.240252
2.336  19.296802
2.335  19.353144
2.334  19.388842
2.333  19.478470
2.332  19.535299
2.331  19.610267
2.330  19.675698
2.329  19.702246
2.328  19.725606
2.327  19.841046
2.326  19.864052
2.325  19.973194
2.324  20.007054
2.323  20.092581
2.322  20.111702
2.321  20.197265
2.320  20.262335
2.319  20.361881
2.318  20.373328
2.317  20.447376
2.316  20.517815
2.315  20.584902
2.314  20.636006
2.313  20.677801
2.312  20.673257
2.311  20.727686
2.310  20.759852
2.309  20.833649
2.308  20.845217
2.307  20.914675
2.306  20.858468
2.305  20.958329
2.304  21.006090
2.303  20.991204
2.302  20.980930
2.301  21.057357
2.300  21.049024
2.299  21.082330
2.298  21.064914
2.297  21.113515
2.296  21.076652
2.295  21.110925
2.294  21.068153
2.293  21.185892
2.292  21.178829
2.291  21.139983
2.290  21.095083
2.289  21.174170
2.288  21.112975
2.287  21.126416
2.286  21.102044
2.285  21.144765
2.284  21.053712
2.283  21.080146
2.282  21.131414
2.281  21.168648
2.280  21.111650
2.279  21.129472
2.278  21.049705
2.277  21.092027
2.276  21.044511
2.275  21.038100
2.274  21.053312
2.273  21.147515
2.272  21.056696
2.271  21.050866
2.270  20.931893
2.269  20.979178
2.268  20.902547
2.267  20.942620
2.266  20.804365
2.265  20.783456
2.264  20.686570
2.263  20.672905
2.262  20.562501
2.261  20.557338
2.260  20.385596
2.259  20.457906
2.258  20.232457
2.257  20.140769
2.256  20.049070
2.255  20.033016
2.254  19.879894
2.253  19.895209
2.252  19.787751
2.251  19.686277
2.250  19.576905
2.249  19.604900
2.248  19.494353
2.247  19.469507
2.246  19.389444
2.245  19.480602
2.244  19.321702
2.243  19.399042
2.242  19.185877
2.241  19.273008
2.240  19.212633
2.239  19.225654
2.238  19.221361
2.237  19.253650
2.236  19.138947
2.235  19.249521
2.234  19.165631
2.233  19.205443
2.232  19.143058
2.231  19.155686
2.230  19.044120
2.229  19.098187
2.228  18.912481
2.227  19.017059
2.226  18.876714
2.225  18.832607
2.224  18.738159
2.223  18.775949
2.222  18.625588
2.221  18.591106
2.220  18.552352
2.219  18.552306
2.218  18.425615
2.217  18.418190
2.216  18.351589
2.215  18.492268
2.214  18.362913
2.213  18.451835
2.212  18.494628
2.211  18.415908
2.210  18.605712
2.209  18.588506
2.208  18.595301
2.207  18.834935
2.206  18.852331
2.205  18.992652
2.204  18.988227
2.203  19.260206
2.202  19.266712
2.201  19.457902
2.200  19.526225
2.199  19.766926
2.198  19.844179
2.197  19.955859
2.196  20.030451
2.195  20.183962
2.194  20.356885
2.193  20.433678
2.192  20.573812
2.191  20.705075
2.190  20.760045
2.189  20.922497
2.188  20.917312
2.187  21.119249
2.186  21.143105
2.185  21.277243
2.184  21.311651
2.183  21.388459
2.182  21.462987
2.181  21.554186
2.180  21.498723
2.179  21.704637
2.178  21.674147
2.177  21.697675
2.176  21.674544
2.175  21.747504
2.174  21.723184
2.173  21.869689
2.172  21.815164
2.171  21.935895
2.170  21.891470
2.169  21.989527
2.168  21.895480
2.167  21.993198
2.166  21.998414
2.165  22.100681
2.164  21.948318
2.163  22.109564
2.162  22.033275
2.161  22.126767
2.160  22.098836
2.159  22.136475
2.158  22.065720
2.157  22.164393
2.156  22.141878
2.155  22.144695
2.154  22.174404
2.153  22.200144
2.152  22.148245
2.151  22.269972
2.150  22.164685
2.149  22.229820
2.148  22.164817
2.147  22.259047
2.146  22.196994
2.145  22.246384
2.144  22.152475
2.143  22.240378
2.142  22.188969
2.141  22.271102
2.140  22.188481
2.139  22.277233
2.138  22.183783
2.137  22.244567
2.136  22.174036
2.135  22.274856
2.134  22.183278
2.133  22.189041
2.132  22.146967
2.131  22.159741
2.130  22.147858
2.129  22.182725
2.128  22.153148
2.127  22.239144
2.126  22.137608
2.125  22.130023
2.124  22.112587
2.123  22.106918
2.122  22.100706
2.121  22.174217
2.120  22.106346
2.119  22.107604
2.118  22.067342
2.117  22.114779
2.116  22.095565
2.115  22.066752
2.114  22.063601
2.113  22.109378
2.112  22.047867
2.111  22.062077
2.110  22.061474
2.109  22.066527
2.108  22.022305
2.107  22.100591
2.106  22.056817
2.105  22.082468
2.104  22.077822
2.103  22.103660
2.102  22.041788
2.101  22.063424
2.100  22.064961
2.099  22.071856
2.098  22.040075
2.097  22.034176
2.096  22.061689
2.095  22.132024
2.094  22.088263
2.093  22.103056
2.092  22.136525
2.091  22.148928
2.090  22.110100
2.089  22.116345
2.088  22.135781
2.087  22.134675
2.086  22.159886
2.085  22.224048
2.084  22.222321
2.083  22.178675
2.082  22.181074
2.081  22.199508
2.080  22.178413
2.079  22.235077
2.078  22.264017
2.077  22.231201
2.076  22.265699
2.075  22.233735
2.074  22.229668
2.073  22.240421
2.072  22.208461
2.071  22.199961
2.070  22.236556
2.069  22.256422
2.068  22.220618
2.067  22.229718
2.066  22.245650
2.065  22.263477
2.064  22.257251
2.063  22.271273
2.062  22.295785
2.061  22.259853
2.060  22.234009
2.059  22.227997
2.058  22.334534
2.057  22.316002
2.056  22.269964
2.055  22.289306
2.054  22.307518
2.053  22.298333
2.052  22.313269
2.051  22.277819
2.050  22.292782
2.049  22.295444
2.048  22.290456
2.047  22.303973
2.046  22.325930
2.045  22.277696
2.044  22.326635
2.043  22.303493
2.042  22.370111
2.041  22.361245
2.040  22.335029
2.039  22.295936
2.038  22.281532
2.037  22.279490
2.036  22.326591
2.035  22.315063
2.034  22.333460
2.033  22.266925
2.032  22.325414
2.031  22.282548
2.030  22.297961
2.029  22.257592
2.028  22.293584
2.027  22.296805
2.026  22.340739
2.025  22.248738
2.024  22.251839
2.023  22.232784
2.022  22.295607
2.021  22.248606
2.020  22.222186
2.019  22.198079
2.018  22.286074
2.017  22.257496
2.016  22.319722
2.015  22.270523
2.014  22.282592
2.013  22.239638
2.012  22.271273
2.011  22.171123
2.010  22.205358
2.009  22.180236
2.008  22.288228
2.007  22.226464
2.006  22.231626
2.005  22.209586
2.004  22.313732
2.003  22.282150
2.002  22.277667
2.001  22.158845
2.000  22.247695
1.999  22.132930
1.998  22.176909
1.997  22.192632
1.996  22.181404
1.995  22.165430
1.994  22.221838
1.993  22.133172
1.992  22.169191
1.991  22.138436
1.990  22.148934
1.989  22.015478
1.988  22.070030
1.987  22.028553
1.986  22.084249
1.985  22.120440
1.984  22.108599
1.983  21.978477
1.982  22.072892
1.981  22.033439
1.980  22.060589
1.979  21.974004
1.978  22.061340
1.977  21.948736
1.976  21.960149
1.975  21.999136
1.974  22.011477
1.973  21.952649
1.972  21.987930
1.971  21.938755
1.970  21.989635
1.969  21.863325
1.968  22.030364
1.967  21.911943
1.966  21.914395
1.965  21.849734
1.964  21.944551
1.963  21.884568
1.962  22.016320
1.961  21.819055
1.960  21.907944
1.959  21.804028
1.958  21.947755
1.957  21.795884
1.956  21.896797
1.955  21.823611
1.954  21.840097
1.953  21.816610
1.952  21.912476
1.951  21.749037
1.950  21.822466
1.949  21.738627
1.948  21.841280
1.947  21.796914
1.946  21.876815
1.945  21.638896
1.944  21.848626
1.943  21.737377
1.942  21.784797
1.941  21.752708
1.940  21.786092
1.939  21.688980
1.938  21.823776
1.937  21.641677
1.936  21.847354
1.935  21.617052
1.934  21.733202
1.933  21.652331
1.932  21.778788
1.931  21.640885
1.930  21.674711
1.929  21.637671
1.928  21.673192
1.927  21.686082
1.926  21.571343
1.925  21.625243
1.924  21.661705
1.923  21.543114
1.922  21.676816
1.921  21.550837
1.920  21.671876
1.919  21.648984
1.918  21.639777
1.917  21.651278
1.916  21.582280
1.915  21.656743
1.914  21.680947
1.913  21.550913
1.912  21.584124
1.911  21.500057
1.910  21.610252
1.909  21.691776
1.908  21.638113
1.907  21.534234
1.906  21.772381
1.905  21.653561
1.904  21.731871
1.903  21.701255
1.902  21.804604
1.901  21.703581
1.900  21.796370
1.899  21.683757
1.898  21.920125
1.897  21.845782
1.896  21.961357
1.895  21.890437
1.894  22.023183
1.893  21.962381
1.892  22.089359
1.891  22.018146
1.890  22.080646
1.889  21.989609
1.888  22.148537
1.887  22.015162
1.886  22.163581
1.885  22.014861
1.884  22.136571
1.883  22.111742
1.882  22.196302
1.881  22.139343
1.880  22.177186
1.879  22.143471
1.878  22.242308
1.877  22.120861
1.876  22.148799
1.875  22.089110
1.874  22.107330
1.873  22.008166
1.872  22.114918
1.871  22.042126
1.870  22.130281
1.869  22.063867
1.868  22.120947
1.867  22.129002
1.866  22.188414
1.865  22.201462
1.864  22.216223
1.863  22.182561
1.862  22.222373
1.861  22.217807
1.860  22.283111
1.859  22.117193
1.858  22.239167
1.857  22.158265
1.856  22.169593
1.855  22.157146
1.854  22.219655
1.853  22.195896
1.852  22.258021
1.851  22.234833
1.850  22.229495
1.849  22.204800
1.848  22.226839
1.847  22.174201
1.846  22.213444
1.845  22.141370
1.844  22.236555
1.843  22.239063
1.842  22.299126
1.841  22.251935
1.840  22.272803
1.839  22.207586
1.838  22.252689
1.837  22.213525
1.836  22.168138
1.835  22.173821
1.834  22.205397
1.833  22.221816
1.832  22.285006
1.831  22.224755
1.830  22.274665
1.829  22.284755
1.828  22.278376
1.827  22.262552
1.826  22.280439
1.825  22.287115
1.824  22.286711
1.823  22.221517
1.822  22.279541
1.821  22.219118
1.820  22.243830
1.819  22.230038
1.818  22.300240
1.817  22.235207
1.816  22.274671
1.815  22.273343
1.814  22.322355
1.813  22.304043
1.812  22.330932
1.811  22.286347
1.810  22.269864
1.809  22.306386
1.808  22.318906
1.807  22.289542
1.806  22.298158
1.805  22.285706
1.804  22.312400
1.803  22.343744
1.802  22.341629
1.801  22.313451
1.800  22.314095
1.799  22.281175
1.798  22.299118
1.797  22.295920
1.796  22.324757
1.795  22.342021
1.794  22.348897
1.793  22.333201
1.792  22.286088
1.791  22.265415
1.790  22.261403
1.789  22.288853
1.788  22.295989
1.787  22.240110
1.786  22.272395
1.785  22.277708
1.784  22.276380
1.783  22.228034
1.782  22.239516
1.781  22.307554
1.780  22.244780
1.779  22.249678
1.778  22.254322
1.777  22.234640
1.776  22.247691
1.775  22.230670
1.774  22.174749
1.773  22.213681
1.772  22.238021
1.771  22.203124
1.770  22.200979
1.769  22.237886
1.768  22.268275
1.767  22.272254
1.766  22.233621
1.765  22.268749
1.764  22.236198
1.763  22.219538
1.762  22.195077
1.761  22.258718
1.760  22.235340
1.759  22.262389
1.758  22.189141
1.757  22.177739
1.756  22.196126
1.755  22.231714
1.754  22.204491
1.753  22.233711
1.752  22.252771
1.751  22.229686
1.750  22.251768
1.749  22.308062
1.748  22.245344
1.747  22.255990
1.746  22.257157
1.745  22.244404
1.744  22.194630
1.743  22.219531
1.742  22.211076
1.741  22.263541
1.740  22.234107
1.739  22.280986
1.738  22.230794
1.737  22.289862
1.736  22.296579
1.735  22.299836
1.734  22.185179
1.733  22.198353
1.732  22.201317
1.731  22.248565
1.730  22.265247
1.729  22.261529
1.728  22.270079
1.727  22.307816
1.726  22.278242
1.725  22.256548
1.724  22.203804
1.723  22.222042
1.722  22.192351
1.721  22.310539
1.720  22.217199
1.719  22.285231
1.718  22.218623
1.717  22.304381
1.716  22.251680
1.715  22.319491
1.714  22.216186
1.713  22.277454
1.712  22.274980
1.711  22.337169
1.710  22.226625
1.709  22.294898
1.708  22.218596
1.707  22.279635
1.706  22.237963
1.705  22.300000
1.704  22.259492
1.703  22.285243
1.702  22.270059
1.701  22.264693
1.700  22.189976
1.699  22.236576
1.698  22.271840
1.697  22.323193
1.696  22.207201
1.695  22.318898
1.694  22.246912
1.693  22.302807
1.692  22.252858
1.691  22.301010
1.690  22.250195
1.689  22.304082
1.688  22.193758
1.687  22.349178
1.686  22.312873
1.685  22.356152
1.684  22.215568
1.683  22.326400
1.682  22.232613
1.681  22.277892
1.680  22.216680
1.679  22.392172
1.678  22.255544
1.677  22.324319
1.676  22.253771
1.675  22.356906
1.674  22.295133
1.673  22.336943
1.672  22.304982
1.671  22.374972
1.670  22.282043
1.669  22.396946
1.668  22.255786
1.667  22.446318
1.666  22.342128
1.665  22.382466
1.664  22.238197
1.663  22.386904
1.662  22.344028
1.661  22.418152
1.660  22.320518
1.659  22.342605
1.658  22.358620
1.657  22.486707
1.656  22.302542
1.655  22.417542
1.654  22.344602
1.653  22.441845
1.652  22.294436
1.651  22.448127
1.650  22.355496
1.649  22.357966
1.648  22.307926
1.647  22.457256
1.646  22.380345
1.645  22.455595
1.644  22.298310
1.643  22.444769
1.642  22.461684
1.641  22.315811
1.640  22.362120
1.639  22.423656
1.638  22.301911
1.637  22.504750
1.636  22.349555
1.635  22.436464
1.634  22.435529
1.633  22.480419
1.632  22.444451
1.631  22.503007
1.630  22.402080
1.629  22.446593
1.628  22.381157
1.627  22.377292
1.626  22.460519
1.625  22.472858
1.624  22.497238
1.623  22.507719
1.622  22.377344
1.621  22.487912
1.620  22.379879
1.619  22.463598
1.618  22.486978
1.617  22.482405
1.616  22.364490
1.615  22.558986
1.614  22.462420
1.613  22.490344
1.612  22.434418
1.611  22.507669
1.610  22.388324
1.609  22.467960
1.608  22.453706
1.607  22.510079
1.606  22.465116
1.605  22.525068
1.604  22.424907
1.603  22.545542
1.602  22.451116
1.601  22.512589
1.600  22.411056
1.599  22.493492
1.598  22.426964
1.597  22.530478
1.596  22.456144
1.595  22.502429
1.594  22.468141
1.593  22.523520
1.592  22.478315
1.591  22.571212
1.590  22.510664
1.589  22.584624
1.588  22.479869
1.587  22.565022
1.586  22.476392
1.585  22.571732
1.584  22.507165
1.583  22.627465
1.582  22.496428
1.581  22.548719
1.580  22.505915
1.579  22.598581
1.578  22.508769
1.577  22.603121
1.576  22.548286
1.575  22.602569
1.574  22.515715
1.573  22.593629
1.572  22.568374
1.571  22.606087
1.570  22.560651
1.569  22.689565
1.568  22.588064
1.567  22.633783
1.566  22.485025
1.565  22.663127
1.564  22.551938
1.563  22.650450
1.562  22.538829
1.561  22.634246
1.560  22.563687
1.559  22.655663
1.558  22.612079
1.557  22.613251
1.556  22.542523
1.555  22.651665
1.554  22.591338
1.553  22.626217
1.552  22.609349
1.551  22.643868
1.550  22.673471
1.549  22.666123
1.548  22.615913
1.547  22.665208
1.546  22.674518
1.545  22.716795
1.544  22.634819
1.543  22.676664
1.542  22.680670
1.541  22.703708
1.540  22.651614
1.539  22.700899
1.538  22.695653
1.537  22.685523
1.536  22.670514
1.535  22.726264
1.534  22.668683
1.533  22.687517
1.532  22.724009
1.531  22.799675
1.530  22.727032
1.529  22.737209
1.528  22.692888
1.527  22.711266
1.526  22.646737
1.525  22.757531
1.524  22.787344
1.523  22.765163
1.522  22.733775
1.521  22.717685
1.520  22.767636
1.519  22.788608
1.518  22.709511
1.517  22.743921
1.516  22.772023
1.515  22.788135
1.514  22.761000
1.513  22.751206
1.512  22.763004
1.511  22.771356
1.510  22.781327
1.509  22.793650
1.508  22.785459
1.507  22.773686
1.506  22.766314
1.505  22.796815
1.504  22.831074
1.503  22.818628
1.502  22.812404
1.501  22.824605
1.500  22.794102
1.499  22.796357
1.498  22.799315
1.497  22.794648
1.496  22.815466
1.495  22.862532
1.494  22.919560
1.493  22.885090
1.492  22.873268
1.491  22.862509
1.490  22.926951
1.489  22.947902
1.488  22.924161
1.487  22.875849
1.486  22.865315
1.485  22.867353
1.484  22.918813
1.483  22.937102
1.482  22.963684
1.481  22.922112
1.480  22.917797
1.479  22.943613
1.478  22.928599
1.477  22.884443
1.476  22.958790
1.475  22.957746
1.474  22.962658
1.473  22.934702
1.472  22.987202
1.471  22.965561
1.470  22.986641
1.469  22.937655
1.468  23.010686
1.467  22.946335
1.466  23.003663
1.465  23.010782
1.464  22.986857
1.463  22.970229
1.462  23.009954
1.461  23.000859
1.460  23.004099
1.459  23.017844
1.458  23.061503
1.457  23.055887
1.456  23.003829
1.455  22.989137
1.454  23.011187
1.453  23.043585
1.452  23.048786
1.451  22.982012
1.450  23.072052
1.449  23.033455
1.448  23.087358
1.447  23.046333
1.446  23.067130
1.445  22.990774
1.444  22.952349
1.443  22.930618
1.442  22.935894
1.441  22.938741
1.440  22.902776
1.439  22.876536
1.438  22.805690
1.437  22.744828
1.436  22.687138
1.435  22.554867
1.434  22.561392
1.433  22.471127
