Name: Tuff
Type: Rock
Class: Igneous
Subclass:  Felsic 
Particle Size: Solid surface
Sample No.: Ward04.txt
Owner: JPL
Wavelength range:  VNIR SWIR IR 
Origin: Ward's Collection of American Rocks.  Sample locality - Cripple Creek, Teller county, Colorado.
Collected by:  Ward's Natural Science
Description: A light-gray felsitic rock, somewhat porous and earthy in
appearance, with speckles of pyrite.
Geologic age - Tertiary (Oligocene).



Measurement: Hemispherical reflectance
First Column: X
Second Column: Y
X Units: Wavelength (micrometers)
Y Units: Reflectance (percent)
First X Value: 2.500
Last X Value: 0.400
Number of X Values: 2101
Additional information: None

2.500  29.498212
2.499  29.410447
2.498  29.335212
2.497  29.577464
2.496  28.962013
2.495  29.682897
2.494  29.438169
2.493  29.603764
2.492  29.587572
2.491  29.588048
2.490  29.506252
2.489  29.780981
2.488  29.607443
2.487  29.830117
2.486  29.885016
2.485  29.973180
2.484  30.042798
2.483  30.179463
2.482  30.084723
2.481  30.133636
2.480  30.224346
2.479  30.371355
2.478  30.226471
2.477  30.557038
2.476  30.384175
2.475  30.654273
2.474  30.674435
2.473  30.734450
2.472  30.732712
2.471  30.923778
2.470  30.857964
2.469  31.015847
2.468  31.021679
2.467  31.167462
2.466  31.160709
2.465  31.145389
2.464  31.218806
2.463  31.418799
2.462  31.388386
2.461  31.467700
2.460  31.379993
2.459  31.625982
2.458  31.567521
2.457  31.592545
2.456  31.607511
2.455  31.804986
2.454  31.771150
2.453  31.956448
2.452  31.843261
2.451  31.982202
2.450  32.037219
2.449  32.008510
2.448  31.988214
2.447  32.146335
2.446  32.249584
2.445  32.199020
2.444  32.271559
2.443  32.414595
2.442  32.324551
2.441  32.547921
2.440  32.540197
2.439  32.629135
2.438  32.624383
2.437  32.728461
2.436  32.762037
2.435  32.943168
2.434  32.942470
2.433  33.099016
2.432  33.079612
2.431  33.329660
2.430  33.253193
2.429  33.393050
2.428  33.436775
2.427  33.625759
2.426  33.629002
2.425  33.697972
2.424  33.729146
2.423  33.943776
2.422  33.953970
2.421  33.949451
2.420  34.050384
2.419  34.213289
2.418  34.227957
2.417  34.359132
2.416  34.319754
2.415  34.406770
2.414  34.348019
2.413  34.429628
2.412  34.423716
2.411  34.599614
2.410  34.598264
2.409  34.622166
2.408  34.601966
2.407  34.658670
2.406  34.642736
2.405  34.621611
2.404  34.605707
2.403  34.738166
2.402  34.667425
2.401  34.703003
2.400  34.668992
2.399  34.681054
2.398  34.649052
2.397  34.687039
2.396  34.601465
2.395  34.598970
2.394  34.577883
2.393  34.598040
2.392  34.553722
2.391  34.540380
2.390  34.489692
2.389  34.540276
2.388  34.535321
2.387  34.489293
2.386  34.464999
2.385  34.563340
2.384  34.563318
2.383  34.590290
2.382  34.619358
2.381  34.651575
2.380  34.667463
2.379  34.788703
2.378  34.856043
2.377  34.937187
2.376  35.079023
2.375  35.156149
2.374  35.219721
2.373  35.356921
2.372  35.467698
2.371  35.566640
2.370  35.650366
2.369  35.787111
2.368  35.920589
2.367  35.991459
2.366  36.121837
2.365  36.211689
2.364  36.276673
2.363  36.352394
2.362  36.403644
2.361  36.424419
2.360  36.485229
2.359  36.580182
2.358  36.645806
2.357  36.681814
2.356  36.695742
2.355  36.754121
2.354  36.795363
2.353  36.794468
2.352  36.785363
2.351  36.826572
2.350  36.882683
2.349  36.872749
2.348  36.884305
2.347  36.958825
2.346  36.942483
2.345  36.955044
2.344  36.966387
2.343  36.947700
2.342  36.985117
2.341  36.971412
2.340  36.983691
2.339  36.994451
2.338  37.047249
2.337  37.065317
2.336  37.084608
2.335  37.034129
2.334  37.017617
2.333  37.046748
2.332  37.093068
2.331  37.045723
2.330  37.022003
2.329  37.017431
2.328  37.092927
2.327  37.112105
2.326  37.182737
2.325  37.214117
2.324  37.235006
2.323  37.219443
2.322  37.294165
2.321  37.379509
2.320  37.442668
2.319  37.461089
2.318  37.552981
2.317  37.628868
2.316  37.744801
2.315  37.840081
2.314  37.979315
2.313  38.052040
2.312  38.149794
2.311  38.290513
2.310  38.453393
2.309  38.556552
2.308  38.690784
2.307  38.765569
2.306  38.915289
2.305  39.078643
2.304  39.204176
2.303  39.303848
2.302  39.493559
2.301  39.625958
2.300  39.753159
2.299  39.866785
2.298  39.983442
2.297  40.098640
2.296  40.213490
2.295  40.325131
2.294  40.486026
2.293  40.633692
2.292  40.788053
2.291  40.904785
2.290  40.977669
2.289  41.081040
2.288  41.222641
2.287  41.278609
2.286  41.377423
2.285  41.469986
2.284  41.587995
2.283  41.628168
2.282  41.782963
2.281  41.913283
2.280  41.988072
2.279  42.026800
2.278  42.031843
2.277  42.194628
2.276  42.290469
2.275  42.284385
2.274  42.372103
2.273  42.431965
2.272  42.470594
2.271  42.525876
2.270  42.555729
2.269  42.543272
2.268  42.664144
2.267  42.654844
2.266  42.680628
2.265  42.704152
2.264  42.776154
2.263  42.709517
2.262  42.755544
2.261  42.699277
2.260  42.755504
2.259  42.701751
2.258  42.728885
2.257  42.628945
2.256  42.687844
2.255  42.632346
2.254  42.571267
2.253  42.453870
2.252  42.491907
2.251  42.448617
2.250  42.511217
2.249  42.499741
2.248  42.448089
2.247  42.430450
2.246  42.501149
2.245  42.433711
2.244  42.440693
2.243  42.467315
2.242  42.514756
2.241  42.512172
2.240  42.557496
2.239  42.594941
2.238  42.634886
2.237  42.691856
2.236  42.834248
2.235  42.802656
2.234  42.914631
2.233  42.838373
2.232  42.993409
2.231  42.914817
2.230  42.929631
2.229  42.890173
2.228  42.823975
2.227  42.788207
2.226  42.740531
2.225  42.585164
2.224  42.512261
2.223  42.274790
2.222  42.124717
2.221  41.815151
2.220  41.633896
2.219  41.198922
2.218  40.861712
2.217  40.452541
2.216  40.123176
2.215  39.558341
2.214  39.328524
2.213  38.734966
2.212  38.420963
2.211  37.879577
2.210  37.714066
2.209  37.374576
2.208  37.267429
2.207  37.014375
2.206  37.072838
2.205  37.035013
2.204  37.194102
2.203  37.294380
2.202  37.448881
2.201  37.805152
2.200  38.256132
2.199  38.475698
2.198  38.768708
2.197  39.070416
2.196  39.430645
2.195  39.641243
2.194  40.027678
2.193  40.270655
2.192  40.533734
2.191  40.695014
2.190  40.926534
2.189  41.109106
2.188  41.316738
2.187  41.405467
2.186  41.659626
2.185  41.768975
2.184  41.920976
2.183  42.066276
2.182  42.142372
2.181  42.262585
2.180  42.400794
2.179  42.475690
2.178  42.671537
2.177  42.559863
2.176  42.696585
2.175  42.628668
2.174  42.749252
2.173  42.737992
2.172  42.835167
2.171  42.762447
2.170  42.817361
2.169  42.774072
2.168  42.852841
2.167  42.919551
2.166  42.996855
2.165  42.983067
2.164  43.069122
2.163  43.107250
2.162  43.235438
2.161  43.299617
2.160  43.348602
2.159  43.370066
2.158  43.533260
2.157  43.642937
2.156  43.878374
2.155  44.050612
2.154  44.225525
2.153  44.332639
2.152  44.572363
2.151  44.713584
2.150  44.911225
2.149  45.092496
2.148  45.356963
2.147  45.534663
2.146  45.768804
2.145  45.884675
2.144  46.082871
2.143  46.223301
2.142  46.360693
2.141  46.546620
2.140  46.719356
2.139  46.840694
2.138  46.937270
2.137  46.994521
2.136  47.120781
2.135  47.181695
2.134  47.313047
2.133  47.317697
2.132  47.382513
2.131  47.424220
2.130  47.485389
2.129  47.479329
2.128  47.530987
2.127  47.578586
2.126  47.603554
2.125  47.555177
2.124  47.612917
2.123  47.583171
2.122  47.584336
2.121  47.548196
2.120  47.558290
2.119  47.519622
2.118  47.581104
2.117  47.605444
2.116  47.596055
2.115  47.524039
2.114  47.524032
2.113  47.534833
2.112  47.486548
2.111  47.451015
2.110  47.519418
2.109  47.521517
2.108  47.546467
2.107  47.501845
2.106  47.541973
2.105  47.532504
2.104  47.576156
2.103  47.607212
2.102  47.570710
2.101  47.597777
2.100  47.620730
2.099  47.646902
2.098  47.621355
2.097  47.577208
2.096  47.632198
2.095  47.642118
2.094  47.667509
2.093  47.686086
2.092  47.714375
2.091  47.714045
2.090  47.732731
2.089  47.791772
2.088  47.810292
2.087  47.794627
2.086  47.827558
2.085  47.846286
2.084  47.886084
2.083  47.895263
2.082  47.874236
2.081  47.870767
2.080  47.932092
2.079  47.975051
2.078  47.978848
2.077  47.944930
2.076  47.909431
2.075  47.975438
2.074  48.061787
2.073  48.101527
2.072  48.098609
2.071  48.040912
2.070  48.051809
2.069  48.105257
2.068  48.137154
2.067  48.158039
2.066  48.140225
2.065  48.149653
2.064  48.136511
2.063  48.128232
2.062  48.119958
2.061  48.143486
2.060  48.146829
2.059  48.112509
2.058  48.145033
2.057  48.125742
2.056  48.078311
2.055  48.096565
2.054  48.160044
2.053  48.163666
2.052  48.130788
2.051  48.097714
2.050  48.060521
2.049  48.053168
2.048  48.056365
2.047  48.077561
2.046  48.019214
2.045  48.024451
2.044  48.046376
2.043  47.965235
2.042  47.926297
2.041  47.992102
2.040  47.928871
2.039  47.883281
2.038  47.842204
2.037  47.829114
2.036  47.829451
2.035  47.843282
2.034  47.794968
2.033  47.768143
2.032  47.667739
2.031  47.729335
2.030  47.723033
2.029  47.658800
2.028  47.618037
2.027  47.605005
2.026  47.591446
2.025  47.534660
2.024  47.447796
2.023  47.476228
2.022  47.381085
2.021  47.387088
2.020  47.354046
2.019  47.240596
2.018  47.239820
2.017  47.212844
2.016  47.169035
2.015  47.169079
2.014  47.050246
2.013  47.061157
2.012  46.951192
2.011  46.905643
2.010  46.812106
2.009  46.822592
2.008  46.768955
2.007  46.760957
2.006  46.675352
2.005  46.614576
2.004  46.527123
2.003  46.494892
2.002  46.449274
2.001  46.428507
2.000  46.413688
1.999  46.370324
1.998  46.227928
1.997  46.191511
1.996  46.137819
1.995  46.123844
1.994  45.953316
1.993  46.005238
1.992  45.889619
1.991  45.863821
1.990  45.701610
1.989  45.679574
1.988  45.605207
1.987  45.529853
1.986  45.411101
1.985  45.478212
1.984  45.377298
1.983  45.301024
1.982  45.235150
1.981  45.117557
1.980  45.051166
1.979  45.067044
1.978  44.925047
1.977  44.867513
1.976  44.868280
1.975  44.774692
1.974  44.669112
1.973  44.639860
1.972  44.580221
1.971  44.552932
1.970  44.443668
1.969  44.387807
1.968  44.326424
1.967  44.327763
1.966  44.228805
1.965  44.227147
1.964  44.174442
1.963  44.107158
1.962  43.951114
1.961  43.938084
1.960  43.841777
1.959  43.848436
1.958  43.828554
1.957  43.856240
1.956  43.614530
1.955  43.615748
1.954  43.526015
1.953  43.587315
1.952  43.483011
1.951  43.427437
1.950  43.338286
1.949  43.406788
1.948  43.280405
1.947  43.228297
1.946  43.123668
1.945  43.094776
1.944  43.017281
1.943  43.049323
1.942  42.940722
1.941  42.938580
1.940  42.814477
1.939  42.841475
1.938  42.703379
1.937  42.602010
1.936  42.508083
1.935  42.457080
1.934  42.387613
1.933  42.322554
1.932  42.192430
1.931  42.234227
1.930  42.061397
1.929  42.051981
1.928  41.889847
1.927  41.904261
1.926  41.564414
1.925  41.625874
1.924  41.404786
1.923  41.340147
1.922  41.179638
1.921  41.066892
1.920  40.779080
1.919  40.813328
1.918  40.598203
1.917  40.628740
1.916  40.300442
1.915  40.354352
1.914  40.220523
1.913  40.269292
1.912  40.185658
1.911  40.202793
1.910  40.245208
1.909  40.353880
1.908  40.289224
1.907  40.536666
1.906  40.675989
1.905  41.037921
1.904  41.093366
1.903  41.508054
1.902  41.741933
1.901  42.174056
1.900  42.513103
1.899  42.877182
1.898  43.178677
1.897  43.690178
1.896  44.015988
1.895  44.444746
1.894  44.749521
1.893  45.183581
1.892  45.477373
1.891  45.847441
1.890  46.184133
1.889  46.386037
1.888  46.695855
1.887  47.043641
1.886  47.204801
1.885  47.436760
1.884  47.634165
1.883  47.888939
1.882  47.983229
1.881  48.176564
1.880  48.271883
1.879  48.427739
1.878  48.606027
1.877  48.694516
1.876  48.790983
1.875  48.923395
1.874  48.906747
1.873  49.057613
1.872  49.042217
1.871  49.145704
1.870  49.192205
1.869  49.193726
1.868  49.289098
1.867  49.386522
1.866  49.387065
1.865  49.500441
1.864  49.476682
1.863  49.572153
1.862  49.572231
1.861  49.672344
1.860  49.662037
1.859  49.686547
1.858  49.604652
1.857  49.582825
1.856  49.564345
1.855  49.628665
1.854  49.609674
1.853  49.663717
1.852  49.682223
1.851  49.695960
1.850  49.637937
1.849  49.622505
1.848  49.586331
1.847  49.578382
1.846  49.493621
1.845  49.582709
1.844  49.539858
1.843  49.506821
1.842  49.548178
1.841  49.586638
1.840  49.587681
1.839  49.545200
1.838  49.525550
1.837  49.492345
1.836  49.471937
1.835  49.515092
1.834  49.526115
1.833  49.503216
1.832  49.493845
1.831  49.518461
1.830  49.426317
1.829  49.396350
1.828  49.418806
1.827  49.433860
1.826  49.362177
1.825  49.422952
1.824  49.399290
1.823  49.380331
1.822  49.352037
1.821  49.369216
1.820  49.312120
1.819  49.316509
1.818  49.298276
1.817  49.290765
1.816  49.295878
1.815  49.319083
1.814  49.306565
1.813  49.240444
1.812  49.222954
1.811  49.262332
1.810  49.223587
1.809  49.191729
1.808  49.211252
1.807  49.198870
1.806  49.155260
1.805  49.168092
1.804  49.139278
1.803  49.130509
1.802  49.108379
1.801  49.133766
1.800  49.132585
1.799  49.119252
1.798  49.103242
1.797  49.060646
1.796  49.015375
1.795  49.021477
1.794  49.012790
1.793  49.019910
1.792  49.022693
1.791  49.000600
1.790  48.959591
1.789  48.941050
1.788  48.973398
1.787  48.960423
1.786  48.967876
1.785  48.978089
1.784  48.900205
1.783  48.938872
1.782  48.931534
1.781  48.832327
1.780  48.886052
1.779  48.871006
1.778  48.837611
1.777  48.852623
1.776  48.763887
1.775  48.747637
1.774  48.767302
1.773  48.737030
1.772  48.743319
1.771  48.719414
1.770  48.730166
1.769  48.739066
1.768  48.731336
1.767  48.721193
1.766  48.712466
1.765  48.688864
1.764  48.700762
1.763  48.673693
1.762  48.671946
1.761  48.629367
1.760  48.614796
1.759  48.593909
1.758  48.568629
1.757  48.593999
1.756  48.616134
1.755  48.571666
1.754  48.590047
1.753  48.547783
1.752  48.573945
1.751  48.541524
1.750  48.542636
1.749  48.518897
1.748  48.572732
1.747  48.514907
1.746  48.509196
1.745  48.450638
1.744  48.461834
1.743  48.398347
1.742  48.406850
1.741  48.431749
1.740  48.476332
1.739  48.417914
1.738  48.396688
1.737  48.330049
1.736  48.373766
1.735  48.312168
1.734  48.297194
1.733  48.322146
1.732  48.368150
1.731  48.280427
1.730  48.266949
1.729  48.255630
1.728  48.299477
1.727  48.204416
1.726  48.190957
1.725  48.150740
1.724  48.133698
1.723  48.108771
1.722  48.138621
1.721  48.127443
1.720  48.118234
1.719  48.101653
1.718  48.089935
1.717  48.048125
1.716  48.069219
1.715  48.016198
1.714  47.972193
1.713  47.941712
1.712  47.974456
1.711  47.961152
1.710  47.947484
1.709  47.863424
1.708  47.877630
1.707  47.896361
1.706  47.865849
1.705  47.793705
1.704  47.771898
1.703  47.756706
1.702  47.728655
1.701  47.664205
1.700  47.678306
1.699  47.654213
1.698  47.695082
1.697  47.629623
1.696  47.620274
1.695  47.614833
1.694  47.591656
1.693  47.559330
1.692  47.550394
1.691  47.505316
1.690  47.488362
1.689  47.424647
1.688  47.477614
1.687  47.471187
1.686  47.508187
1.685  47.363374
1.684  47.455680
1.683  47.403361
1.682  47.401245
1.681  47.312855
1.680  47.329625
1.679  47.302132
1.678  47.273154
1.677  47.192034
1.676  47.279823
1.675  47.186880
1.674  47.178723
1.673  47.115916
1.672  47.169361
1.671  47.113836
1.670  47.082422
1.669  47.160901
1.668  46.958995
1.667  47.104815
1.666  47.042142
1.665  46.870676
1.664  46.934242
1.663  46.849530
1.662  46.961305
1.661  46.906324
1.660  46.901629
1.659  46.797996
1.658  46.834162
1.657  46.794477
1.656  46.747824
1.655  46.777671
1.654  46.708534
1.653  46.622688
1.652  46.715783
1.651  46.647346
1.650  46.576025
1.649  46.590622
1.648  46.633763
1.647  46.511294
1.646  46.633505
1.645  46.452841
1.644  46.645263
1.643  46.378778
1.642  46.491769
1.641  46.366209
1.640  46.501824
1.639  46.343276
1.638  46.350881
1.637  46.326671
1.636  46.398015
1.635  46.258364
1.634  46.327205
1.633  46.208422
1.632  46.262226
1.631  46.180747
1.630  46.233500
1.629  46.107278
1.628  46.108733
1.627  46.122714
1.626  46.039521
1.625  46.017707
1.624  46.097201
1.623  45.981254
1.622  46.028815
1.621  45.964778
1.620  45.985249
1.619  45.939726
1.618  45.981817
1.617  45.912918
1.616  45.850457
1.615  45.838214
1.614  45.822392
1.613  45.791197
1.612  45.815177
1.611  45.708147
1.610  45.726160
1.609  45.654307
1.608  45.662626
1.607  45.607976
1.606  45.640217
1.605  45.575466
1.604  45.572408
1.603  45.461582
1.602  45.521526
1.601  45.475321
1.600  45.456835
1.599  45.380288
1.598  45.375547
1.597  45.359048
1.596  45.350078
1.595  45.267432
1.594  45.360200
1.593  45.320602
1.592  45.265797
1.591  45.209076
1.590  45.173314
1.589  45.099414
1.588  45.117150
1.587  45.073702
1.586  45.077382
1.585  45.040817
1.584  45.092657
1.583  44.973860
1.582  45.065050
1.581  44.919638
1.580  44.954129
1.579  44.852051
1.578  44.822177
1.577  44.788604
1.576  44.742986
1.575  44.741227
1.574  44.762262
1.573  44.704144
1.572  44.721263
1.571  44.659930
1.570  44.640066
1.569  44.545460
1.568  44.646565
1.567  44.601919
1.566  44.534402
1.565  44.476081
1.564  44.471604
1.563  44.394749
1.562  44.422537
1.561  44.360534
1.560  44.397457
1.559  44.330295
1.558  44.359518
1.557  44.235216
1.556  44.269855
1.555  44.206569
1.554  44.186473
1.553  44.089039
1.552  44.083826
1.551  44.040196
1.550  44.024415
1.549  43.985631
1.548  44.025420
1.547  43.953986
1.546  43.975386
1.545  43.891340
1.544  43.897476
1.543  43.860976
1.542  43.860156
1.541  43.768762
1.540  43.803876
1.539  43.765394
1.538  43.692613
1.537  43.622331
1.536  43.641940
1.535  43.545733
1.534  43.540770
1.533  43.509760
1.532  43.485149
1.531  43.467983
1.530  43.488054
1.529  43.437971
1.528  43.386655
1.527  43.338687
1.526  43.282198
1.525  43.187675
1.524  43.220884
1.523  43.261478
1.522  43.214251
1.521  43.142220
1.520  43.139406
1.519  43.102212
1.518  43.050067
1.517  43.033322
1.516  42.998736
1.515  42.959553
1.514  42.930764
1.513  42.876134
1.512  42.865578
1.511  42.824586
1.510  42.768588
1.509  42.677028
1.508  42.649188
1.507  42.650731
1.506  42.609732
1.505  42.631808
1.504  42.592775
1.503  42.481823
1.502  42.441143
1.501  42.383680
1.500  42.413050
1.499  42.417456
1.498  42.380968
1.497  42.314543
1.496  42.254110
1.495  42.244717
1.494  42.232795
1.493  42.234673
1.492  42.214439
1.491  42.155238
1.490  42.004239
1.489  41.994462
1.488  42.008943
1.487  41.969661
1.486  41.891403
1.485  41.845315
1.484  41.853627
1.483  41.826987
1.482  41.779496
1.481  41.766924
1.480  41.664222
1.479  41.607200
1.478  41.569656
1.477  41.552445
1.476  41.540978
1.475  41.514233
1.474  41.466817
1.473  41.413721
1.472  41.323549
1.471  41.298055
1.470  41.245923
1.469  41.233742
1.468  41.189184
1.467  41.200756
1.466  41.132316
1.465  41.083157
1.464  41.011394
1.463  40.957949
1.462  40.969239
1.461  41.045000
1.460  40.926585
1.459  40.902136
1.458  40.884393
1.457  40.855078
1.456  40.775799
1.455  40.722258
1.454  40.693765
1.453  40.702147
1.452  40.686004
1.451  40.624383
1.450  40.549795
1.449  40.509396
1.448  40.457379
1.447  40.436291
1.446  40.404227
1.445  40.347507
1.444  40.232071
1.443  40.229319
1.442  40.177006
1.441  40.176170
1.440  40.124458
1.439  40.065319
1.438  39.958420
1.437  39.953588
1.436  39.785856
1.435  39.818666
1.434  39.711008
1.433  39.695326
1.432  39.615149
1.431  39.540164
1.430  39.491053
1.429  39.481304
