Name: Hornblende Syenite
Type: Rock
Class: Igneous
Subclass:  Alkalic 
Particle Size: Solid surface
Sample No.: Ward19.txt
Owner: JPL
Wavelength range:  VNIR SWIR IR 
Origin: Ward's Collection of American Rocks.  Sample locality - Near Cuttingsville, Ruthland County, Vermont.
Collected by:  Ward's Natural Science
Description: A granular gray rock composed of feldspar showing good
cleavage and considerable hornblende.
Geologic age - Post-Carboniferous - Pre-Cretaceous.



Measurement: Hemispherical reflectance
First Column: X
Second Column: Y
X Units: Wavelength (micrometers)
Y Units: Reflectance (percent)
First X Value: 2.500
Last X Value: 0.400
Number of X Values: 2101
Additional information: None

2.500  23.941808
2.499  23.771823
2.498  23.838130
2.497  23.773667
2.496  23.784329
2.495  23.847923
2.494  23.774776
2.493  23.654300
2.492  23.874321
2.491  23.808192
2.490  23.876980
2.489  23.817193
2.488  23.973704
2.487  23.952229
2.486  23.999174
2.485  23.762243
2.484  23.986840
2.483  23.857309
2.482  24.042979
2.481  23.844398
2.480  24.010902
2.479  23.857316
2.478  23.917627
2.477  23.847201
2.476  24.006265
2.475  23.895366
2.474  24.080392
2.473  23.860962
2.472  23.885011
2.471  23.862936
2.470  24.139607
2.469  23.843681
2.468  24.018160
2.467  24.133744
2.466  24.219602
2.465  24.053191
2.464  24.119241
2.463  24.011078
2.462  24.204861
2.461  24.080837
2.460  24.080315
2.459  24.095682
2.458  24.141178
2.457  24.060979
2.456  24.117944
2.455  24.189877
2.454  24.269647
2.453  24.115779
2.452  24.230758
2.451  24.273531
2.450  24.266073
2.449  24.190795
2.448  24.273185
2.447  24.227374
2.446  24.329562
2.445  24.234268
2.444  24.265034
2.443  24.234208
2.442  24.430930
2.441  24.404268
2.440  24.339774
2.439  24.287251
2.438  24.260472
2.437  24.303091
2.436  24.412934
2.435  24.378873
2.434  24.391113
2.433  24.435956
2.432  24.381482
2.431  24.409484
2.430  24.525863
2.429  24.428320
2.428  24.542477
2.427  24.438368
2.426  24.625165
2.425  24.575286
2.424  24.664256
2.423  24.684541
2.422  24.805316
2.421  24.755515
2.420  24.816142
2.419  24.787004
2.418  24.887675
2.417  24.850666
2.416  24.974820
2.415  25.035456
2.414  25.086592
2.413  25.101166
2.412  25.108402
2.411  25.142407
2.410  25.284804
2.409  25.211567
2.408  25.299982
2.407  25.332543
2.406  25.472836
2.405  25.462623
2.404  25.477504
2.403  25.561386
2.402  25.592349
2.401  25.550531
2.400  25.646622
2.399  25.666801
2.398  25.726135
2.397  25.776766
2.396  25.848065
2.395  25.848474
2.394  25.867778
2.393  25.882506
2.392  25.985403
2.391  26.022583
2.390  26.052493
2.389  26.059842
2.388  26.085775
2.387  26.088287
2.386  26.182408
2.385  26.202069
2.384  26.273805
2.383  26.255428
2.382  26.332651
2.381  26.418736
2.380  26.364449
2.379  26.414226
2.378  26.561849
2.377  26.492874
2.376  26.551675
2.375  26.600250
2.374  26.619766
2.373  26.623970
2.372  26.663016
2.371  26.718385
2.370  26.782876
2.369  26.756727
2.368  26.776326
2.367  26.807433
2.366  26.853805
2.365  26.886883
2.364  26.837381
2.363  26.843912
2.362  26.830981
2.361  26.867661
2.360  26.938973
2.359  26.931218
2.358  26.913661
2.357  26.944893
2.356  26.985576
2.355  27.038988
2.354  27.044252
2.353  27.013514
2.352  27.054104
2.351  27.108564
2.350  27.119905
2.349  27.120900
2.348  27.065261
2.347  27.101776
2.346  27.182392
2.345  27.183942
2.344  27.219893
2.343  27.260740
2.342  27.248992
2.341  27.250002
2.340  27.264545
2.339  27.288652
2.338  27.273313
2.337  27.284129
2.336  27.294745
2.335  27.344897
2.334  27.377068
2.333  27.422475
2.332  27.419775
2.331  27.405557
2.330  27.432610
2.329  27.461653
2.328  27.449598
2.327  27.496908
2.326  27.512181
2.325  27.538607
2.324  27.573856
2.323  27.633078
2.322  27.622032
2.321  27.654100
2.320  27.682409
2.319  27.679668
2.318  27.739962
2.317  27.776091
2.316  27.843566
2.315  27.864912
2.314  27.763130
2.313  27.830572
2.312  27.877505
2.311  27.896086
2.310  27.885087
2.309  27.947668
2.308  27.963884
2.307  27.939527
2.306  27.913518
2.305  27.978126
2.304  27.984297
2.303  28.079327
2.302  28.028171
2.301  28.055544
2.300  28.091122
2.299  28.095409
2.298  28.047655
2.297  28.159688
2.296  28.139168
2.295  28.106787
2.294  28.117144
2.293  28.156532
2.292  28.095759
2.291  28.158247
2.290  28.147245
2.289  28.167760
2.288  28.157350
2.287  28.161218
2.286  28.148305
2.285  28.191157
2.284  28.181118
2.283  28.203643
2.282  28.156499
2.281  28.091430
2.280  28.104097
2.279  28.162659
2.278  28.085338
2.277  28.116845
2.276  28.065056
2.275  28.087540
2.274  28.097756
2.273  28.008860
2.272  28.056523
2.271  28.130702
2.270  28.060385
2.269  28.020755
2.268  28.002763
2.267  28.082243
2.266  28.034891
2.265  28.028875
2.264  28.030025
2.263  28.067686
2.262  28.046115
2.261  28.063693
2.260  27.918935
2.259  27.959032
2.258  28.009326
2.257  28.027895
2.256  27.949573
2.255  28.125890
2.254  28.080161
2.253  28.037026
2.252  28.083156
2.251  28.077898
2.250  27.967832
2.249  28.007684
2.248  28.013679
2.247  28.022153
2.246  28.281753
2.245  28.153565
2.244  28.055161
2.243  28.127627
2.242  28.075163
2.241  28.132231
2.240  28.153008
2.239  28.110201
2.238  28.078129
2.237  28.148133
2.236  28.111634
2.235  28.176223
2.234  28.176214
2.233  28.243764
2.232  28.132919
2.231  28.123712
2.230  28.061011
2.229  28.149314
2.228  28.159272
2.227  28.153520
2.226  28.017585
2.225  28.108426
2.224  28.029527
2.223  28.153991
2.222  28.047133
2.221  28.031376
2.220  28.014650
2.219  28.092396
2.218  27.995060
2.217  28.040518
2.216  27.952023
2.215  28.002688
2.214  27.918215
2.213  27.952049
2.212  27.914489
2.211  27.769309
2.210  27.967996
2.209  27.866558
2.208  27.774166
2.207  27.874801
2.206  27.716456
2.205  27.792356
2.204  27.631488
2.203  27.679175
2.202  27.641592
2.201  27.689178
2.200  27.536204
2.199  27.693921
2.198  27.626948
2.197  27.640229
2.196  27.538961
2.195  27.693231
2.194  27.638522
2.193  27.692388
2.192  27.616940
2.191  27.674866
2.190  27.691020
2.189  27.678163
2.188  27.708183
2.187  27.861894
2.186  27.749456
2.185  27.912826
2.184  27.872569
2.183  27.952664
2.182  27.939682
2.181  28.048836
2.180  28.031356
2.179  28.165905
2.178  28.088016
2.177  28.198901
2.176  28.146426
2.175  28.217105
2.174  28.235735
2.173  28.259864
2.172  28.281343
2.171  28.338544
2.170  28.356690
2.169  28.357104
2.168  28.408756
2.167  28.459505
2.166  28.373468
2.165  28.434136
2.164  28.369348
2.163  28.518582
2.162  28.451692
2.161  28.480581
2.160  28.467845
2.159  28.461624
2.158  28.504883
2.157  28.563611
2.156  28.479546
2.155  28.557279
2.154  28.551916
2.153  28.487593
2.152  28.508751
2.151  28.512039
2.150  28.538455
2.149  28.586453
2.148  28.574525
2.147  28.604078
2.146  28.570324
2.145  28.671392
2.144  28.553666
2.143  28.561664
2.142  28.505488
2.141  28.608922
2.140  28.573717
2.139  28.544976
2.138  28.592589
2.137  28.598486
2.136  28.501219
2.135  28.488781
2.134  28.400043
2.133  28.471378
2.132  28.439846
2.131  28.451907
2.130  28.377662
2.129  28.414046
2.128  28.409099
2.127  28.368181
2.126  28.370158
2.125  28.423216
2.124  28.284048
2.123  28.329697
2.122  28.258901
2.121  28.308251
2.120  28.240373
2.119  28.206494
2.118  28.225225
2.117  28.160757
2.116  28.138679
2.115  28.162813
2.114  28.112114
2.113  28.084017
2.112  28.058831
2.111  28.088338
2.110  28.070343
2.109  28.016840
2.108  27.898922
2.107  27.914480
2.106  27.912036
2.105  27.947813
2.104  27.921119
2.103  27.919713
2.102  27.868961
2.101  27.792101
2.100  27.766788
2.099  27.795201
2.098  27.780914
2.097  27.788418
2.096  27.797797
2.095  27.779585
2.094  27.740577
2.093  27.748035
2.092  27.703665
2.091  27.695124
2.090  27.713765
2.089  27.679297
2.088  27.658542
2.087  27.696723
2.086  27.739212
2.085  27.783074
2.084  27.774341
2.083  27.708565
2.082  27.698624
2.081  27.694365
2.080  27.686144
2.079  27.709040
2.078  27.693080
2.077  27.696844
2.076  27.700219
2.075  27.699797
2.074  27.682755
2.073  27.653480
2.072  27.691239
2.071  27.717844
2.070  27.664204
2.069  27.646561
2.068  27.684965
2.067  27.752802
2.066  27.707444
2.065  27.666079
2.064  27.675592
2.063  27.655636
2.062  27.664769
2.061  27.656587
2.060  27.655782
2.059  27.641151
2.058  27.596425
2.057  27.607915
2.056  27.660890
2.055  27.679829
2.054  27.659180
2.053  27.675754
2.052  27.700754
2.051  27.589857
2.050  27.490439
2.049  27.533537
2.048  27.547592
2.047  27.550058
2.046  27.565292
2.045  27.518535
2.044  27.537293
2.043  27.562827
2.042  27.506510
2.041  27.407128
2.040  27.464227
2.039  27.473067
2.038  27.443852
2.037  27.392307
2.036  27.340348
2.035  27.318294
2.034  27.341404
2.033  27.249979
2.032  27.294919
2.031  27.316785
2.030  27.327628
2.029  27.241388
2.028  27.152533
2.027  27.124912
2.026  27.121008
2.025  27.038380
2.024  27.062351
2.023  27.020482
2.022  26.997092
2.021  26.953967
2.020  27.008885
2.019  26.928967
2.018  26.923048
2.017  26.893773
2.016  26.905401
2.015  26.842076
2.014  26.815831
2.013  26.712688
2.012  26.787793
2.011  26.763888
2.010  26.715382
2.009  26.693214
2.008  26.753744
2.007  26.605904
2.006  26.631064
2.005  26.623544
2.004  26.636852
2.003  26.612280
2.002  26.592491
2.001  26.562669
2.000  26.562067
1.999  26.541618
1.998  26.609648
1.997  26.440411
1.996  26.413380
1.995  26.413479
1.994  26.407100
1.993  26.436296
1.992  26.399686
1.991  26.331228
1.990  26.385112
1.989  26.254235
1.988  26.281525
1.987  26.268335
1.986  26.336724
1.985  26.215584
1.984  26.302511
1.983  25.911321
1.982  26.141858
1.981  26.065858
1.980  26.023207
1.979  26.075449
1.978  26.064467
1.977  26.021863
1.976  26.009959
1.975  25.887264
1.974  25.991812
1.973  25.891629
1.972  25.857280
1.971  25.774129
1.970  25.730342
1.969  25.684255
1.968  25.660720
1.967  25.616276
1.966  25.608161
1.965  25.722142
1.964  25.645341
1.963  25.540968
1.962  25.556025
1.961  25.419952
1.960  25.416273
1.959  25.219834
1.958  25.257054
1.957  25.196600
1.956  25.106908
1.955  25.020443
1.954  24.982096
1.953  24.709769
1.952  24.739316
1.951  24.570946
1.950  24.511950
1.949  24.249599
1.948  24.187154
1.947  24.030933
1.946  24.063375
1.945  23.909828
1.944  23.806158
1.943  23.641642
1.942  23.716139
1.941  23.601159
1.940  23.680796
1.939  23.666413
1.938  23.715912
1.937  23.710644
1.936  23.904506
1.935  23.838197
1.934  23.950817
1.933  24.054574
1.932  24.108068
1.931  24.151111
1.930  24.278970
1.929  24.283317
1.928  24.500182
1.927  24.399675
1.926  24.399654
1.925  24.591619
1.924  24.603866
1.923  24.567995
1.922  24.762888
1.921  24.683071
1.920  24.822363
1.919  24.763387
1.918  24.805450
1.917  24.856190
1.916  24.922793
1.915  24.967261
1.914  25.108830
1.913  25.134318
1.912  25.215881
1.911  25.213525
1.910  25.502363
1.909  25.476920
1.908  25.732359
1.907  25.796834
1.906  25.951212
1.905  26.087881
1.904  26.211245
1.903  26.316391
1.902  26.555103
1.901  26.586207
1.900  26.781448
1.899  26.952845
1.898  27.183644
1.897  27.268802
1.896  27.500398
1.895  27.539733
1.894  27.848199
1.893  27.914500
1.892  28.069201
1.891  28.044147
1.890  28.236833
1.889  28.335887
1.888  28.465839
1.887  28.537524
1.886  28.624010
1.885  28.762276
1.884  28.860885
1.883  28.869212
1.882  28.977766
1.881  28.982132
1.880  29.125259
1.879  29.176842
1.878  29.244788
1.877  29.310965
1.876  29.387611
1.875  29.318420
1.874  29.436821
1.873  29.301912
1.872  29.236388
1.871  29.249532
1.870  29.252108
1.869  29.218678
1.868  29.262494
1.867  29.304761
1.866  29.429985
1.865  29.489323
1.864  29.664215
1.863  29.642231
1.862  29.734972
1.861  29.637330
1.860  29.771874
1.859  29.647268
1.858  29.700575
1.857  29.690496
1.856  29.695942
1.855  29.676850
1.854  29.767508
1.853  29.733371
1.852  29.838059
1.851  29.776226
1.850  29.725669
1.849  29.745984
1.848  29.769769
1.847  29.743420
1.846  29.799967
1.845  29.782190
1.844  29.832949
1.843  29.830922
1.842  29.855863
1.841  29.761106
1.840  29.857541
1.839  29.831627
1.838  29.812332
1.837  29.718760
1.836  29.717572
1.835  29.695048
1.834  29.748522
1.833  29.746661
1.832  29.840403
1.831  29.808705
1.830  29.842900
1.829  29.835517
1.828  29.809414
1.827  29.788431
1.826  29.870230
1.825  29.836288
1.824  29.883485
1.823  29.889994
1.822  29.936771
1.821  29.867000
1.820  29.863741
1.819  29.861302
1.818  29.823675
1.817  29.830762
1.816  29.881330
1.815  29.892290
1.814  29.896456
1.813  29.877037
1.812  29.901149
1.811  29.865056
1.810  29.819016
1.809  29.872381
1.808  29.939544
1.807  29.925035
1.806  29.893776
1.805  29.876703
1.804  29.909678
1.803  29.928828
1.802  29.900668
1.801  29.866578
1.800  29.891501
1.799  29.866317
1.798  29.849972
1.797  29.868525
1.796  29.884760
1.795  29.938600
1.794  29.964975
1.793  29.957197
1.792  29.933221
1.791  29.877944
1.790  29.902072
1.789  29.917596
1.788  29.934902
1.787  29.904829
1.786  29.879830
1.785  29.918020
1.784  29.909734
1.783  29.877676
1.782  29.870382
1.781  29.847848
1.780  29.847950
1.779  29.876019
1.778  29.870247
1.777  29.842412
1.776  29.807807
1.775  29.830636
1.774  29.843684
1.773  29.801470
1.772  29.821462
1.771  29.858487
1.770  29.833999
1.769  29.860697
1.768  29.845548
1.767  29.860287
1.766  29.855974
1.765  29.840397
1.764  29.861005
1.763  29.878284
1.762  29.866014
1.761  29.885138
1.760  29.856822
1.759  29.861656
1.758  29.855244
1.757  29.892283
1.756  29.840805
1.755  29.825896
1.754  29.823927
1.753  29.811483
1.752  29.825691
1.751  29.878770
1.750  29.894128
1.749  29.867409
1.748  29.882895
1.747  29.923461
1.746  29.837858
1.745  29.901357
1.744  29.860406
1.743  29.851258
1.742  29.880810
1.741  29.888926
1.740  29.804065
1.739  29.905215
1.738  29.950805
1.737  29.956884
1.736  29.898775
1.735  29.913928
1.734  29.855864
1.733  29.862734
1.732  29.918547
1.731  29.914900
1.730  29.840828
1.729  29.919828
1.728  29.936456
1.727  29.939338
1.726  29.879113
1.725  29.933624
1.724  29.884421
1.723  29.966634
1.722  29.905072
1.721  29.998443
1.720  29.894046
1.719  29.966180
1.718  29.895512
1.717  29.906781
1.716  29.925926
1.715  29.927673
1.714  29.921090
1.713  29.899613
1.712  29.933696
1.711  29.906577
1.710  29.931145
1.709  29.959744
1.708  29.962122
1.707  29.938639
1.706  29.944881
1.705  29.941217
1.704  29.936151
1.703  30.013440
1.702  29.907540
1.701  29.970875
1.700  29.930966
1.699  29.899928
1.698  29.889372
1.697  29.971841
1.696  29.947014
1.695  29.975067
1.694  29.885956
1.693  30.005884
1.692  29.933257
1.691  29.950183
1.690  29.955921
1.689  30.046263
1.688  29.973838
1.687  30.014356
1.686  29.948610
1.685  30.001733
1.684  29.885506
1.683  29.982685
1.682  29.945688
1.681  29.983829
1.680  29.895827
1.679  30.031131
1.678  29.940613
1.677  29.957862
1.676  29.939425
1.675  29.979080
1.674  29.943630
1.673  29.999988
1.672  29.881800
1.671  29.929915
1.670  29.889780
1.669  30.042912
1.668  29.876796
1.667  30.026245
1.666  29.931697
1.665  30.038337
1.664  29.971445
1.663  30.001334
1.662  29.984466
1.661  30.038963
1.660  29.977255
1.659  30.047432
1.658  29.994097
1.657  29.950351
1.656  29.970595
1.655  30.040943
1.654  29.987954
1.653  29.985611
1.652  29.865606
1.651  29.973607
1.650  29.899547
1.649  30.028352
1.648  29.899277
1.647  30.059965
1.646  29.964518
1.645  30.014031
1.644  29.931818
1.643  30.065921
1.642  30.046949
1.641  29.897285
1.640  30.038385
1.639  30.004318
1.638  29.895891
1.637  30.053232
1.636  30.014284
1.635  29.943107
1.634  29.906157
1.633  29.965546
1.632  29.944601
1.631  30.046992
1.630  29.942803
1.629  30.002501
1.628  29.988194
1.627  30.068656
1.626  29.948751
1.625  29.974640
1.624  29.927357
1.623  29.984425
1.622  29.972187
1.621  29.973483
1.620  29.884055
1.619  30.052136
1.618  29.968804
1.617  30.073974
1.616  29.950444
1.615  30.002605
1.614  30.000191
1.613  30.023056
1.612  30.016101
1.611  30.001862
1.610  29.955459
1.609  30.036312
1.608  29.892327
1.607  29.959649
1.606  29.936817
1.605  30.014900
1.604  29.947615
1.603  29.990103
1.602  29.934682
1.601  29.968726
1.600  29.933291
1.599  29.953994
1.598  29.919245
1.597  30.003431
1.596  29.964988
1.595  29.953498
1.594  29.896017
1.593  29.929827
1.592  29.885832
1.591  29.972800
1.590  29.950364
1.589  29.983711
1.588  29.962915
1.587  29.972333
1.586  29.978991
1.585  29.957066
1.584  29.906402
1.583  29.968920
1.582  29.942778
1.581  29.881123
1.580  29.950113
1.579  29.919563
1.578  29.904297
1.577  30.000584
1.576  29.914332
1.575  29.953948
1.574  29.931425
1.573  29.930844
1.572  29.939645
1.571  29.942085
1.570  29.910415
1.569  29.914936
1.568  29.848633
1.567  29.886627
1.566  29.921242
1.565  29.962565
1.564  29.891247
1.563  29.902873
1.562  29.887360
1.561  29.881392
1.560  29.856560
1.559  29.888514
1.558  29.870335
1.557  29.862821
1.556  29.896359
1.555  29.883678
1.554  29.882435
1.553  29.909182
1.552  29.906062
1.551  29.878365
1.550  29.799656
1.549  29.884525
1.548  29.808704
1.547  29.871896
1.546  29.846143
1.545  29.841005
1.544  29.829451
1.543  29.879266
1.542  29.828647
1.541  29.842982
1.540  29.831101
1.539  29.833280
1.538  29.862190
1.537  29.862814
1.536  29.849568
1.535  29.873363
1.534  29.869395
1.533  29.852622
1.532  29.797779
1.531  29.792272
1.530  29.827523
1.529  29.850087
1.528  29.776564
1.527  29.774823
1.526  29.753893
1.525  29.791775
1.524  29.760142
1.523  29.765907
1.522  29.703159
1.521  29.716242
1.520  29.734259
1.519  29.754223
1.518  29.773046
1.517  29.735862
1.516  29.721316
1.515  29.747594
1.514  29.775740
1.513  29.735504
1.512  29.655204
1.511  29.672550
1.510  29.701521
1.509  29.636176
1.508  29.638091
1.507  29.641232
1.506  29.623321
1.505  29.675050
1.504  29.615203
1.503  29.618499
1.502  29.585261
1.501  29.519432
1.500  29.556386
1.499  29.603475
1.498  29.614670
1.497  29.554310
1.496  29.565688
1.495  29.552300
1.494  29.492734
1.493  29.459441
1.492  29.490478
1.491  29.498830
1.490  29.492138
1.489  29.442306
1.488  29.394870
1.487  29.407791
1.486  29.486845
1.485  29.463964
1.484  29.462558
1.483  29.441903
1.482  29.474048
1.481  29.481496
1.480  29.411576
1.479  29.360618
1.478  29.380392
1.477  29.364324
1.476  29.350283
1.475  29.352239
1.474  29.337992
1.473  29.356388
1.472  29.358788
1.471  29.333225
1.470  29.306954
1.469  29.236600
1.468  29.310389
1.467  29.264002
1.466  29.224704
1.465  29.264362
1.464  29.236728
1.463  29.197109
1.462  29.248164
1.461  29.192577
1.460  29.182743
1.459  29.204805
1.458  29.165489
1.457  29.176810
1.456  29.180569
1.455  29.096756
1.454  29.157862
1.453  29.177342
1.452  29.177516
1.451  29.207422
1.450  29.183241
1.449  29.185000
1.448  29.176496
1.447  29.183015
1.446  29.178304
1.445  29.155494
1.444  29.210740
1.443  29.195682
1.442  29.194124
1.441  29.215016
1.440  29.225871
1.439  29.103551
1.438  29.190516
1.437  29.166794
1.436  29.221270
1.435  29.114896
1.434  29.143886
1.433  29.120673
1.432  29.178421
1.431  29.088800
