Name: Hypersthene Gabbro
Type: Rock
Class: Igneous
Subclass:  Mafic 
Particle Size: Solid surface
Sample No.: Ward41.txt
Owner: JPL
Wavelength range:  VNIR SWIR IR 
Origin: Ward's Collection of American Rocks.  Sample locality - Salem, Essex County, Massachusetts.
Collected by:  Ward's Natural Science
Description: A coarse-textured, dark-colored rock composed of plagioclase,
hornblende and biotite.
Geologic age - Early Paleozoic.



Measurement: Hemispherical reflectance
First Column: X
Second Column: Y
X Units: Wavelength (micrometers)
Y Units: Reflectance (percent)
First X Value: 2.500
Last X Value: 0.400
Number of X Values: 2101
Additional information: None

2.500  13.333243
2.499  12.776482
2.498  13.317456
2.497  13.179052
2.496  12.895870
2.495  13.175896
2.494  13.335422
2.493  12.979616
2.492  13.468167
2.491  12.956196
2.490  13.413415
2.489  13.003403
2.488  13.266598
2.487  13.189406
2.486  13.390354
2.485  13.206796
2.484  13.257145
2.483  13.199823
2.482  13.335207
2.481  13.162405
2.480  13.293175
2.479  13.190142
2.478  13.398302
2.477  13.271611
2.476  13.296331
2.475  13.233759
2.474  13.237658
2.473  13.288691
2.472  13.360693
2.471  13.195250
2.470  13.403144
2.469  13.211998
2.468  13.429444
2.467  13.350316
2.466  13.390953
2.465  13.265203
2.464  13.507533
2.463  13.391681
2.462  13.509100
2.461  13.318999
2.460  13.436505
2.459  13.402526
2.458  13.533335
2.457  13.371279
2.456  13.551509
2.455  13.390710
2.454  13.531406
2.453  13.394871
2.452  13.529771
2.451  13.392734
2.450  13.534611
2.449  13.524314
2.448  13.498517
2.447  13.487085
2.446  13.495936
2.445  13.433165
2.444  13.498403
2.443  13.466979
2.442  13.499282
2.441  13.462571
2.440  13.659202
2.439  13.546908
2.438  13.665143
2.437  13.526577
2.436  13.660475
2.435  13.470300
2.434  13.643448
2.433  13.573381
2.432  13.609449
2.431  13.547947
2.430  13.694201
2.429  13.620593
2.428  13.680684
2.427  13.548351
2.426  13.713923
2.425  13.618052
2.424  13.700207
2.423  13.585863
2.422  13.722309
2.421  13.652049
2.420  13.737542
2.419  13.602064
2.418  13.696776
2.417  13.557736
2.416  13.749840
2.415  13.620071
2.414  13.764425
2.413  13.681021
2.412  13.727097
2.411  13.744217
2.410  13.751893
2.409  13.731942
2.408  13.803822
2.407  13.746229
2.406  13.845230
2.405  13.838130
2.404  13.831528
2.403  13.807462
2.402  13.829351
2.401  13.768020
2.400  13.863007
2.399  13.840708
2.398  13.848276
2.397  13.831799
2.396  13.876732
2.395  13.885582
2.394  13.916416
2.393  13.847688
2.392  13.905027
2.391  13.907786
2.390  13.890833
2.389  13.881878
2.388  13.912263
2.387  13.851686
2.386  13.902515
2.385  13.871263
2.384  13.947524
2.383  13.899737
2.382  13.934698
2.381  13.956318
2.380  13.997012
2.379  13.944732
2.378  13.990214
2.377  13.994146
2.376  14.045066
2.375  14.047139
2.374  14.006275
2.373  14.002101
2.372  13.993649
2.371  14.021602
2.370  14.076227
2.369  14.018954
2.368  14.035881
2.367  14.022541
2.366  14.060869
2.365  14.033948
2.364  14.036878
2.363  14.030582
2.362  14.023226
2.361  14.022403
2.360  14.016461
2.359  13.974174
2.358  13.992202
2.357  13.994387
2.356  13.971262
2.355  14.033222
2.354  14.030347
2.353  13.966643
2.352  13.931727
2.351  13.961219
2.350  13.932418
2.349  13.917182
2.348  13.944400
2.347  13.974133
2.346  14.001193
2.345  13.978646
2.344  13.961137
2.343  13.962527
2.342  13.951811
2.341  13.952838
2.340  13.928932
2.339  14.003383
2.338  13.974148
2.337  13.975954
2.336  13.967518
2.335  13.997944
2.334  13.984427
2.333  14.045653
2.332  14.012085
2.331  14.011777
2.330  14.005684
2.329  14.033036
2.328  14.015298
2.327  14.027854
2.326  14.021405
2.325  14.077099
2.324  14.036996
2.323  14.082067
2.322  14.100011
2.321  14.135880
2.320  14.152117
2.319  14.239443
2.318  14.182894
2.317  14.201622
2.316  14.202097
2.315  14.244174
2.314  14.196474
2.313  14.219925
2.312  14.245691
2.311  14.320925
2.310  14.307182
2.309  14.404481
2.308  14.329984
2.307  14.385639
2.306  14.361461
2.305  14.455885
2.304  14.428972
2.303  14.464652
2.302  14.422917
2.301  14.505971
2.300  14.470499
2.299  14.523972
2.298  14.475407
2.297  14.552931
2.296  14.547378
2.295  14.576284
2.294  14.567508
2.293  14.616676
2.292  14.565078
2.291  14.700803
2.290  14.604695
2.289  14.680014
2.288  14.600187
2.287  14.721979
2.286  14.588252
2.285  14.692644
2.284  14.673385
2.283  14.768046
2.282  14.680635
2.281  14.752885
2.280  14.678562
2.279  14.770536
2.278  14.715746
2.277  14.776800
2.276  14.702390
2.275  14.854919
2.274  14.726634
2.273  14.781267
2.272  14.732915
2.271  14.809937
2.270  14.735809
2.269  14.775370
2.268  14.742317
2.267  14.900815
2.266  14.759599
2.265  14.833937
2.264  14.744407
2.263  14.779991
2.262  14.698820
2.261  14.890569
2.260  14.753258
2.259  14.887674
2.258  14.809193
2.257  14.863385
2.256  14.798450
2.255  14.842893
2.254  14.818430
2.253  14.919902
2.252  14.792136
2.251  14.863493
2.250  14.831458
2.249  14.946890
2.248  14.862364
2.247  14.962149
2.246  14.826670
2.245  14.967604
2.244  14.874891
2.243  14.985506
2.242  14.968032
2.241  15.031218
2.240  14.954960
2.239  15.065756
2.238  14.992384
2.237  15.039648
2.236  15.039238
2.235  15.114878
2.234  14.997590
2.233  15.094735
2.232  15.034264
2.231  15.179153
2.230  15.071559
2.229  15.106500
2.228  15.100779
2.227  15.132079
2.226  15.089008
2.225  15.126622
2.224  15.074154
2.223  15.141925
2.222  15.048836
2.221  15.153995
2.220  15.078307
2.219  15.077798
2.218  15.056588
2.217  15.197074
2.216  15.085490
2.215  15.167351
2.214  15.066724
2.213  15.186835
2.212  15.124927
2.211  15.029783
2.210  15.145900
2.209  15.146296
2.208  15.046018
2.207  15.193153
2.206  15.030708
2.205  15.204212
2.204  15.081556
2.203  15.123753
2.202  15.031080
2.201  15.047235
2.200  15.056991
2.199  15.227147
2.198  15.106736
2.197  15.114182
2.196  15.092656
2.195  15.098319
2.194  15.119469
2.193  15.244421
2.192  15.116534
2.191  15.253087
2.190  15.132904
2.189  15.277726
2.188  15.199301
2.187  15.307467
2.186  15.257023
2.185  15.285427
2.184  15.358453
2.183  15.372746
2.182  15.331881
2.181  15.426803
2.180  15.381831
2.179  15.478189
2.178  15.440115
2.177  15.556432
2.176  15.467494
2.175  15.510623
2.174  15.501173
2.173  15.562750
2.172  15.526182
2.171  15.578829
2.170  15.513972
2.169  15.624898
2.168  15.618572
2.167  15.716644
2.166  15.594983
2.165  15.621744
2.164  15.642019
2.163  15.752791
2.162  15.666063
2.161  15.765523
2.160  15.681516
2.159  15.723762
2.158  15.671877
2.157  15.829363
2.156  15.735291
2.155  15.700068
2.154  15.761735
2.153  15.803019
2.152  15.794422
2.151  15.859323
2.150  15.756526
2.149  15.869424
2.148  15.843604
2.147  15.854778
2.146  15.747257
2.145  15.871734
2.144  15.814026
2.143  15.846595
2.142  15.783723
2.141  15.887791
2.140  15.850541
2.139  15.856208
2.138  15.814497
2.137  15.890814
2.136  15.837707
2.135  15.878713
2.134  15.831923
2.133  15.895008
2.132  15.843374
2.131  15.909495
2.130  15.886061
2.129  15.894731
2.128  15.796565
2.127  15.878646
2.126  15.807992
2.125  15.881623
2.124  15.811300
2.123  15.804298
2.122  15.784090
2.121  15.828892
2.120  15.836081
2.119  15.831476
2.118  15.774014
2.117  15.829231
2.116  15.846550
2.115  15.841393
2.114  15.743820
2.113  15.791463
2.112  15.757037
2.111  15.783851
2.110  15.816363
2.109  15.819271
2.108  15.681414
2.107  15.744712
2.106  15.761170
2.105  15.742409
2.104  15.752131
2.103  15.770511
2.102  15.771633
2.101  15.761999
2.100  15.727128
2.099  15.752910
2.098  15.763844
2.097  15.730712
2.096  15.715739
2.095  15.773137
2.094  15.725263
2.093  15.730783
2.092  15.745044
2.091  15.753785
2.090  15.742183
2.089  15.728910
2.088  15.722276
2.087  15.763778
2.086  15.737602
2.085  15.775624
2.084  15.812007
2.083  15.811772
2.082  15.752526
2.081  15.787202
2.080  15.807979
2.079  15.759781
2.078  15.757992
2.077  15.752465
2.076  15.789027
2.075  15.832437
2.074  15.802640
2.073  15.790840
2.072  15.839352
2.071  15.842063
2.070  15.797151
2.069  15.832249
2.068  15.829497
2.067  15.793591
2.066  15.820181
2.065  15.814838
2.064  15.812292
2.063  15.800519
2.062  15.793542
2.061  15.762851
2.060  15.809624
2.059  15.818422
2.058  15.809796
2.057  15.794201
2.056  15.790469
2.055  15.783593
2.054  15.781354
2.053  15.786027
2.052  15.821307
2.051  15.808624
2.050  15.819043
2.049  15.798332
2.048  15.761881
2.047  15.768722
2.046  15.833465
2.045  15.846409
2.044  15.839705
2.043  15.778303
2.042  15.817200
2.041  15.760024
2.040  15.822870
2.039  15.832090
2.038  15.745753
2.037  15.719926
2.036  15.784353
2.035  15.759234
2.034  15.791313
2.033  15.786200
2.032  15.837443
2.031  15.721336
2.030  15.815687
2.029  15.780537
2.028  15.755138
2.027  15.660649
2.026  15.738047
2.025  15.726814
2.024  15.754224
2.023  15.764906
2.022  15.767063
2.021  15.724212
2.020  15.762521
2.019  15.692983
2.018  15.725228
2.017  15.682423
2.016  15.737124
2.015  15.707525
2.014  15.761570
2.013  15.669698
2.012  15.663413
2.011  15.653604
2.010  15.673041
2.009  15.681394
2.008  15.705356
2.007  15.633546
2.006  15.682358
2.005  15.629200
2.004  15.678281
2.003  15.562752
2.002  15.710841
2.001  15.635113
2.000  15.677507
1.999  15.629356
1.998  15.597582
1.997  15.581007
1.996  15.623809
1.995  15.599393
1.994  15.617484
1.993  15.559246
1.992  15.603797
1.991  15.572091
1.990  15.612838
1.989  15.538260
1.988  15.618664
1.987  15.524550
1.986  15.623503
1.985  15.569147
1.984  15.562101
1.983  15.480212
1.982  15.569463
1.981  15.458672
1.980  15.549748
1.979  15.436247
1.978  15.534330
1.977  15.477186
1.976  15.513191
1.975  15.449315
1.974  15.431626
1.973  15.438768
1.972  15.607825
1.971  15.375798
1.970  15.504797
1.969  15.439428
1.968  15.463005
1.967  15.423187
1.966  15.459627
1.965  15.445520
1.964  15.503673
1.963  15.410956
1.962  15.433799
1.961  15.365613
1.960  15.486963
1.959  15.369879
1.958  15.495205
1.957  15.408471
1.956  15.425893
1.955  15.394290
1.954  15.435222
1.953  15.333367
1.952  15.473671
1.951  15.284149
1.950  15.441082
1.949  15.300650
1.948  15.471596
1.947  15.353614
1.946  15.406964
1.945  15.324007
1.944  15.459988
1.943  15.393884
1.942  15.267540
1.941  15.310791
1.940  15.399723
1.939  15.298467
1.938  15.331293
1.937  15.338300
1.936  15.422706
1.935  15.350591
1.934  15.319836
1.933  15.268541
1.932  15.430088
1.931  15.318079
1.930  15.422105
1.929  15.282209
1.928  15.318699
1.927  15.501671
1.926  15.290781
1.925  15.433131
1.924  15.472521
1.923  15.381636
1.922  15.472260
1.921  15.322191
1.920  15.513754
1.919  15.405779
1.918  15.457653
1.917  15.469150
1.916  15.481921
1.915  15.417530
1.914  15.453438
1.913  15.394308
1.912  15.527714
1.911  15.458153
1.910  15.647578
1.909  15.540699
1.908  15.582090
1.907  15.525885
1.906  15.730234
1.905  15.597986
1.904  15.683414
1.903  15.703779
1.902  15.802779
1.901  15.781552
1.900  15.816988
1.899  15.810122
1.898  16.015324
1.897  15.900315
1.896  15.996216
1.895  16.042610
1.894  16.117457
1.893  16.018959
1.892  16.098715
1.891  16.187727
1.890  16.257790
1.889  16.218467
1.888  16.270855
1.887  16.221762
1.886  16.363555
1.885  16.317234
1.884  16.343643
1.883  16.360809
1.882  16.373555
1.881  16.395172
1.880  16.465169
1.879  16.338856
1.878  16.547452
1.877  16.425567
1.876  16.511816
1.875  16.480041
1.874  16.609555
1.873  16.468476
1.872  16.606490
1.871  16.474839
1.870  16.581057
1.869  16.541472
1.868  16.641759
1.867  16.582782
1.866  16.642639
1.865  16.614120
1.864  16.658153
1.863  16.615066
1.862  16.567324
1.861  16.612791
1.860  16.609542
1.859  16.588010
1.858  16.698959
1.857  16.627808
1.856  16.722515
1.855  16.659011
1.854  16.654776
1.853  16.615461
1.852  16.724548
1.851  16.691781
1.850  16.642578
1.849  16.616598
1.848  16.650984
1.847  16.607003
1.846  16.635471
1.845  16.675635
1.844  16.661200
1.843  16.654743
1.842  16.707295
1.841  16.716167
1.840  16.728998
1.839  16.648162
1.838  16.665436
1.837  16.718785
1.836  16.670878
1.835  16.633365
1.834  16.724813
1.833  16.735648
1.832  16.724566
1.831  16.659951
1.830  16.635202
1.829  16.614987
1.828  16.673871
1.827  16.676570
1.826  16.733278
1.825  16.657192
1.824  16.678793
1.823  16.656951
1.822  16.704127
1.821  16.669510
1.820  16.731085
1.819  16.678949
1.818  16.679523
1.817  16.699712
1.816  16.735565
1.815  16.697231
1.814  16.745471
1.813  16.670152
1.812  16.652966
1.811  16.673530
1.810  16.702695
1.809  16.660241
1.808  16.657649
1.807  16.633282
1.806  16.635532
1.805  16.674106
1.804  16.719748
1.803  16.715678
1.802  16.751869
1.801  16.722837
1.800  16.699276
1.799  16.674966
1.798  16.694779
1.797  16.665602
1.796  16.653565
1.795  16.653835
1.794  16.690252
1.793  16.699938
1.792  16.676895
1.791  16.685363
1.790  16.747576
1.789  16.730633
1.788  16.714273
1.787  16.703776
1.786  16.655852
1.785  16.702700
1.784  16.752094
1.783  16.734244
1.782  16.731172
1.781  16.736799
1.780  16.740538
1.779  16.735150
1.778  16.734837
1.777  16.785343
1.776  16.795280
1.775  16.739713
1.774  16.705736
1.773  16.740069
1.772  16.723805
1.771  16.748197
1.770  16.740709
1.769  16.747187
1.768  16.761308
1.767  16.784594
1.766  16.739610
1.765  16.798867
1.764  16.763691
1.763  16.804663
1.762  16.771301
1.761  16.774971
1.760  16.774817
1.759  16.810332
1.758  16.788963
1.757  16.824504
1.756  16.803236
1.755  16.804111
1.754  16.753183
1.753  16.793842
1.752  16.712245
1.751  16.709009
1.750  16.779401
1.749  16.817523
1.748  16.797897
1.747  16.814727
1.746  16.829297
1.745  16.843106
1.744  16.753688
1.743  16.794384
1.742  16.845274
1.741  16.867585
1.740  16.849067
1.739  16.854180
1.738  16.815721
1.737  16.857454
1.736  16.877082
1.735  16.886315
1.734  16.818808
1.733  16.788199
1.732  16.808279
1.731  16.872019
1.730  16.785699
1.729  16.899413
1.728  16.809558
1.727  16.812428
1.726  16.810147
1.725  16.910390
1.724  16.848131
1.723  16.796135
1.722  16.799633
1.721  16.854451
1.720  16.819018
1.719  16.866934
1.718  16.825942
1.717  16.873300
1.716  16.800536
1.715  16.854333
1.714  16.801829
1.713  16.883024
1.712  16.845903
1.711  16.900562
1.710  16.791448
1.709  16.834745
1.708  16.733000
1.707  16.848513
1.706  16.858154
1.705  16.892891
1.704  16.828698
1.703  16.880560
1.702  16.860533
1.701  16.876166
1.700  16.810087
1.699  16.847220
1.698  16.829687
1.697  16.847182
1.696  16.797145
1.695  16.879766
1.694  16.797889
1.693  16.860329
1.692  16.816122
1.691  16.786537
1.690  16.826302
1.689  16.854443
1.688  16.767134
1.687  16.842948
1.686  16.812907
1.685  16.861903
1.684  16.723240
1.683  16.907395
1.682  16.745703
1.681  16.878218
1.680  16.792063
1.679  16.873941
1.678  16.799954
1.677  16.872551
1.676  16.751349
1.675  16.858255
1.674  16.738596
1.673  16.879858
1.672  16.765773
1.671  16.821584
1.670  16.773426
1.669  16.822634
1.668  16.645430
1.667  16.861815
1.666  16.769873
1.665  16.845037
1.664  16.715232
1.663  16.848779
1.662  16.806302
1.661  16.949434
1.660  16.716776
1.659  16.870621
1.658  16.809184
1.657  16.910505
1.656  16.679645
1.655  16.853218
1.654  16.796440
1.653  16.848227
1.652  16.746942
1.651  16.779711
1.650  16.773102
1.649  16.854204
1.648  16.720128
1.647  16.882223
1.646  16.786521
1.645  16.860246
1.644  16.649411
1.643  16.792587
1.642  16.831185
1.641  16.733931
1.640  16.805099
1.639  16.792964
1.638  16.782757
1.637  16.838903
1.636  16.787131
1.635  16.885812
1.634  16.793415
1.633  16.816797
1.632  16.725122
1.631  16.823689
1.630  16.740320
1.629  16.839255
1.628  16.747545
1.627  16.876997
1.626  16.751207
1.625  16.818308
1.624  16.735899
1.623  16.813665
1.622  16.741217
1.621  16.842008
1.620  16.817852
1.619  16.793711
1.618  16.800438
1.617  16.807597
1.616  16.795887
1.615  16.803472
1.614  16.724566
1.613  16.725324
1.612  16.717740
1.611  16.802323
1.610  16.729471
1.609  16.825297
1.608  16.744340
1.607  16.823926
1.606  16.760874
1.605  16.834286
1.604  16.727263
1.603  16.816316
1.602  16.729209
1.601  16.762297
1.600  16.773763
1.599  16.811407
1.598  16.709581
1.597  16.791853
1.596  16.748122
1.595  16.743987
1.594  16.780009
1.593  16.796904
1.592  16.749649
1.591  16.787667
1.590  16.719662
1.589  16.856305
1.588  16.705909
1.587  16.837138
1.586  16.702737
1.585  16.762662
1.584  16.731533
1.583  16.809661
1.582  16.646292
1.581  16.804755
1.580  16.696498
1.579  16.794866
1.578  16.756604
1.577  16.809446
1.576  16.742189
1.575  16.810643
1.574  16.734384
1.573  16.753098
1.572  16.624316
1.571  16.757892
1.570  16.631555
1.569  16.657861
1.568  16.714651
1.567  16.698722
1.566  16.675004
1.565  16.658677
1.564  16.671796
1.563  16.677143
1.562  16.687385
1.561  16.763903
1.560  16.662949
1.559  16.718343
1.558  16.631544
1.557  16.669508
1.556  16.651482
1.555  16.661492
1.554  16.688114
1.553  16.712275
1.552  16.556812
1.551  16.626911
1.550  16.620033
1.549  16.612833
1.548  16.591154
1.547  16.671968
1.546  16.665616
1.545  16.637745
1.544  16.569178
1.543  16.616577
1.542  16.618847
1.541  16.710686
1.540  16.617542
1.539  16.661404
1.538  16.597781
1.537  16.627003
1.536  16.622510
1.535  16.663929
1.534  16.634642
1.533  16.660163
1.532  16.639369
1.531  16.609424
1.530  16.554445
1.529  16.546293
1.528  16.571786
1.527  16.617245
1.526  16.572485
1.525  16.564993
1.524  16.574844
1.523  16.570732
1.522  16.548429
1.521  16.575374
1.520  16.550110
1.519  16.569731
1.518  16.537709
1.517  16.545001
1.516  16.504962
1.515  16.548731
1.514  16.561986
1.513  16.561090
1.512  16.497932
1.511  16.522448
1.510  16.593558
1.509  16.603682
1.508  16.542561
1.507  16.449384
1.506  16.471991
1.505  16.532670
1.504  16.521769
1.503  16.518700
1.502  16.506397
1.501  16.472276
1.500  16.466968
1.499  16.470330
1.498  16.506471
1.497  16.513182
1.496  16.457627
1.495  16.458971
1.494  16.456316
1.493  16.460210
1.492  16.442481
1.491  16.389848
1.490  16.423342
1.489  16.405373
1.488  16.384652
1.487  16.413726
1.486  16.480593
1.485  16.387761
1.484  16.378214
1.483  16.366350
1.482  16.372950
1.481  16.380030
1.480  16.373122
1.479  16.402643
1.478  16.406876
1.477  16.313295
1.476  16.339186
1.475  16.352565
1.474  16.385706
1.473  16.366055
1.472  16.369748
1.471  16.320613
1.470  16.376513
1.469  16.360237
1.468  16.294864
1.467  16.254948
1.466  16.334098
1.465  16.340644
1.464  16.402012
1.463  16.289440
1.462  16.282495
1.461  16.282358
1.460  16.287185
1.459  16.285454
1.458  16.381292
1.457  16.279547
1.456  16.239534
1.455  16.218717
1.454  16.238543
1.453  16.213776
1.452  16.239834
1.451  16.254633
1.450  16.246478
1.449  16.221910
1.448  16.298021
1.447  16.231956
1.446  16.270577
1.445  16.224718
1.444  16.268538
1.443  16.197317
1.442  16.310076
1.441  16.219475
1.440  16.251656
1.439  16.181539
1.438  16.229055
1.437  16.182075
1.436  16.185407
1.435  16.163397
1.434  16.250192
1.433  16.138666
1.432  16.147883
1.431  16.121509
1.430  16.206965
1.429  16.153492
