Name: Stilbite NaCa_2Al_5Si_3O_36.14H_2O
Type: Mineral
Class: Silicates
Subclass: Tectosilicates
Particle Size: 0-45um
Sample No.: TS-9A
Owner: JPL
Wavelength range: IR
Origin: India
Collected by Grieger's Inc.
Description: 





Measurement: Hemispherical reflectance
First Column: X
Second Column: Y
X Units:  Wavelength (micrometers)
Y Units:  Reflectance (percent)
First X Value: 15.3853
Last X Value: 2.00032
Number of X Values: 2256
Additional information: ts09aa.txt
 
15.3853	0.920235
15.3397	0.883394
15.2945	0.841711
15.2495	1.13308
15.2048	1.27891
15.1603	1.2206
15.1161	1.18269
15.0722	1.25618
15.0285	1.33191
14.9851	1.34583
14.9419	1.22535
14.8989	1.04095
14.8563	0.995207
14.8138	1.11678
14.7716	1.34923
14.7296	1.37577
14.6879	1.17506
14.6464	1.24982
14.6052	1.48153
14.5641	1.40745
14.5233	1.444
14.4828	1.52269
14.4424	1.53965
14.4023	1.55582
14.3624	1.49436
14.3227	1.7753
14.2833	1.73829
14.244	1.46184
14.205	1.3498
14.1662	1.31002
14.1276	1.36693
14.0892	1.33744
14.051	1.50236
14.0131	1.72868
13.9753	1.6109
13.9377	1.40001
13.9004	1.20323
13.8632	1.29404
13.8262	1.47871
13.7895	1.59333
13.7529	1.54025
13.7165	1.52076
13.6803	1.53644
13.6443	1.65519
13.6085	1.69014
13.5729	1.74306
13.5374	1.77309
13.5022	1.61672
13.4671	1.45751
13.4322	1.55722
13.3975	1.57381
13.363	1.57611
13.3286	1.66654
13.2944	1.70019
13.2604	1.59783
13.2266	1.57834
13.193	1.60896
13.1595	1.83086
13.1262	2.03948
13.093	2.06985
13.06	2.06939
13.0272	1.9352
12.9946	1.83081
12.9621	1.73882
12.9298	1.89156
12.8976	2.01657
12.8656	1.93007
12.8337	1.89328
12.8021	2.0133
12.7705	2.05953
12.7391	2.04334
12.7079	2.15046
12.6769	2.15006
12.6459	1.98221
12.6152	2.03324
12.5845	2.23147
12.5541	2.26244
12.5238	2.28049
12.4936	2.46545
12.4635	2.50778
12.4337	2.70112
12.4039	2.96379
12.3743	2.86332
12.3448	2.95887
12.3155	3.36098
12.2863	3.74172
12.2573	3.9607
12.2284	4.28316
12.1996	4.65662
12.171	4.97982
12.1425	5.35603
12.1141	5.68176
12.0859	5.96323
12.0578	6.24817
12.0298	6.51351
12.0019	6.67705
11.9742	6.85111
11.9466	7.18894
11.9192	7.50061
11.8918	7.60631
11.8646	7.67189
11.8375	7.85457
11.8106	8.12918
11.7837	8.32302
11.757	8.40906
11.7304	8.54256
11.7039	8.611
11.6776	8.7203
11.6513	8.94351
11.6252	9.20528
11.5992	9.40089
11.5733	9.44804
11.5475	9.46618
11.5219	9.47586
11.4963	9.66449
11.4709	9.89319
11.4455	9.94935
11.4203	9.9308
11.3952	9.8349
11.3702	9.93554
11.3454	10.1644
11.3206	10.3934
11.2959	10.4553
11.2714	10.3979
11.2469	10.3156
11.2226	10.2568
11.1983	10.3381
11.1742	10.4578
11.1502	10.4447
11.1263	10.3741
11.1024	10.3228
11.0787	10.3429
11.0551	10.3495
11.0316	10.2363
11.0081	10.1421
10.9848	10.2106
10.9616	10.1878
10.9385	10.017
10.9154	9.92307
10.8925	9.7821
10.8697	9.56992
10.8469	9.54242
10.8243	9.42949
10.8017	9.39791
10.7793	9.19999
10.7569	8.98454
10.7346	8.91587
10.7125	8.81973
10.6904	8.61201
10.6684	8.3857
10.6465	8.19317
10.6247	8.00801
10.6029	7.77886
10.5813	7.63134
10.5597	7.51848
10.5383	7.24895
10.5169	7.04494
10.4956	6.75802
10.4744	6.49579
10.4533	6.42083
10.4323	6.31005
10.4113	6.08524
10.3904	5.81543
10.3697	5.68316
10.349	5.65913
10.3284	5.55361
10.3078	5.38902
10.2874	5.33217
10.267	5.28433
10.2467	5.16139
10.2265	5.01886
10.2064	4.97581
10.1863	4.91368
10.1663	4.93168
10.1464	5.06597
10.1266	5.09499
10.1069	5.12454
10.0872	5.13323
10.0676	5.17151
10.0481	5.30646
10.0287	5.45745
10.0093	5.51782
9.99005	5.48347
9.97084	5.38429
9.95169	5.46076
9.93263	5.60894
9.91364	5.70829
9.89472	5.83836
9.87587	5.93553
9.8571	6.0755
9.83839	6.1527
9.81976	6.22162
9.80119	6.35988
9.78271	6.47245
9.76428	6.60209
9.74592	6.74429
9.72764	6.83259
9.70943	6.87322
9.69128	6.77589
9.6732	6.9155
9.65518	6.92555
9.63724	6.89439
9.61935	7.18575
9.60155	7.38825
9.5838	7.35168
9.56611	7.41614
9.5485	7.54422
9.53094	7.55441
9.51345	7.63206
9.49604	7.68714
9.47867	7.65969
9.46137	7.79219
9.44414	7.90351
9.42697	7.88874
9.40986	7.8106
9.39281	7.93221
9.37583	8.02679
9.35891	7.8659
9.34204	7.59254
9.32524	7.42141
9.3085	7.31814
9.29182	7.16905
9.27519	7.04959
9.25863	6.68461
9.24213	6.30146
9.22568	6.08828
9.2093	5.72674
9.19297	5.30435
9.17669	5.08808
9.16048	4.90327
9.14433	4.66686
9.12823	4.43472
9.11218	4.19978
9.0962	3.8619
9.08027	3.69512
9.06439	3.82855
9.04858	3.76976
9.03281	3.48322
9.0171	3.1798
9.00145	3.01054
8.98585	2.99379
8.9703	2.98355
8.9548	2.98
8.93937	2.97697
8.92398	2.95371
8.90865	2.78569
8.89337	2.63116
8.87814	2.72153
8.86296	2.87749
8.84784	2.85117
8.83277	2.78832
8.81774	2.69572
8.80277	2.66945
8.78786	2.64169
8.77298	2.65365
8.75816	2.77248
8.7434	2.72423
8.72868	2.49912
8.714	2.48026
8.69938	2.59601
8.68481	2.6848
8.67029	2.58341
8.65581	2.42799
8.64139	2.52124
8.62701	2.55996
8.61268	2.55993
8.5984	2.59392
8.58416	2.57889
8.56997	2.55647
8.55583	2.41265
8.54174	2.23251
8.52769	2.12256
8.51368	2.13113
8.49973	2.19232
8.48582	2.25121
8.47195	2.1237
8.45813	2.09812
8.44436	2.17037
8.43062	2.19474
8.41693	2.12767
8.4033	2.02614
8.3897	2.01182
8.37614	2.03851
8.36264	2.06309
8.34917	2.00716
8.33574	1.93194
8.32236	1.95622
8.30903	1.99291
8.29573	1.84626
8.28248	1.53804
8.26927	1.55627
8.2561	1.5889
8.24298	1.35001
8.2299	1.07627
8.21685	1.02353
8.20385	0.910167
8.19089	0.89069
8.17797	0.80754
8.16509	0.623385
8.15225	0.638324
8.13946	0.619096
8.1267	0.461071
8.11398	0.339475
8.10131	0.267574
8.08867	0.270754
8.07606	0.244234
8.0635	0.218589
8.05099	0.156859
8.0385	0.166598
8.02606	0.146576
8.01366	0.114247
8.00129	0.155852
7.98896	0.135314
7.97667	0.120441
7.96442	0.118745
7.9522	0.064679
7.94002	0.145884
7.92788	0.169252
7.91578	0.0724559
7.90371	0.0174166
7.89168	0.0804925
7.87969	0.104536
7.86773	0.105429
7.85581	0.210879
7.84392	0.277243
7.83207	0.303081
7.82026	0.207579
7.80849	0.297165
7.79674	0.411137
7.78503	0.431777
7.77337	0.426074
7.76173	0.402005
7.75012	0.392889
7.73856	0.359817
7.72703	0.467333
7.71553	0.603107
7.70406	0.685663
7.69263	0.704057
7.68123	0.670084
7.66987	0.715718
7.65855	0.747429
7.64725	0.819809
7.63598	0.958917
7.62475	0.956448
7.61356	0.963902
7.60239	1.07302
7.59126	1.14675
7.58017	1.15668
7.5691	1.20081
7.55806	1.27568
7.54707	1.28948
7.5361	1.43285
7.52516	1.51069
7.51425	1.48986
7.50338	1.55693
7.49253	1.68811
7.48172	1.77597
7.47094	1.83071
7.46019	1.80324
7.44947	1.82833
7.43879	1.86659
7.42813	1.95729
7.4175	2.07419
7.4069	2.16114
7.39634	2.19469
7.3858	2.22663
7.37529	2.3553
7.36482	2.56745
7.35437	2.6083
7.34396	2.5936
7.33357	2.58034
7.32321	2.63926
7.31288	2.73491
7.30258	2.85939
7.29231	2.95783
7.28207	3.10465
7.27185	3.14814
7.26167	3.07914
7.25152	3.20355
7.24139	3.32097
7.23129	3.41364
7.22122	3.47167
7.21117	3.51892
7.20116	3.59119
7.19117	3.6087
7.18121	3.68534
7.17128	3.77026
7.16137	3.80844
7.1515	3.91343
7.14164	4.0204
7.13182	4.11945
7.12203	4.22817
7.11225	4.23827
7.10251	4.27379
7.0928	4.31219
7.08311	4.34549
7.07344	4.48471
7.06381	4.62716
7.0542	4.71871
7.04461	4.77947
7.03506	4.84617
7.02552	4.86342
7.01601	4.85592
7.00653	4.85177
6.99708	4.92332
6.98765	5.02693
6.97824	5.09602
6.96886	5.16932
6.95951	5.31713
6.95018	5.37665
6.94087	5.48189
6.9316	5.54344
6.92234	5.46932
6.91311	5.53412
6.90391	5.75752
6.89473	5.80256
6.88557	5.75194
6.87644	5.78424
6.86733	5.82161
6.85824	5.85034
6.84918	6.03035
6.84015	6.18882
6.83114	6.22719
6.82215	6.18234
6.81319	6.26663
6.80424	6.34737
6.79532	6.39165
6.78643	6.38383
6.77756	6.44897
6.76871	6.53144
6.75989	6.54463
6.75109	6.63524
6.74231	6.69032
6.73355	6.73866
6.72482	6.81537
6.71611	6.8618
6.70742	6.87496
6.69875	6.89683
6.69011	6.91243
6.68149	6.9702
6.67289	7.012
6.66431	7.03184
6.65576	7.03576
6.64722	7.05469
6.63871	7.13719
6.63022	7.16199
6.62175	7.21867
6.61331	7.1985
6.60488	7.18328
6.59648	7.20051
6.5881	7.24189
6.57974	7.33774
6.5714	7.4411
6.56308	7.42619
6.55478	7.40133
6.54651	7.41185
6.53825	7.39045
6.53001	7.33084
6.5218	7.28874
6.51361	7.27214
6.50544	7.30012
6.49729	7.33244
6.48915	7.34645
6.48104	7.2729
6.47295	7.22509
6.46488	7.32202
6.45683	7.3048
6.4488	7.22428
6.44079	7.14017
6.4328	7.05252
6.42482	7.0297
6.41687	6.97616
6.40894	6.89647
6.40103	6.9162
6.39314	6.88694
6.38526	6.71863
6.37741	6.65038
6.36957	6.67064
6.36176	6.57368
6.35396	6.41768
6.34618	6.29217
6.33843	6.23136
6.33069	6.14989
6.32297	6.02736
6.31527	5.90289
6.30758	5.83319
6.29992	5.67874
6.29227	5.54905
6.28465	5.36736
6.27704	5.18514
6.26945	4.98574
6.26188	4.70862
6.25432	4.50348
6.24679	4.26174
6.23927	3.99822
6.23177	3.77563
6.22429	3.55625
6.21683	3.29417
6.20938	3.09705
6.20195	2.92252
6.19454	2.66211
6.18715	2.41906
6.17978	2.16772
6.17242	1.99337
6.16508	1.83822
6.15776	1.68582
6.15045	1.55636
6.14317	1.41301
6.1359	1.37809
6.12864	1.32721
6.12141	1.19053
6.11419	1.12562
6.10699	1.05683
6.0998	1.03046
6.09263	1.06386
6.08549	1.03951
6.07835	1.04649
6.07123	1.00451
6.06413	0.994485
6.05705	0.931707
6.04998	0.90244
6.04293	0.984807
6.0359	1.02943
6.02888	0.992103
6.02187	0.940911
6.01489	0.950649
6.00792	1.04845
6.00096	1.13572
5.99403	1.15679
5.98711	1.1474
5.9802	1.20943
5.97331	1.25792
5.96644	1.31815
5.95958	1.40008
5.95274	1.47727
5.94591	1.60025
5.9391	1.76165
5.9323	1.92859
5.92552	1.93299
5.91876	2.08964
5.91201	2.32755
5.90528	2.42232
5.89856	2.54206
5.89186	2.80108
5.88517	3.11564
5.8785	3.38801
5.87184	3.62898
5.8652	3.97606
5.85857	4.32888
5.85196	4.64797
5.84536	4.9762
5.83878	5.36529
5.83221	5.79739
5.82566	6.15788
5.81912	6.4582
5.81259	6.77873
5.80608	7.14266
5.79959	7.50364
5.79311	7.82782
5.78665	8.11787
5.78019	8.44373
5.77376	8.81874
5.76734	9.11201
5.76093	9.3538
5.75453	9.60749
5.74815	9.88491
5.74179	10.1028
5.73543	10.3016
5.7291	10.4709
5.72277	10.693
5.71646	10.9177
5.71017	11.1138
5.70389	11.2448
5.69762	11.4727
5.69136	11.6464
5.68513	11.6978
5.6789	11.8073
5.67268	11.9851
5.66648	12.1783
5.6603	12.2947
5.65413	12.338
5.64797	12.4547
5.64182	12.5601
5.63569	12.6547
5.62957	12.7336
5.62347	12.8206
5.61737	12.9575
5.61129	13.1406
5.60522	13.2475
5.59917	13.3177
5.59313	13.366
5.5871	13.4656
5.58109	13.5651
5.57509	13.7096
5.5691	13.8225
5.56312	13.9885
5.55716	14.1603
5.55121	14.2792
5.54528	14.3803
5.53935	14.5099
5.53344	14.5931
5.52754	14.7625
5.52166	14.9719
5.51578	15.0408
5.50992	15.1166
5.50407	15.3103
5.49823	15.5221
5.49241	15.6852
5.4866	15.8167
5.4808	16.0208
5.47501	16.1689
5.46923	16.3306
5.46347	16.4984
5.45772	16.6783
5.45198	16.8651
5.44625	17.0543
5.44054	17.2369
5.43484	17.3784
5.42914	17.5385
5.42347	17.7528
5.4178	17.8997
5.41214	18.0342
5.4065	18.131
5.40087	18.2344
5.39525	18.3998
5.38964	18.6324
5.38404	18.7505
5.37846	18.8158
5.37288	18.9793
5.36732	19.1551
5.36177	19.198
5.35623	19.2902
5.35071	19.4278
5.34519	19.5284
5.33968	19.6135
5.33419	19.6848
5.32871	19.7521
5.32324	19.8425
5.31778	19.9229
5.31233	19.9665
5.30689	19.9726
5.30147	20.0449
5.29605	20.1806
5.29065	20.2716
5.28525	20.2906
5.27987	20.368
5.2745	20.5106
5.26914	20.5974
5.26379	20.6325
5.25845	20.6474
5.25312	20.706
5.24781	20.7833
5.2425	20.9211
5.23721	20.9415
5.23192	20.9896
5.22665	21.1385
5.22138	21.1985
5.21613	21.2563
5.21089	21.387
5.20566	21.4626
5.20044	21.577
5.19522	21.6938
5.19002	21.7466
5.18483	21.8636
5.17965	21.9601
5.17448	22.0368
5.16933	22.1446
5.16418	22.2883
5.15904	22.444
5.15391	22.538
5.14879	22.6004
5.14368	22.724
5.13859	22.8925
5.1335	23.0524
5.12842	23.2335
5.12335	23.3783
5.1183	23.3791
5.11325	23.4126
5.10821	23.5695
5.10318	23.8049
5.09817	23.9156
5.09316	23.9775
5.08816	24.0837
5.08317	24.191
5.07819	24.3224
5.07322	24.4605
5.06826	24.6201
5.06331	24.7873
5.05837	24.9228
5.05344	25.035
5.04852	25.0753
5.04361	25.1339
5.03871	25.1913
5.03382	25.2797
5.02894	25.3587
5.02406	25.4591
5.0192	25.5278
5.01435	25.6316
5.0095	25.6184
5.00467	25.6113
4.99984	25.7329
4.99502	25.7493
4.99021	25.7488
4.98542	25.7832
4.98063	25.7784
4.97585	25.7836
4.97108	25.809
4.96632	25.7866
4.96156	25.7915
4.95682	25.861
4.95209	25.8791
4.94736	25.8096
4.94264	25.7777
4.93794	25.7707
4.93324	25.7598
4.92855	25.7397
4.92387	25.6341
4.9192	25.5619
4.91453	25.5681
4.90988	25.5064
4.90524	25.3906
4.9006	25.3633
4.89597	25.3594
4.89135	25.3475
4.88674	25.2552
4.88214	25.2257
4.87755	25.1795
4.87296	25.0539
4.86839	25.0031
4.86382	24.9786
4.85926	24.9579
4.85471	24.9007
4.85017	24.7904
4.84564	24.7256
4.84111	24.6683
4.8366	24.5653
4.83209	24.3895
4.82759	24.3444
4.8231	24.2952
4.81862	24.2555
4.81415	24.216
4.80968	24.1464
4.80522	24.0567
4.80077	23.9836
4.79633	23.9223
4.7919	23.8115
4.78747	23.725
4.78306	23.65
4.77865	23.543
4.77425	23.4909
4.76986	23.3183
4.76547	23.2165
4.7611	23.1121
4.75673	22.9601
4.75237	22.8987
4.74802	22.869
4.74367	22.7883
4.73934	22.7105
4.73501	22.6386
4.73069	22.501
4.72638	22.3986
4.72207	22.2622
4.71777	22.1136
4.71348	22.0476
4.7092	22.0084
4.70493	21.8972
4.70066	21.7678
4.69641	21.6474
4.69216	21.537
4.68791	21.4739
4.68368	21.4044
4.67945	21.3133
4.67523	21.1933
4.67102	21.1308
4.66682	21.1026
4.66262	21.0886
4.65843	20.9705
4.65425	20.8287
4.65007	20.6654
4.64591	20.6121
4.64175	20.6413
4.6376	20.6085
4.63345	20.5166
4.62932	20.4254
4.62519	20.4099
4.62106	20.342
4.61695	20.3298
4.61284	20.4099
4.60874	20.3505
4.60465	20.2079
4.60056	20.1406
4.59648	20.1551
4.59241	20.1394
4.58835	20.053
4.58429	20.1184
4.58024	20.1551
4.5762	20.1332
4.57216	20.15
4.56814	20.0813
4.56411	20.0045
4.5601	20.0199
4.55609	20.0435
4.55209	20.1037
4.5481	20.1718
4.54411	20.1047
4.54013	20.0548
4.53616	20.074
4.5322	20.0728
4.52824	20.0685
4.52429	20.0897
4.52034	20.0949
4.51641	20.1087
4.51247	20.1356
4.50855	20.2227
4.50463	20.2071
4.50072	20.1975
4.49682	20.2924
4.49292	20.464
4.48903	20.5068
4.48515	20.5286
4.48127	20.4908
4.4774	20.4907
4.47354	20.4969
4.46968	20.5684
4.46584	20.7272
4.46199	20.7815
4.45815	20.7797
4.45432	20.8462
4.4505	20.9739
4.44668	21.0767
4.44287	21.1063
4.43907	21.1751
4.43527	21.3205
4.43148	21.4277
4.4277	21.4885
4.42392	21.6103
4.42015	21.7312
4.41638	21.8012
4.41262	21.8781
4.40887	22.034
4.40513	22.1782
4.40139	22.2584
4.39765	22.3337
4.39393	22.4552
4.39021	22.6421
4.38649	22.759
4.38278	22.8707
4.37908	22.9915
4.37539	23.0949
4.3717	23.2766
4.36801	23.4978
4.36434	23.6755
4.36067	23.882
4.357	24.0314
4.35335	24.0879
4.34969	24.2088
4.34605	24.4048
4.34241	24.6221
4.33877	24.771
4.33514	24.9147
4.33152	25.0899
4.32791	25.2621
4.3243	25.4328
4.32069	25.5738
4.3171	25.7056
4.31351	25.8713
4.30992	26.0053
4.30634	26.1102
4.30277	26.1529
4.2992	26.3369
4.29564	26.5542
4.29208	26.6738
4.28853	26.8124
4.28499	27.0024
4.28145	27.2352
4.27792	27.4381
4.27439	27.6657
4.27087	27.9381
4.26735	28.274
4.26384	28.703
4.26034	29.1929
4.25684	29.6923
4.25335	29.8278
4.24986	29.6533
4.24638	29.6403
4.24291	29.6874
4.23944	29.7041
4.23598	29.8721
4.23252	30.1023
4.22906	30.3965
4.22562	30.7487
4.22218	31.2415
4.21874	31.7831
4.21531	32.3238
4.21189	32.8495
4.20847	33.2739
4.20506	33.6694
4.20165	34.0361
4.19825	34.4315
4.19485	34.7835
4.19146	35.0906
4.18807	35.3291
4.18469	35.6216
4.18132	35.886
4.17795	36.1346
4.17458	36.378
4.17123	36.6391
4.16787	36.9872
4.16453	37.1838
4.16118	37.3358
4.15785	37.6581
4.15451	37.9232
4.15119	38.0801
4.14787	38.3217
4.14455	38.6036
4.14124	38.8742
4.13794	39.1048
4.13464	39.3188
4.13134	39.4961
4.12805	39.7242
4.12477	39.9818
4.12149	40.2097
4.11822	40.4234
4.11495	40.6514
4.11168	40.9432
4.10843	41.2107
4.10517	41.45
4.10192	41.6882
4.09868	41.8285
4.09545	41.9907
4.09221	42.2644
4.08899	42.5548
4.08576	42.7673
4.08255	42.941
4.07933	43.1421
4.07613	43.3656
4.07292	43.659
4.06973	43.8943
4.06654	44.0239
4.06335	44.2048
4.06017	44.3969
4.05699	44.5857
4.05382	44.8021
4.05065	45.0075
4.04749	45.1888
4.04433	45.4172
4.04118	45.7042
4.03803	45.8624
4.03489	46.0083
4.03175	46.179
4.02862	46.3627
4.02549	46.5427
4.02237	46.7202
4.01925	46.8358
4.01614	46.9668
4.01303	47.1212
4.00993	47.3279
4.00683	47.4603
4.00373	47.5412
4.00064	47.7432
3.99756	47.9093
3.99448	48.0251
3.9914	48.1994
3.98833	48.408
3.98527	48.5118
3.98221	48.5967
3.97915	48.714
3.9761	48.8074
3.97305	48.9221
3.97001	49.1117
3.96697	49.1796
3.96394	49.2043
3.96091	49.3252
3.95789	49.4605
3.95487	49.5193
3.95186	49.622
3.94885	49.7502
3.94584	49.7614
3.94284	49.8277
3.93984	49.91
3.93685	49.9744
3.93386	50.075
3.93088	50.1231
3.9279	50.1611
3.92493	50.2066
3.92196	50.3837
3.919	50.4223
3.91604	50.3965
3.91308	50.3933
3.91013	50.3832
3.90718	50.4262
3.90424	50.5112
3.9013	50.5164
3.89837	50.4398
3.89544	50.4909
3.89252	50.5745
3.8896	50.5926
3.88668	50.5852
3.88377	50.5637
3.88086	50.6368
3.87796	50.6699
3.87506	50.6192
3.87217	50.5978
3.86928	50.5917
3.86639	50.5866
3.86351	50.5853
3.86064	50.5683
3.85776	50.5186
3.8549	50.5695
3.85203	50.5462
3.84917	50.4707
3.84631	50.4506
3.84346	50.4245
3.84062	50.4187
3.83777	50.3666
3.83494	50.3186
3.8321	50.2593
3.82927	50.2204
3.82644	50.1671
3.82362	50.1063
3.82081	50.1205
3.81799	50.0875
3.81518	49.9731
3.81238	49.8656
3.80958	49.796
3.80678	49.7519
3.80399	49.6669
3.8012	49.5828
3.79841	49.5441
3.79563	49.5234
3.79286	49.4571
3.79008	49.3474
3.78731	49.257
3.78455	49.2014
3.78179	49.1549
3.77903	49.0134
3.77628	48.8674
3.77353	48.7723
3.77079	48.787
3.76805	48.7799
3.76531	48.6978
3.76258	48.51
3.75985	48.3703
3.75713	48.2131
3.7544	48.0535
3.75169	48.0373
3.74898	47.9916
3.74627	47.8775
3.74356	47.7703
3.74086	47.6411
3.73816	47.4843
3.73547	47.3596
3.73278	47.2561
3.7301	47.1071
3.72741	47.0298
3.72474	46.9494
3.72206	46.8311
3.71939	46.7037
3.71673	46.5838
3.71406	46.5308
3.71141	46.4032
3.70875	46.2375
3.7061	46.0686
3.70345	45.8769
3.70081	45.7355
3.69817	45.6236
3.69553	45.5273
3.6929	45.3891
3.69027	45.218
3.68765	45.1317
3.68503	45.0569
3.68241	44.8814
3.6798	44.6722
3.67719	44.5427
3.67458	44.4291
3.67198	44.2697
3.66938	44.1207
3.66678	43.9845
3.66419	43.779
3.66161	43.6487
3.65902	43.5541
3.65644	43.4062
3.65387	43.1982
3.65129	42.9843
3.64872	42.8826
3.64616	42.7681
3.64359	42.6542
3.64103	42.5018
3.63848	42.2393
3.63593	42.0042
3.63338	41.8924
3.63084	41.7079
3.6283	41.4624
3.62576	41.2795
3.62322	41.1202
3.62069	40.9486
3.61817	40.7721
3.61564	40.6164
3.61312	40.4827
3.61061	40.3317
3.6081	40.0937
3.60559	39.8329
3.60308	39.6788
3.60058	39.5054
3.59808	39.329
3.59558	39.2051
3.59309	38.9982
3.59061	38.8099
3.58812	38.5564
3.58564	38.3238
3.58316	38.135
3.58069	37.967
3.57822	37.8223
3.57575	37.686
3.57328	37.4569
3.57082	37.2185
3.56836	37.0223
3.56591	36.7716
3.56346	36.6228
3.56101	36.4269
3.55857	36.2093
3.55613	36.0262
3.55369	35.8521
3.55126	35.6535
3.54883	35.4036
3.5464	35.1148
3.54397	34.9196
3.54155	34.7391
3.53914	34.5588
3.53672	34.3892
3.53431	34.1356
3.5319	33.8356
3.5295	33.6405
3.5271	33.4791
3.5247	33.2486
3.52231	33.0051
3.51991	32.8611
3.51753	32.7018
3.51514	32.4821
3.51276	32.2301
3.51038	32.0098
3.50801	31.8415
3.50563	31.5388
3.50327	31.2397
3.5009	31.0132
3.49854	30.8371
3.49618	30.6431
3.49382	30.3693
3.49147	30.0612
3.48912	29.8163
3.48677	29.6499
3.48443	29.4372
3.48209	29.1769
3.47975	28.9337
3.47742	28.794
3.47509	28.6422
