Name: Hematite alpha Fe_2O_3
Type: Mineral
Class: Oxides
Subclass: 
Particle Size: 45-125um
Sample No.: O-1A
Owner: JPL
Wavelength range: IR
Origin: USA, Alabama, Birmingham
Collected by Burminco
Description: 





Measurement: Hemispherical reflectance
First Column: X
Second Column: Y
X Units:  Wavelength (micrometers)
Y Units:  Reflectance (percent)
First X Value: 15.3853
Last X Value: 2.00032
Number of X Values: 2256
Additional information: o01aa.txt
 
15.3853	7.98592
15.3397	7.33117
15.2945	6.9055
15.2495	6.44134
15.2048	5.72571
15.1603	4.97443
15.1161	4.68707
15.0722	4.50559
15.0285	3.98715
14.9851	3.28462
14.9419	2.98887
14.8989	2.84112
14.8563	2.7169
14.8138	2.55671
14.7716	2.369
14.7296	2.29146
14.6879	2.23665
14.6464	2.13417
14.6052	1.9303
14.5641	1.86374
14.5233	1.85502
14.4828	1.7532
14.4424	1.7797
14.4023	1.78767
14.3624	1.65951
14.3227	1.51017
14.2833	1.26263
14.244	1.17618
14.205	1.1854
14.1662	1.32326
14.1276	1.43402
14.0892	1.45918
14.051	1.42319
14.0131	1.45608
13.9753	1.59751
13.9377	1.7068
13.9004	1.67702
13.8632	1.67674
13.8262	1.60683
13.7895	1.77115
13.7529	1.98793
13.7165	2.0544
13.6803	2.13993
13.6443	2.08216
13.6085	2.05279
13.5729	2.21769
13.5374	2.32048
13.5022	2.38039
13.4671	2.31727
13.4322	2.32144
13.3975	2.43568
13.363	2.50655
13.3286	2.42894
13.2944	2.5382
13.2604	2.66958
13.2266	2.71856
13.193	2.76205
13.1595	2.67603
13.1262	2.65671
13.093	2.72669
13.06	2.84652
13.0272	3.05371
12.9946	3.20075
12.9621	3.31641
12.9298	3.50114
12.8976	3.63999
12.8656	3.85552
12.8337	4.03098
12.8021	4.05689
12.7705	4.16247
12.7391	4.15299
12.7079	3.90528
12.6769	3.57949
12.6459	3.41656
12.6152	3.49813
12.5845	3.72944
12.5541	3.97286
12.5238	4.22992
12.4936	4.3708
12.4635	4.12009
12.4337	3.78321
12.4039	3.4795
12.3743	3.14896
12.3448	2.92371
12.3155	2.69224
12.2863	2.60519
12.2573	2.66977
12.2284	2.69992
12.1996	2.72839
12.171	2.84467
12.1425	2.94911
12.1141	2.81805
12.0859	2.9218
12.0578	3.12262
12.0298	3.13969
12.0019	3.08201
11.9742	3.12744
11.9466	3.21948
11.9192	3.37084
11.8918	3.42414
11.8646	3.31387
11.8375	3.29357
11.8106	3.40221
11.7837	3.40271
11.757	3.40337
11.7304	3.50025
11.7039	3.51023
11.6776	3.34837
11.6513	3.27968
11.6252	3.37376
11.5992	3.40439
11.5733	3.47412
11.5475	3.48661
11.5219	3.43687
11.4963	3.52548
11.4709	3.80898
11.4455	3.87149
11.4203	3.89386
11.3952	4.07005
11.3702	4.25379
11.3454	4.33366
11.3206	4.34443
11.2959	4.40652
11.2714	4.42593
11.2469	4.45515
11.2226	4.33614
11.1983	4.22268
11.1742	4.30793
11.1502	4.37775
11.1263	4.27121
11.1024	4.22076
11.0787	4.22458
11.0551	4.2104
11.0316	4.16208
11.0081	4.19076
10.9848	4.07041
10.9616	4.07687
10.9385	4.10599
10.9154	4.19504
10.8925	4.2969
10.8697	4.37223
10.8469	4.31968
10.8243	4.27671
10.8017	4.22019
10.7793	4.21626
10.7569	4.32199
10.7346	4.47675
10.7125	4.38568
10.6904	4.38518
10.6684	4.5088
10.6465	4.48402
10.6247	4.34134
10.6029	4.27151
10.5813	4.37823
10.5597	4.54344
10.5383	4.527
10.5169	4.51106
10.4956	4.56745
10.4744	4.62583
10.4533	4.6801
10.4323	4.65208
10.4113	4.70718
10.3904	4.75468
10.3697	4.72179
10.349	4.75211
10.3284	4.80891
10.3078	4.88881
10.2874	4.99261
10.267	5.0435
10.2467	5.02376
10.2265	4.98064
10.2064	4.95545
10.1863	4.98242
10.1663	5.0649
10.1464	5.08959
10.1266	5.03987
10.1069	5.06933
10.0872	5.12422
10.0676	5.09497
10.0481	5.09381
10.0287	5.16761
10.0093	5.16272
9.99005	5.19495
9.97084	5.23959
9.95169	5.24845
9.93263	5.13223
9.91364	5.22333
9.89472	5.36391
9.87587	5.35729
9.8571	5.37096
9.83839	5.51036
9.81976	5.47158
9.80119	5.47216
9.78271	5.53676
9.76428	5.53599
9.74592	5.64934
9.72764	5.8306
9.70943	5.82353
9.69128	5.80809
9.6732	5.89489
9.65518	5.9694
9.63724	6.02133
9.61935	6.09603
9.60155	6.16351
9.5838	6.18533
9.56611	6.26825
9.5485	6.37352
9.53094	6.4151
9.51345	6.48006
9.49604	6.65293
9.47867	7.03375
9.46137	7.22662
9.44414	7.33637
9.42697	7.66292
9.40986	7.97567
9.39281	8.3632
9.37583	8.77768
9.35891	9.07481
9.34204	9.30224
9.32524	9.65406
9.3085	9.94868
9.29182	10.0546
9.27519	10.0887
9.25863	10.1754
9.24213	10.1915
9.22568	10.2587
9.2093	10.3292
9.19297	10.2583
9.17669	10.4264
9.16048	10.6375
9.14433	10.69
9.12823	10.7539
9.11218	10.8526
9.0962	10.9628
9.08027	11.067
9.06439	11.1061
9.04858	11.16
9.03281	11.2399
9.0171	11.2502
9.00145	11.259
8.98585	11.2671
8.9703	11.2959
8.9548	11.3729
8.93937	11.4275
8.92398	11.4897
8.90865	11.5744
8.89337	11.6009
8.87814	11.5132
8.86296	11.5244
8.84784	11.6967
8.83277	11.6905
8.81774	11.5968
8.80277	11.6292
8.78786	11.639
8.77298	11.5948
8.75816	11.4564
8.7434	11.428
8.72868	11.3673
8.714	11.1608
8.69938	11.0482
8.68481	11.0384
8.67029	10.7156
8.65581	10.1064
8.64139	9.4916
8.62701	9.22495
8.61268	9.46901
8.5984	10.1564
8.58416	10.9165
8.56997	11.4181
8.55583	11.6872
8.54174	11.8104
8.52769	11.935
8.51368	12.1695
8.49973	12.2624
8.48582	12.4819
8.47195	12.7427
8.45813	12.865
8.44436	12.9386
8.43062	13.1053
8.41693	13.2631
8.4033	13.3422
8.3897	13.3534
8.37614	13.4932
8.36264	13.6138
8.34917	13.6508
8.33574	13.6538
8.32236	13.775
8.30903	13.9549
8.29573	14.0124
8.28248	14.0681
8.26927	14.168
8.2561	14.3114
8.24298	14.3775
8.2299	14.4061
8.21685	14.4957
8.20385	14.5245
8.19089	14.5169
8.17797	14.4548
8.16509	14.3157
8.15225	14.1084
8.13946	13.8004
8.1267	13.4726
8.11398	13.2146
8.10131	13.1077
8.08867	12.8414
8.07606	12.4819
8.0635	12.1999
8.05099	11.942
8.0385	11.7571
8.02606	11.6529
8.01366	11.6514
8.00129	11.5323
7.98896	11.2612
7.97667	11.0107
7.96442	10.8524
7.9522	10.7113
7.94002	10.5526
7.92788	10.4084
7.91578	10.2682
7.90371	10.1528
7.89168	10.0635
7.87969	9.96153
7.86773	9.81408
7.85581	9.72334
7.84392	9.70003
7.83207	9.6495
7.82026	9.60887
7.80849	9.51338
7.79674	9.48163
7.78503	9.50403
7.77337	9.53948
7.76173	9.59946
7.75012	9.62334
7.73856	9.59188
7.72703	9.59842
7.71553	9.60442
7.70406	9.58623
7.69263	9.57971
7.68123	9.64076
7.66987	9.6145
7.65855	9.57462
7.64725	9.51517
7.63598	9.36956
7.62475	9.39294
7.61356	9.47102
7.60239	9.42975
7.59126	9.44299
7.58017	9.44472
7.5691	9.43091
7.55806	9.3544
7.54707	9.40685
7.5361	9.46729
7.52516	9.49964
7.51425	9.5056
7.50338	9.50503
7.49253	9.5868
7.48172	9.58123
7.47094	9.51004
7.46019	9.43367
7.44947	9.38153
7.43879	9.39362
7.42813	9.33955
7.4175	9.32996
7.4069	9.36267
7.39634	9.43756
7.3858	9.49163
7.37529	9.49486
7.36482	9.42579
7.35437	9.37399
7.34396	9.35518
7.33357	9.34167
7.32321	9.36291
7.31288	9.3529
7.30258	9.24439
7.29231	9.17704
7.28207	9.23536
7.27185	9.25793
7.26167	9.24824
7.25152	9.30608
7.24139	9.32307
7.23129	9.31397
7.22122	9.35388
7.21117	9.32797
7.20116	9.33871
7.19117	9.45878
7.18121	9.45359
7.17128	9.45974
7.16137	9.44386
7.1515	9.52023
7.14164	9.54409
7.13182	9.55313
7.12203	9.58938
7.11225	9.56126
7.10251	9.58896
7.0928	9.61449
7.08311	9.58192
7.07344	9.54098
7.06381	9.47307
7.0542	9.57796
7.04461	9.64631
7.03506	9.43482
7.02552	9.38929
7.01601	9.46181
7.00653	9.468
6.99708	9.48103
6.98765	9.51581
6.97824	9.55904
6.96886	9.68022
6.95951	9.82274
6.95018	9.70586
6.94087	9.64749
6.9316	9.69948
6.92234	9.64772
6.91311	9.63068
6.90391	9.65896
6.89473	9.51587
6.88557	9.42285
6.87644	9.48172
6.86733	9.72681
6.85824	9.6935
6.84918	9.47552
6.84015	9.41406
6.83114	9.49357
6.82215	9.52066
6.81319	9.52487
6.80424	9.53453
6.79532	9.5951
6.78643	9.61801
6.77756	9.57784
6.76871	9.59114
6.75989	9.54092
6.75109	9.46979
6.74231	9.45184
6.73355	9.45436
6.72482	9.48309
6.71611	9.5038
6.70742	9.48373
6.69875	9.36676
6.69011	9.43036
6.68149	9.53066
6.67289	9.5646
6.66431	9.52367
6.65576	9.5095
6.64722	9.72954
6.63871	9.93863
6.63022	9.82302
6.62175	9.63863
6.61331	9.55361
6.60488	9.56581
6.59648	9.62595
6.5881	9.63069
6.57974	9.6229
6.5714	9.65986
6.56308	9.60971
6.55478	9.61969
6.54651	9.60743
6.53825	9.54555
6.53001	9.56781
6.5218	9.79478
6.51361	9.90182
6.50544	9.97565
6.49729	10.2618
6.48915	10.4558
6.48104	10.4034
6.47295	10.4081
6.46488	10.4251
6.45683	10.4264
6.4488	10.4619
6.44079	10.499
6.4328	10.4826
6.42482	10.5452
6.41687	10.8073
6.40894	10.6538
6.40103	10.2381
6.39314	10.095
6.38526	10.0346
6.37741	9.97239
6.36957	9.84313
6.36176	9.69751
6.35396	9.60436
6.34618	9.60304
6.33843	9.4596
6.33069	9.2284
6.32297	9.11378
6.31527	9.09937
6.30758	9.023
6.29992	8.9235
6.29227	8.82525
6.28465	8.71173
6.27704	8.66963
6.26945	8.60614
6.26188	8.60548
6.25432	8.62926
6.24679	8.46012
6.23927	8.24353
6.23177	8.2053
6.22429	8.16234
6.21683	8.03898
6.20938	7.94019
6.20195	7.81241
6.19454	7.76334
6.18715	7.86753
6.17978	7.87253
6.17242	7.73118
6.16508	7.77825
6.15776	7.84831
6.15045	7.73967
6.14317	7.70775
6.1359	7.68565
6.12864	7.67026
6.12141	7.79761
6.11419	8.00442
6.10699	7.99593
6.0998	7.94244
6.09263	7.99808
6.08549	8.13033
6.07835	8.38827
6.07123	8.53421
6.06413	8.56797
6.05705	8.64421
6.04998	8.87175
6.04293	8.7777
6.0359	8.68524
6.02888	8.73921
6.02187	8.81222
6.01489	8.86597
6.00792	8.87238
6.00096	8.89082
5.99403	9.02822
5.98711	9.17972
5.9802	9.08392
5.97331	8.95723
5.96644	8.97204
5.95958	8.94377
5.95274	9.0199
5.94591	9.17432
5.9391	9.38937
5.9323	9.42682
5.92552	9.30362
5.91876	9.27961
5.91201	9.32428
5.90528	9.41841
5.89856	9.65376
5.89186	9.75543
5.88517	9.93835
5.8785	10.1285
5.87184	10.0066
5.8652	10.0534
5.85857	10.0995
5.85196	10.1258
5.84536	10.1937
5.83878	10.3611
5.83221	10.5361
5.82566	10.676
5.81912	10.7376
5.81259	10.6481
5.80608	10.6723
5.79959	10.7501
5.79311	10.8496
5.78665	10.9045
5.78019	10.8953
5.77376	11.0723
5.76734	11.3797
5.76093	11.2563
5.75453	11.0822
5.74815	11.2054
5.74179	11.2372
5.73543	11.1999
5.7291	11.2477
5.72277	11.3363
5.71646	11.3891
5.71017	11.4064
5.70389	11.3472
5.69762	11.3159
5.69136	11.3406
5.68513	11.2683
5.6789	11.1687
5.67268	11.0462
5.66648	10.8762
5.6603	10.8205
5.65413	10.7962
5.64797	10.7496
5.64182	10.704
5.63569	10.4757
5.62957	10.1855
5.62347	10.0139
5.61737	9.96767
5.61129	9.8097
5.60522	9.58857
5.59917	9.38166
5.59313	9.23424
5.5871	9.08731
5.58109	8.98391
5.57509	8.91094
5.5691	8.80473
5.56312	8.74862
5.55716	8.78574
5.55121	9.01348
5.54528	9.31797
5.53935	9.50135
5.53344	9.65068
5.52754	9.81032
5.52166	9.96529
5.51578	10.1755
5.50992	10.2955
5.50407	10.3613
5.49823	10.4677
5.49241	10.6004
5.4866	10.7065
5.4808	10.8862
5.47501	11.0291
5.46923	11.1046
5.46347	11.1788
5.45772	11.142
5.45198	11.1213
5.44625	11.1687
5.44054	11.1762
5.43484	11.1813
5.42914	11.1405
5.42347	11.1186
5.4178	10.9745
5.41214	10.7366
5.4065	10.6492
5.40087	10.6027
5.39525	10.5452
5.38964	10.3483
5.38404	10.1757
5.37846	10.0736
5.37288	9.96368
5.36732	9.94861
5.36177	9.89505
5.35623	9.92191
5.35071	10.0222
5.34519	10.0132
5.33968	10.0044
5.33419	9.95952
5.32871	9.94574
5.32324	10.055
5.31778	10.0593
5.31233	10.0212
5.30689	10.044
5.30147	10.0742
5.29605	10.0892
5.29065	10.2582
5.28525	10.3216
5.27987	10.3292
5.2745	10.3493
5.26914	10.3675
5.26379	10.3756
5.25845	10.4591
5.25312	10.5858
5.24781	10.7128
5.2425	10.8348
5.23721	10.9073
5.23192	11.0513
5.22665	11.211
5.22138	11.3382
5.21613	11.4588
5.21089	11.5619
5.20566	11.5748
5.20044	11.5965
5.19522	11.6885
5.19002	11.7453
5.18483	11.7135
5.17965	11.5707
5.17448	11.5382
5.16933	11.5675
5.16418	11.5619
5.15904	11.5194
5.15391	11.5338
5.14879	11.5557
5.14368	11.5113
5.13859	11.4428
5.1335	11.4514
5.12842	11.4781
5.12335	11.4286
5.1183	11.4677
5.11325	11.4689
5.10821	11.2908
5.10318	11.2205
5.09817	11.198
5.09316	11.1895
5.08816	11.2764
5.08317	11.2601
5.07819	11.1444
5.07322	11.0967
5.06826	11.0575
5.06331	11.1142
5.05837	11.1384
5.05344	11.1293
5.04852	11.1185
5.04361	10.9895
5.03871	10.9291
5.03382	10.9678
5.02894	10.9854
5.02406	10.8699
5.0192	10.8049
5.01435	10.8468
5.0095	10.8807
5.00467	10.8929
4.99984	10.9116
4.99502	11.0154
4.99021	11.1008
4.98542	11.0989
4.98063	11.1118
4.97585	11.1381
4.97108	11.1868
4.96632	11.3278
4.96156	11.4441
4.95682	11.5606
4.95209	11.6793
4.94736	11.7308
4.94264	11.8
4.93794	11.8782
4.93324	11.9296
4.92855	11.9875
4.92387	11.9841
4.9192	12.046
4.91453	12.1842
4.90988	12.3646
4.90524	12.5392
4.9006	12.6518
4.89597	12.7821
4.89135	12.9601
4.88674	13.0683
4.88214	13.1903
4.87755	13.3079
4.87296	13.4875
4.86839	13.5859
4.86382	13.531
4.85926	13.5298
4.85471	13.5844
4.85017	13.6683
4.84564	13.7382
4.84111	13.7906
4.8366	13.7997
4.83209	13.7783
4.82759	13.791
4.8231	13.8196
4.81862	13.8512
4.81415	13.8969
4.80968	13.8907
4.80522	13.8571
4.80077	13.8819
4.79633	13.945
4.7919	13.9349
4.78747	13.9714
4.78306	13.9823
4.77865	13.9759
4.77425	13.9985
4.76986	13.9959
4.76547	14.0053
4.7611	14.0605
4.75673	14.083
4.75237	13.9913
4.74802	13.9688
4.74367	13.9922
4.73934	14.0016
4.73501	14.0328
4.73069	14.0313
4.72638	14.0773
4.72207	14.1087
4.71777	14.0177
4.71348	13.9304
4.7092	13.8658
4.70493	13.7827
4.70066	13.7137
4.69641	13.6155
4.69216	13.5372
4.68791	13.4895
4.68368	13.5283
4.67945	13.617
4.67523	13.5858
4.67102	13.5139
4.66682	13.5691
4.66262	13.6079
4.65843	13.6399
4.65425	13.7196
4.65007	13.7679
4.64591	13.7997
4.64175	13.7808
4.6376	13.8668
4.63345	13.996
4.62932	13.9782
4.62519	13.989
4.62106	14.0843
4.61695	14.0789
4.61284	14.0853
4.60874	14.1475
4.60465	14.2287
4.60056	14.2436
4.59648	14.1832
4.59241	14.1638
4.58835	14.2275
4.58429	14.3463
4.58024	14.3576
4.5762	14.2675
4.57216	14.2522
4.56814	14.2434
4.56411	14.2524
4.5601	14.3084
4.55609	14.3516
4.55209	14.3155
4.5481	14.2727
4.54411	14.2868
4.54013	14.3164
4.53616	14.3102
4.5322	14.2381
4.52824	14.216
4.52429	14.1603
4.52034	14.1182
4.51641	14.1661
4.51247	14.1247
4.50855	14.0411
4.50463	14.003
4.50072	13.9523
4.49682	14.0175
4.49292	14.084
4.48903	14.0087
4.48515	13.9372
4.48127	13.9511
4.4774	13.9185
4.47354	13.8769
4.46968	13.8929
4.46584	13.9463
4.46199	14.0284
4.45815	14.0936
4.45432	14.0947
4.4505	14.1935
4.44668	14.3015
4.44287	14.2241
4.43907	14.0739
4.43527	14.1081
4.43148	14.1535
4.4277	14.2123
4.42392	14.3069
4.42015	14.2678
4.41638	14.2821
4.41262	14.3191
4.40887	14.3257
4.40513	14.2804
4.40139	14.3001
4.39765	14.4023
4.39393	14.4937
4.39021	14.5204
4.38649	14.4896
4.38278	14.4341
4.37908	14.4607
4.37539	14.5633
4.3717	14.5989
4.36801	14.5368
4.36434	14.4649
4.36067	14.4846
4.357	14.5958
4.35335	14.6405
4.34969	14.6041
4.34605	14.5999
4.34241	14.6518
4.33877	14.6415
4.33514	14.5861
4.33152	14.6308
4.32791	14.6094
4.3243	14.5752
4.32069	14.632
4.3171	14.6501
4.31351	14.6585
4.30992	14.6959
4.30634	14.6757
4.30277	14.6198
4.2992	14.5443
4.29564	14.5406
4.29208	14.6912
4.28853	14.8203
4.28499	14.7316
4.28145	14.6446
4.27792	14.6593
4.27439	14.6189
4.27087	14.5849
4.26735	14.5597
4.26384	14.5715
4.26034	14.5968
4.25684	14.5466
4.25335	14.6073
4.24986	14.6633
4.24638	14.6902
4.24291	14.69
4.23944	14.6313
4.23598	14.61
4.23252	14.6644
4.22906	14.7219
4.22562	14.6949
4.22218	14.6448
4.21874	14.5537
4.21531	14.5489
4.21189	14.6456
4.20847	14.5922
4.20506	14.5536
4.20165	14.5851
4.19825	14.581
4.19485	14.5592
4.19146	14.6049
4.18807	14.6469
4.18469	14.5607
4.18132	14.4815
4.17795	14.5033
4.17458	14.5473
4.17123	14.5084
4.16787	14.4627
4.16453	14.5163
4.16118	14.5506
4.15785	14.5248
4.15451	14.5179
4.15119	14.4793
4.14787	14.4146
4.14455	14.4247
4.14124	14.4524
4.13794	14.3638
4.13464	14.3014
4.13134	14.3464
4.12805	14.4098
4.12477	14.3623
4.12149	14.3396
4.11822	14.3441
4.11495	14.367
4.11168	14.3445
4.10843	14.3154
4.10517	14.3164
4.10192	14.289
4.09868	14.3108
4.09545	14.374
4.09221	14.3234
4.08899	14.162
4.08576	14.2165
4.08255	14.2366
4.07933	14.1186
4.07613	14.0611
4.07292	14.0652
4.06973	14.0609
4.06654	14.0191
4.06335	13.8861
4.06017	13.7893
4.05699	13.7445
4.05382	13.728
4.05065	13.7544
4.04749	13.6685
4.04433	13.4911
4.04118	13.3465
4.03803	13.3284
4.03489	13.264
4.03175	13.1402
4.02862	13.0172
4.02549	12.8759
4.02237	12.7484
4.01925	12.6609
4.01614	12.5388
4.01303	12.5298
4.00993	12.4612
4.00683	12.3194
4.00373	12.2369
4.00064	12.1558
3.99756	12.1117
3.99448	12.0581
3.9914	12.0707
3.98833	12.1006
3.98527	12.0511
3.98221	11.9532
3.97915	11.8735
3.9761	11.877
3.97305	11.908
3.97001	11.9412
3.96697	11.953
3.96394	11.9405
3.96091	11.9444
3.95789	11.9847
3.95487	12.035
3.95186	12.0738
3.94885	12.1233
3.94584	12.2175
3.94284	12.2791
3.93984	12.335
3.93685	12.3552
3.93386	12.4708
3.93088	12.6266
3.9279	12.6049
3.92493	12.5545
3.92196	12.5193
3.919	12.5085
3.91604	12.5503
3.91308	12.6179
3.91013	12.6442
3.90718	12.6372
3.90424	12.5978
3.9013	12.582
3.89837	12.6761
3.89544	12.7229
3.89252	12.6682
3.8896	12.6575
3.88668	12.6843
3.88377	12.7577
3.88086	12.819
3.87796	12.6789
3.87506	12.5873
3.87217	12.6347
3.86928	12.6504
3.86639	12.6263
3.86351	12.6508
3.86064	12.6524
3.85776	12.6531
3.8549	12.6769
3.85203	12.6822
3.84917	12.6669
3.84631	12.6766
3.84346	12.6913
3.84062	12.6541
3.83777	12.6883
3.83494	12.7468
3.8321	12.779
3.82927	12.8553
3.82644	12.8506
3.82362	12.8693
3.82081	12.9669
3.81799	13.0404
3.81518	13.0457
3.81238	13.0584
3.80958	13.1277
3.80678	13.2449
3.80399	13.3795
3.8012	13.4368
3.79841	13.4149
3.79563	13.5008
3.79286	13.5609
3.79008	13.6229
3.78731	13.7177
3.78455	13.7708
3.78179	13.7567
3.77903	13.6997
3.77628	13.6807
3.77353	13.5954
3.77079	13.557
3.76805	13.7485
3.76531	13.8389
3.76258	13.8135
3.75985	13.8335
3.75713	13.8418
3.7544	13.7947
3.75169	13.7626
3.74898	13.7541
3.74627	13.704
3.74356	13.7201
3.74086	13.7447
3.73816	13.7009
3.73547	13.7378
3.73278	13.8153
3.7301	13.8085
3.72741	13.7662
3.72474	13.7647
3.72206	13.8658
3.71939	13.8596
3.71673	13.7842
3.71406	13.6947
3.71141	13.6496
3.70875	13.7209
3.7061	13.752
3.70345	13.7255
3.70081	13.6907
3.69817	13.697
3.69553	13.7493
3.6929	13.8204
3.69027	13.7909
3.68765	13.6899
3.68503	13.6369
3.68241	13.7087
3.6798	13.805
3.67719	13.8346
3.67458	13.6857
3.67198	13.5645
3.66938	13.5997
3.66678	13.5938
3.66419	13.5816
3.66161	13.6027
3.65902	13.6333
3.65644	13.6818
3.65387	13.6892
3.65129	13.6335
3.64872	13.5538
3.64616	13.5501
3.64359	13.5817
3.64103	13.5801
3.63848	13.5282
3.63593	13.5073
3.63338	13.5455
3.63084	13.5068
3.6283	13.4457
3.62576	13.5173
3.62322	13.5542
3.62069	13.5343
3.61817	13.4095
3.61564	13.3761
3.61312	13.4171
3.61061	13.387
3.6081	13.3497
3.60559	13.4182
3.60308	13.3672
3.60058	13.2688
3.59808	13.2937
3.59558	13.2451
3.59309	13.2098
3.59061	13.2534
3.58812	13.2432
3.58564	13.1625
3.58316	13.1148
3.58069	13.1088
3.57822	13.004
3.57575	12.9367
3.57328	12.9794
3.57082	12.9537
3.56836	12.8686
3.56591	12.8501
3.56346	12.935
3.56101	12.9854
3.55857	13.0765
3.55613	13.0607
3.55369	12.8776
3.55126	12.7484
3.54883	12.6786
3.5464	12.6786
3.54397	12.6698
3.54155	12.5587
3.53914	12.5052
3.53672	12.4755
3.53431	12.4135
3.5319	12.3228
3.5295	12.2163
3.5271	12.1616
3.5247	12.0413
3.52231	11.9226
3.51991	11.8425
3.51753	11.7809
3.51514	11.6718
3.51276	11.6107
3.51038	11.554
3.50801	11.5915
3.50563	11.5896
3.50327	11.4679
3.5009	11.3654
3.49854	11.3142
3.49618	11.363
3.49382	11.3164
3.49147	11.2411
3.48912	11.2422
3.48677	11.1912
3.48443	11.1527
3.48209	11.1583
3.47975	11.189
3.47742	11.0676
3.47509	11.0791
3.47276	11.1402
3.47044	11.1628
3.46812	11.2124
3.4658	11.2264
3.46348	11.197
