Name: Anglesite PbSO_4
Type: Mineral
Class: Sulfates
Subclass: 
Particle Size: 0-45um
Sample No.: SO-10A
Owner: JPL
Wavelength range: IR
Origin: USA, Arizona, Santa Cruz County, Glove Mine
Collected by JPL
Description: 





Measurement: Hemispherical reflectance
First Column: X
Second Column: Y
X Units:  Wavelength (micrometers)
Y Units:  Reflectance (percent)
First X Value: 15.3853
Last X Value: 2.00032
Number of X Values: 2256
Additional information: so10aa.txt
 
15.3853	7.3371
15.3397	8.29186
15.2945	9.33068
15.2495	10.3906
15.2048	10.9609
15.1603	11.3933
15.1161	11.648
15.0722	11.7128
15.0285	11.6719
14.9851	11.761
14.9419	12.1682
14.8989	12.5695
14.8563	12.8419
14.8138	12.7667
14.7716	12.4784
14.7296	12.8708
14.6879	14.3945
14.6464	16.9949
14.6052	19.3944
14.5641	21.1046
14.5233	22.2096
14.4828	22.9358
14.4424	23.678
14.4023	24.2666
14.3624	24.5671
14.3227	24.7836
14.2833	25.3968
14.244	26.3957
14.205	27.1003
14.1662	27.5608
14.1276	28.021
14.0892	28.2903
14.051	28.45
14.0131	28.7777
13.9753	29.2188
13.9377	29.4826
13.9004	29.495
13.8632	29.527
13.8262	29.5188
13.7895	29.566
13.7529	29.5844
13.7165	29.5508
13.6803	29.3995
13.6443	29.3824
13.6085	29.4992
13.5729	29.6055
13.5374	29.7867
13.5022	30.123
13.4671	30.3623
13.4322	30.3853
13.3975	30.5569
13.363	30.9485
13.3286	31.2644
13.2944	31.3078
13.2604	31.3006
13.2266	31.4947
13.193	31.5525
13.1595	31.5934
13.1262	31.5465
13.093	31.3868
13.06	31.3594
13.0272	31.565
12.9946	31.6518
12.9621	31.7269
12.9298	31.8418
12.8976	31.959
12.8656	32.0795
12.8337	32.1185
12.8021	32.2508
12.7705	32.5026
12.7391	32.7522
12.7079	32.8993
12.6769	33.0276
12.6459	33.1694
12.6152	33.2934
12.5845	33.384
12.5541	33.4137
12.5238	33.5069
12.4936	33.7047
12.4635	33.8716
12.4337	34.0637
12.4039	34.4004
12.3743	34.6047
12.3448	34.8263
12.3155	34.8857
12.2863	34.8987
12.2573	34.9826
12.2284	34.9331
12.1996	34.641
12.171	33.8527
12.1425	32.7217
12.1141	32.9761
12.0859	33.6647
12.0578	33.3928
12.0298	32.4474
12.0019	31.0932
11.9742	29.4127
11.9466	27.5327
11.9192	26.1037
11.8918	26.2919
11.8646	28.0298
11.8375	29.8855
11.8106	30.8963
11.7837	31.4489
11.757	31.9339
11.7304	32.1711
11.7039	32.2368
11.6776	32.32
11.6513	32.3568
11.6252	32.258
11.5992	32.0142
11.5733	31.7213
11.5475	31.3317
11.5219	30.8879
11.4963	30.3527
11.4709	29.7979
11.4455	29.3262
11.4203	28.7224
11.3952	28.0583
11.3702	27.3677
11.3454	26.6938
11.3206	26.0289
11.2959	25.3725
11.2714	24.5297
11.2469	23.6431
11.2226	22.8466
11.1983	22.033
11.1742	21.3755
11.1502	20.6445
11.1263	19.8953
11.1024	19.3092
11.0787	18.7489
11.0551	18.262
11.0316	17.942
11.0081	17.6918
10.9848	17.3561
10.9616	16.8949
10.9385	16.3955
10.9154	15.8515
10.8925	15.3101
10.8697	14.853
10.8469	14.4134
10.8243	14.0086
10.8017	13.7013
10.7793	13.3927
10.7569	13.0393
10.7346	12.9189
10.7125	12.9896
10.6904	12.9892
10.6684	12.8917
10.6465	12.7316
10.6247	12.5136
10.6029	12.1361
10.5813	11.6726
10.5597	11.192
10.5383	10.7632
10.5169	10.1858
10.4956	9.6419
10.4744	9.02222
10.4533	8.26544
10.4323	7.39827
10.4113	6.58684
10.3904	5.85585
10.3697	5.26689
10.349	4.79333
10.3284	4.49863
10.3078	4.53257
10.2874	5.0462
10.267	5.8167
10.2467	6.51488
10.2265	6.83674
10.2064	6.9564
10.1863	6.90714
10.1663	6.76599
10.1464	6.53152
10.1266	6.25819
10.1069	6.08509
10.0872	5.92991
10.0676	5.78251
10.0481	5.70278
10.0287	5.58463
10.0093	5.49415
9.99005	5.35282
9.97084	5.21685
9.95169	5.09893
9.93263	5.09902
9.91364	5.20929
9.89472	5.23669
9.87587	5.1867
9.8571	5.2576
9.83839	5.29635
9.81976	5.34917
9.80119	5.44474
9.78271	5.57518
9.76428	5.65972
9.74592	5.82646
9.72764	5.80822
9.70943	5.77925
9.69128	5.87992
9.6732	5.9658
9.65518	6.01702
9.63724	6.25649
9.61935	6.44085
9.60155	6.43176
9.5838	6.47678
9.56611	6.53326
9.5485	6.53004
9.53094	6.64144
9.51345	6.69377
9.49604	6.65774
9.47867	6.66481
9.46137	6.74029
9.44414	6.70402
9.42697	6.76857
9.40986	6.81163
9.39281	6.79759
9.37583	6.77359
9.35891	6.74848
9.34204	6.69219
9.32524	6.52808
9.3085	6.40834
9.29182	6.4443
9.27519	6.48337
9.25863	6.36493
9.24213	6.15337
9.22568	6.07606
9.2093	6.08486
9.19297	6.13995
9.17669	6.21075
9.16048	6.17516
9.14433	6.02415
9.12823	5.90125
9.11218	5.86782
9.0962	5.90752
9.08027	5.85897
9.06439	5.74355
9.04858	5.66067
9.03281	5.63321
9.0171	5.68025
9.00145	5.60722
8.98585	5.54809
8.9703	5.58819
8.9548	5.4723
8.93937	5.35404
8.92398	5.33803
8.90865	5.45691
8.89337	5.54049
8.87814	5.48752
8.86296	5.34646
8.84784	5.29475
8.83277	5.26378
8.81774	5.28958
8.80277	5.1946
8.78786	5.00739
8.77298	4.92029
8.75816	4.95827
8.7434	4.858
8.72868	4.76192
8.714	4.6012
8.69938	4.34796
8.68481	4.18915
8.67029	4.18071
8.65581	4.16236
8.64139	4.02764
8.62701	3.86973
8.61268	3.82759
8.5984	3.81177
8.58416	3.77602
8.56997	3.91733
8.55583	4.06221
8.54174	4.01339
8.52769	4.1216
8.51368	4.17844
8.49973	4.14724
8.48582	4.1251
8.47195	4.15554
8.45813	4.31267
8.44436	4.43616
8.43062	4.28437
8.41693	4.21391
8.4033	4.27484
8.3897	4.31388
8.37614	4.3963
8.36264	4.4109
8.34917	4.27381
8.33574	4.25024
8.32236	4.3047
8.30903	4.24427
8.29573	4.17761
8.28248	4.13209
8.26927	4.10298
8.2561	3.95261
8.24298	3.84644
8.2299	3.851
8.21685	3.82854
8.20385	3.90181
8.19089	3.87387
8.17797	3.75875
8.16509	3.79434
8.15225	3.82429
8.13946	3.78467
8.1267	3.85594
8.11398	4.03645
8.10131	4.13801
8.08867	4.10019
8.07606	4.14289
8.0635	4.20543
8.05099	4.29712
8.0385	4.41609
8.02606	4.5671
8.01366	4.84445
8.00129	5.06249
7.98896	5.20355
7.97667	5.41306
7.96442	5.63855
7.9522	5.86598
7.94002	6.13556
7.92788	6.38585
7.91578	6.66935
7.90371	7.06024
7.89168	7.41196
7.87969	7.92896
7.86773	8.34219
7.85581	8.61257
7.84392	8.90197
7.83207	9.24876
7.82026	9.60143
7.80849	10.0098
7.79674	10.4173
7.78503	10.7451
7.77337	11.0863
7.76173	11.3718
7.75012	11.6589
7.73856	12.0684
7.72703	12.4706
7.71553	12.791
7.70406	13.1588
7.69263	13.488
7.68123	13.7
7.66987	13.9945
7.65855	14.3595
7.64725	14.6953
7.63598	15.0037
7.62475	15.3395
7.61356	15.6909
7.60239	16.064
7.59126	16.394
7.58017	16.6645
7.5691	16.939
7.55806	17.2268
7.54707	17.498
7.5361	17.8176
7.52516	18.1466
7.51425	18.397
7.50338	18.5795
7.49253	18.7395
7.48172	18.9656
7.47094	19.2469
7.46019	19.4365
7.44947	19.598
7.43879	19.7935
7.42813	20.0279
7.4175	20.2654
7.4069	20.3778
7.39634	20.5132
7.3858	20.7178
7.37529	20.8591
7.36482	21.006
7.35437	21.1784
7.34396	21.4071
7.33357	21.5122
7.32321	21.5068
7.31288	21.6074
7.30258	21.8218
7.29231	22.0325
7.28207	22.2031
7.27185	22.4195
7.26167	22.7107
7.25152	22.8765
7.24139	22.9834
7.23129	23.0349
7.22122	23.0405
7.21117	22.9969
7.20116	22.7388
7.19117	22.4261
7.18121	22.1932
7.17128	21.9597
7.16137	21.6478
7.1515	21.3889
7.14164	21.0882
7.13182	20.821
7.12203	20.7158
7.11225	20.7389
7.10251	20.7211
7.0928	20.6407
7.08311	20.6513
7.07344	20.7614
7.06381	20.8835
7.0542	21.0901
7.04461	21.2576
7.03506	21.1811
7.02552	21.2396
7.01601	21.2523
7.00653	21.2162
6.99708	21.2749
6.98765	21.3451
6.97824	21.4062
6.96886	21.5563
6.95951	21.6702
6.95018	21.6297
6.94087	21.7103
6.9316	21.8474
6.92234	21.8953
6.91311	22.0384
6.90391	22.2636
6.89473	22.3858
6.88557	22.5235
6.87644	22.7725
6.86733	23.3197
6.85824	23.4361
6.84918	23.1488
6.84015	23.1644
6.83114	23.4587
6.82215	23.5989
6.81319	23.517
6.80424	23.6443
6.79532	24.0186
6.78643	24.2316
6.77756	24.274
6.76871	24.4016
6.75989	24.563
6.75109	24.8667
6.74231	25.1192
6.73355	25.4463
6.72482	25.921
6.71611	26.3834
6.70742	26.7069
6.69875	27.0504
6.69011	27.614
6.68149	28.2274
6.67289	28.6476
6.66431	29.0232
6.65576	29.4555
6.64722	30.3705
6.63871	31.4202
6.63022	31.6567
6.62175	31.7423
6.61331	32.1996
6.60488	32.7006
6.59648	33.2707
6.5881	33.6606
6.57974	34.2455
6.5714	34.899
6.56308	35.057
6.55478	35.3752
6.54651	35.7437
6.53825	35.9928
6.53001	36.4055
6.5218	36.9984
6.51361	37.2993
6.50544	37.7551
6.49729	38.6928
6.48915	39.1048
6.48104	38.9989
6.47295	38.9819
6.46488	39.0023
6.45683	39.1179
6.4488	39.2878
6.44079	39.4022
6.4328	39.5017
6.42482	39.5693
6.41687	39.909
6.40894	39.3101
6.40103	38.2488
6.39314	37.867
6.38526	37.7951
6.37741	37.9228
6.36957	38.1397
6.36176	38.0209
6.35396	38.1499
6.34618	38.7469
6.33843	38.8885
6.33069	38.9748
6.32297	39.4677
6.31527	39.9566
6.30758	40.6197
6.29992	41.3442
6.29227	42.0315
6.28465	42.5982
6.27704	43.098
6.26945	43.5648
6.26188	44.0528
6.25432	44.5298
6.24679	45.1365
6.23927	45.6862
6.23177	46.13
6.22429	46.626
6.21683	47.2685
6.20938	47.8256
6.20195	48.3617
6.19454	49.088
6.18715	50.1347
6.17978	50.6106
6.17242	50.9124
6.16508	51.6075
6.15776	52.1341
6.15045	52.4367
6.14317	52.9865
6.1359	53.3897
6.12864	53.7438
6.12141	54.4901
6.11419	55.3343
6.10699	55.3138
6.0998	55.203
6.09263	55.4693
6.08549	55.9242
6.07835	56.6657
6.07123	57.1325
6.06413	57.0679
6.05705	57.8136
6.04998	59.1845
6.04293	58.8016
6.0359	58.1305
6.02888	58.3041
6.02187	58.7413
6.01489	59.2416
6.00792	59.4115
6.00096	59.643
5.99403	60.2547
5.98711	60.6794
5.9802	60.7204
5.97331	61.1791
5.96644	61.6113
5.95958	61.6027
5.95274	61.8167
5.94591	62.3734
5.9391	63.4515
5.9323	63.5995
5.92552	63.2313
5.91876	63.3982
5.91201	63.5892
5.90528	63.9106
5.89856	64.5694
5.89186	64.7893
5.88517	65.3601
5.8785	65.7661
5.87184	65.3084
5.8652	65.5954
5.85857	65.7257
5.85196	65.5976
5.84536	65.4658
5.83878	65.5077
5.83221	65.486
5.82566	65.1089
5.81912	63.6533
5.81259	60.489
5.80608	56.1654
5.79959	51.5015
5.79311	48.0066
5.78665	46.7393
5.78019	46.9517
5.77376	48.6012
5.76734	51.2713
5.76093	51.9562
5.75453	51.2187
5.74815	50.8985
5.74179	51.3873
5.73543	53.6765
5.7291	57.0478
5.72277	60.8435
5.71646	64.468
5.71017	66.9694
5.70389	67.9492
5.69762	68.486
5.69136	68.9446
5.68513	69.1257
5.6789	69.3229
5.67268	69.3688
5.66648	69.1537
5.6603	69.2922
5.65413	69.4134
5.64797	69.4635
5.64182	69.5702
5.63569	69.1428
5.62957	68.7807
5.62347	68.7016
5.61737	68.7708
5.61129	68.7782
5.60522	68.7868
5.59917	68.8102
5.59313	68.7672
5.5871	68.938
5.58109	69.3157
5.57509	69.3174
5.5691	69.1413
5.56312	69.1938
5.55716	69.3134
5.55121	69.4352
5.54528	69.4425
5.53935	69.5071
5.53344	69.488
5.52754	69.5576
5.52166	69.6415
5.51578	69.6972
5.50992	69.6755
5.50407	69.671
5.49823	69.7296
5.49241	69.8312
5.4866	69.9418
5.4808	70.1265
5.47501	70.1477
5.46923	70.2019
5.46347	70.2557
5.45772	70.1755
5.45198	70.1219
5.44625	70.0498
5.44054	69.9286
5.43484	69.8423
5.42914	69.8542
5.42347	69.9768
5.4178	69.6619
5.41214	69.2964
5.4065	68.9847
5.40087	68.6813
5.39525	68.435
5.38964	68.1488
5.38404	67.8365
5.37846	67.537
5.37288	67.2606
5.36732	66.9022
5.36177	66.5809
5.35623	66.4668
5.35071	66.3677
5.34519	65.996
5.33968	65.5897
5.33419	65.2911
5.32871	65.024
5.32324	64.711
5.31778	64.3811
5.31233	64.0582
5.30689	63.6801
5.30147	63.3567
5.29605	63.0684
5.29065	62.7928
5.28525	62.4082
5.27987	62.1209
5.2745	61.8125
5.26914	61.4579
5.26379	61.2334
5.25845	61.0361
5.25312	60.7669
5.24781	60.4806
5.2425	60.1011
5.23721	59.643
5.23192	59.052
5.22665	58.3273
5.22138	57.5273
5.21613	56.7371
5.21089	55.7622
5.20566	54.6276
5.20044	53.4371
5.19522	52.0284
5.19002	50.6051
5.18483	49.2365
5.17965	47.9347
5.17448	46.7391
5.16933	45.7716
5.16418	45.2758
5.15904	45.2062
5.15391	45.5494
5.14879	46.1046
5.14368	46.5677
5.13859	46.8032
5.1335	46.7621
5.12842	46.4945
5.12335	45.9872
5.1183	45.3418
5.11325	44.5319
5.10821	43.6463
5.10318	42.7419
5.09817	41.8074
5.09316	40.955
5.08816	40.1908
5.08317	39.5462
5.07819	38.8859
5.07322	38.2582
5.06826	37.6464
5.06331	37.0698
5.05837	36.5229
5.05344	35.9806
5.04852	35.3724
5.04361	34.6572
5.03871	33.9716
5.03382	33.3443
5.02894	32.6835
5.02406	32.0534
5.0192	31.5332
5.01435	31.0597
5.0095	30.6336
5.00467	30.2249
4.99984	29.9368
4.99502	29.7302
4.99021	29.4817
4.98542	29.2401
4.98063	28.9706
4.97585	28.7888
4.97108	28.7476
4.96632	28.8427
4.96156	29.0348
4.95682	29.2321
4.95209	29.4238
4.94736	29.6759
4.94264	29.8846
4.93794	30.1064
4.93324	30.4648
4.92855	30.8203
4.92387	31.0882
4.9192	31.3151
4.91453	31.5283
4.90988	31.7066
4.90524	31.9742
4.9006	32.2579
4.89597	32.5208
4.89135	32.8299
4.88674	33.1816
4.88214	33.4812
4.87755	33.7618
4.87296	34.0733
4.86839	34.3169
4.86382	34.5536
4.85926	34.7856
4.85471	34.9599
4.85017	35.2107
4.84564	35.3735
4.84111	35.4389
4.8366	35.5981
4.83209	35.8129
4.82759	35.9223
4.8231	35.9676
4.81862	36.0244
4.81415	36.0166
4.80968	36.0737
4.80522	36.1653
4.80077	36.1799
4.79633	36.1092
4.7919	36.0287
4.78747	36.0363
4.78306	35.9826
4.77865	35.8674
4.77425	35.7652
4.76986	35.6414
4.76547	35.4591
4.7611	35.3083
4.75673	35.158
4.75237	34.9354
4.74802	34.7704
4.74367	34.6303
4.73934	34.5711
4.73501	34.4772
4.73069	34.2938
4.72638	34.293
4.72207	34.3732
4.71777	34.4196
4.71348	34.5967
4.7092	34.7734
4.70493	35.0171
4.70066	35.2987
4.69641	35.5066
4.69216	35.7318
4.68791	36.0301
4.68368	36.3277
4.67945	36.5733
4.67523	36.7185
4.67102	36.9076
4.66682	37.1884
4.66262	37.4964
4.65843	37.7522
4.65425	37.9574
4.65007	38.2285
4.64591	38.5399
4.64175	38.7991
4.6376	39.0615
4.63345	39.3539
4.62932	39.6787
4.62519	40.0211
4.62106	40.4045
4.61695	40.8166
4.61284	41.1631
4.60874	41.4957
4.60465	41.8267
4.60056	42.2833
4.59648	42.7652
4.59241	43.2035
4.58835	43.6011
4.58429	44.0435
4.58024	44.4849
4.5762	44.9187
4.57216	45.4146
4.56814	45.8065
4.56411	46.1695
4.5601	46.6214
4.55609	47.0646
4.55209	47.412
4.5481	47.7445
4.54411	48.075
4.54013	48.2992
4.53616	48.5409
4.5322	48.8621
4.52824	49.0806
4.52429	49.2154
4.52034	49.4486
4.51641	49.681
4.51247	49.8573
4.50855	50.1192
4.50463	50.388
4.50072	50.5965
4.49682	50.7768
4.49292	50.9399
4.48903	51.1324
4.48515	51.3177
4.48127	51.4993
4.4774	51.7098
4.47354	51.9148
4.46968	52.0855
4.46584	52.2669
4.46199	52.3966
4.45815	52.5893
4.45432	52.7968
4.4505	52.9366
4.44668	53.0175
4.44287	53.142
4.43907	53.2955
4.43527	53.3899
4.43148	53.5433
4.4277	53.7151
4.42392	53.8369
4.42015	53.9169
4.41638	53.9971
4.41262	54.133
4.40887	54.3314
4.40513	54.4311
4.40139	54.5098
4.39765	54.6075
4.39393	54.6655
4.39021	54.7955
4.38649	54.9027
4.38278	54.8615
4.37908	54.7917
4.37539	54.8713
4.3717	54.9448
4.36801	55.023
4.36434	55.067
4.36067	55.1044
4.357	55.1071
4.35335	55.0279
4.34969	54.9582
4.34605	54.9891
4.34241	55.117
4.33877	55.1211
4.33514	55.0373
4.33152	55.032
4.32791	54.9942
4.3243	54.9698
4.32069	54.9862
4.3171	54.9657
4.31351	54.9233
4.30992	54.9125
4.30634	54.9006
4.30277	54.8991
4.2992	54.9028
4.29564	54.9168
4.29208	54.9819
4.28853	55.0218
4.28499	55.0417
4.28145	55.0405
4.27792	55.0339
4.27439	55.1271
4.27087	55.2939
4.26735	55.4683
4.26384	55.7546
4.26034	56.0598
4.25684	56.1867
4.25335	56.2488
4.24986	56.4614
4.24638	56.6202
4.24291	56.7378
4.23944	56.9913
4.23598	57.2401
4.23252	57.5013
4.22906	57.9051
4.22562	58.3015
4.22218	58.7124
4.21874	59.0039
4.21531	59.2863
4.21189	59.5984
4.20847	59.8362
4.20506	60.0157
4.20165	60.1745
4.19825	60.3044
4.19485	60.3022
4.19146	60.1886
4.18807	59.9662
4.18469	59.6158
4.18132	59.1741
4.17795	58.614
4.17458	58.01
4.17123	57.3331
4.16787	56.6156
4.16453	55.8766
4.16118	55.2264
4.15785	54.7333
4.15451	54.3321
4.15119	54.1338
4.14787	54.1408
4.14455	54.3579
4.14124	54.7749
4.13794	55.4106
4.13464	56.1726
4.13134	56.9629
4.12805	57.7233
4.12477	58.4662
4.12149	59.2649
4.11822	60.057
4.11495	60.7753
4.11168	61.3829
4.10843	61.9951
4.10517	62.6214
4.10192	63.1657
4.09868	63.6743
4.09545	64.1455
4.09221	64.5
4.08899	64.796
4.08576	65.095
4.08255	65.3214
4.07933	65.5238
4.07613	65.7768
4.07292	65.9573
4.06973	66.0773
4.06654	66.1442
4.06335	66.2016
4.06017	66.236
4.05699	66.2768
4.05382	66.3459
4.05065	66.4316
4.04749	66.4846
4.04433	66.5825
4.04118	66.7873
4.03803	66.9872
4.03489	67.179
4.03175	67.374
4.02862	67.5018
4.02549	67.6988
4.02237	67.9667
4.01925	68.2112
4.01614	68.4018
4.01303	68.5832
4.00993	68.7785
4.00683	68.9309
4.00373	68.9395
4.00064	69.028
3.99756	69.1339
3.99448	69.1847
3.9914	69.2514
3.98833	69.3986
3.98527	69.488
3.98221	69.5308
3.97915	69.6271
3.9761	69.776
3.97305	69.8614
3.97001	69.8976
3.96697	70.0445
3.96394	70.2365
3.96091	70.3469
3.95789	70.5033
3.95487	70.6712
3.95186	70.8797
3.94885	71.1471
3.94584	71.3671
3.94284	71.6144
3.93984	71.846
3.93685	72.1105
3.93386	72.4658
3.93088	72.7759
3.9279	73.0209
3.92493	73.2684
3.92196	73.5784
3.919	73.8667
3.91604	74.1834
3.91308	74.4368
3.91013	74.5846
3.90718	74.7509
3.90424	74.8807
3.9013	75.0172
3.89837	75.1675
3.89544	75.2673
3.89252	75.3498
3.8896	75.4412
3.88668	75.5043
3.88377	75.5883
3.88086	75.6454
3.87796	75.6948
3.87506	75.7584
3.87217	75.8071
3.86928	75.8431
3.86639	75.8489
3.86351	75.8694
3.86064	75.9294
3.85776	76.0404
3.8549	76.0206
3.85203	76.0051
3.84917	76.0449
3.84631	76.0507
3.84346	76.0091
3.84062	75.9883
3.83777	76.0187
3.83494	75.9878
3.8321	75.9471
3.82927	75.9804
3.82644	75.9593
3.82362	75.8925
3.82081	75.8752
3.81799	75.8595
3.81518	75.799
3.81238	75.7601
3.80958	75.7236
3.80678	75.675
3.80399	75.6264
3.8012	75.6144
3.79841	75.6086
3.79563	75.5413
3.79286	75.4619
3.79008	75.39
3.78731	75.3257
3.78455	75.2799
3.78179	75.1736
3.77903	75.1312
3.77628	75.0989
3.77353	75.03
3.77079	74.9298
3.76805	74.7875
3.76531	74.6462
3.76258	74.6199
3.75985	74.5966
3.75713	74.4288
3.7544	74.2535
3.75169	74.1644
3.74898	74.0568
3.74627	73.9453
3.74356	73.8724
3.74086	73.8542
3.73816	73.8015
3.73547	73.6803
3.73278	73.5556
3.7301	73.4559
3.72741	73.3857
3.72474	73.2324
3.72206	73.0868
3.71939	72.9717
3.71673	72.867
3.71406	72.723
3.71141	72.5306
3.70875	72.3545
3.7061	72.1734
3.70345	71.9321
3.70081	71.7297
3.69817	71.555
3.69553	71.2397
3.6929	70.8974
3.69027	70.599
3.68765	70.311
3.68503	69.911
3.68241	69.4346
3.6798	69.0531
3.67719	68.7052
3.67458	68.2925
3.67198	67.8699
3.66938	67.4797
3.66678	67.0752
3.66419	66.6489
3.66161	66.2698
3.65902	65.9878
3.65644	65.8014
3.65387	65.5621
3.65129	65.3835
3.64872	65.3474
3.64616	65.3637
3.64359	65.3933
3.64103	65.4275
3.63848	65.5792
3.63593	65.6925
3.63338	65.8266
3.63084	66.0122
3.6283	66.1309
3.62576	66.2404
3.62322	66.3074
3.62069	66.3165
3.61817	66.3403
3.61564	66.3031
3.61312	66.2346
3.61061	66.1088
3.6081	65.9433
3.60559	65.8119
3.60308	65.8496
3.60058	65.913
3.59808	65.9333
3.59558	65.9488
3.59309	65.8578
3.59061	65.7402
3.58812	65.7033
3.58564	65.7018
3.58316	65.7051
3.58069	65.6963
3.57822	65.8068
3.57575	65.9141
3.57328	65.9377
3.57082	65.961
3.56836	66.0121
3.56591	66.0658
3.56346	66.1017
3.56101	66.1553
3.55857	66.1742
3.55613	66.2559
3.55369	66.3995
3.55126	66.4876
3.54883	66.5699
3.5464	66.673
3.54397	66.6819
3.54155	66.7983
3.53914	66.9598
3.53672	67.097
3.53431	67.232
3.5319	67.3877
3.5295	67.5797
3.5271	67.6659
3.5247	67.7631
3.52231	67.9443
3.51991	68.137
3.51753	68.3682
3.51514	68.5565
3.51276	68.7273
3.51038	68.8602
3.50801	68.968
3.50563	69.1008
3.50327	69.2746
3.5009	69.379
3.49854	69.5965
3.49618	69.873
3.49382	70.1194
3.49147	70.3639
3.48912	70.5107
3.48677	70.6458
3.48443	70.865
3.48209	71.0553
3.47975	71.1559
3.47742	71.1671
3.47509	71.1507
3.47276	71.2814
3.47044	71.412
3.46812	71.5125
3.4658	71.5506
3.46348	71.6423
3.46117	71.8173
