Name: Rutile TiO_2
Type: Mineral
Class: Oxides
Subclass: 
Particle Size: 125-500um
Sample No.: O-2A
Owner: JPL
Wavelength range: IR
Origin: 
Collected by JPL
Description: 





Measurement: Hemispherical reflectance
First Column: X
Second Column: Y
X Units:  Wavelength (micrometers)
Y Units:  Reflectance (percent)
First X Value: 15.3853
Last X Value: 2.00032
Number of X Values: 2256
Additional information: o02aa.txt
 
15.3853	42.0335
15.3397	42.0735
15.2945	41.8627
15.2495	41.8703
15.2048	41.8414
15.1603	41.4274
15.1161	41.2665
15.0722	41.1624
15.0285	40.9574
14.9851	40.8166
14.9419	40.6772
14.8989	40.576
14.8563	40.5326
14.8138	40.5626
14.7716	40.4806
14.7296	40.2033
14.6879	40.0565
14.6464	40.0501
14.6052	39.9996
14.5641	39.912
14.5233	39.7825
14.4828	39.5658
14.4424	39.3753
14.4023	39.1957
14.3624	39.0847
14.3227	38.7926
14.2833	38.7072
14.244	38.6162
14.205	38.4696
14.1662	38.5398
14.1276	38.4708
14.0892	38.261
14.051	38.1408
14.0131	37.9108
13.9753	37.6866
13.9377	37.7266
13.9004	37.8007
13.8632	37.6792
13.8262	37.4775
13.7895	37.1124
13.7529	36.7945
13.7165	36.7929
13.6803	36.8567
13.6443	36.7249
13.6085	36.4873
13.5729	36.1848
13.5374	35.8614
13.5022	35.6198
13.4671	35.4367
13.4322	35.1001
13.3975	34.7646
13.363	34.3272
13.3286	33.8721
13.2944	33.4454
13.2604	32.9929
13.2266	32.5918
13.193	32.2609
13.1595	31.7745
13.1262	31.1155
13.093	30.4515
13.06	29.9908
13.0272	29.4534
12.9946	28.7527
12.9621	28.1434
12.9298	27.6835
12.8976	27.0475
12.8656	26.2216
12.8337	25.4988
12.8021	24.6429
12.7705	23.8845
12.7391	23.1895
12.7079	22.4103
12.6769	21.6833
12.6459	20.9134
12.6152	20.2735
12.5845	19.4134
12.5541	18.4718
12.5238	17.8021
12.4936	17.1042
12.4635	16.33
12.4337	15.5055
12.4039	14.7665
12.3743	14.2037
12.3448	13.5283
12.3155	12.8618
12.2863	12.3263
12.2573	11.8127
12.2284	11.1871
12.1996	10.4808
12.171	9.89827
12.1425	9.3856
12.1141	8.74876
12.0859	8.163
12.0578	7.70588
12.0298	7.15125
12.0019	6.46759
11.9742	5.98985
11.9466	5.79053
11.9192	5.34645
11.8918	4.71092
11.8646	4.48891
11.8375	4.264
11.8106	3.86225
11.7837	3.56408
11.757	3.34553
11.7304	3.1816
11.7039	2.92575
11.6776	2.66929
11.6513	2.51726
11.6252	2.34594
11.5992	2.28957
11.5733	2.29927
11.5475	2.30604
11.5219	2.23575
11.4963	2.04014
11.4709	1.83738
11.4455	1.85363
11.4203	1.89268
11.3952	1.80281
11.3702	1.74843
11.3454	1.65835
11.3206	1.56357
11.2959	1.51361
11.2714	1.45632
11.2469	1.4245
11.2226	1.50138
11.1983	1.67983
11.1742	1.80322
11.1502	1.72126
11.1263	1.64837
11.1024	1.73007
11.0787	1.76926
11.0551	1.76628
11.0316	1.72589
11.0081	1.73828
10.9848	1.83387
10.9616	1.91807
10.9385	1.81222
10.9154	1.80201
10.8925	2.00186
10.8697	2.08488
10.8469	1.96095
10.8243	1.78709
10.8017	1.77652
10.7793	1.91084
10.7569	1.93402
10.7346	1.88291
10.7125	1.97922
10.6904	2.11831
10.6684	2.13915
10.6465	1.98593
10.6247	1.97585
10.6029	2.02086
10.5813	2.10202
10.5597	2.24377
10.5383	2.30292
10.5169	2.28339
10.4956	2.4548
10.4744	2.4845
10.4533	2.50235
10.4323	2.5451
10.4113	2.57493
10.3904	2.56547
10.3697	2.56379
10.349	2.71585
10.3284	2.83038
10.3078	2.80922
10.2874	2.78805
10.267	2.76732
10.2467	2.81825
10.2265	2.84794
10.2064	2.85355
10.1863	2.88956
10.1663	3.04882
10.1464	3.10681
10.1266	3.08484
10.1069	2.99902
10.0872	2.94591
10.0676	2.94436
10.0481	3.05022
10.0287	3.19468
10.0093	3.2091
9.99005	3.24154
9.97084	3.26642
9.95169	3.28238
9.93263	3.31279
9.91364	3.23126
9.89472	3.34407
9.87587	3.46883
9.8571	3.49397
9.83839	3.53412
9.81976	3.59251
9.80119	3.60202
9.78271	3.50352
9.76428	3.41156
9.74592	3.34289
9.72764	3.39489
9.70943	3.5342
9.69128	3.53797
9.6732	3.5319
9.65518	3.53529
9.63724	3.58545
9.61935	3.63546
9.60155	3.69928
9.5838	3.68767
9.56611	3.61223
9.5485	3.65724
9.53094	3.77881
9.51345	3.7363
9.49604	3.60356
9.47867	3.60989
9.46137	3.78868
9.44414	3.83066
9.42697	3.81436
9.40986	3.86312
9.39281	3.90156
9.37583	3.99318
9.35891	4.10951
9.34204	4.19015
9.32524	4.11615
9.3085	4.05541
9.29182	4.21726
9.27519	4.18419
9.25863	4.01888
9.24213	4.23266
9.22568	4.40875
9.2093	4.28734
9.19297	4.21376
9.17669	4.18785
9.16048	4.26227
9.14433	4.26695
9.12823	4.29138
9.11218	4.37342
9.0962	4.29227
9.08027	4.13414
9.06439	4.20699
9.04858	4.39445
9.03281	4.3708
9.0171	4.25865
9.00145	4.30094
8.98585	4.41006
8.9703	4.4469
8.9548	4.54893
8.93937	4.54126
8.92398	4.4318
8.90865	4.38735
8.89337	4.42458
8.87814	4.5665
8.86296	4.61887
8.84784	4.63669
8.83277	4.65898
8.81774	4.68137
8.80277	4.71884
8.78786	4.68017
8.77298	4.59233
8.75816	4.68954
8.7434	4.76713
8.72868	4.74771
8.714	4.65839
8.69938	4.52323
8.68481	4.52275
8.67029	4.52567
8.65581	4.54341
8.64139	4.64654
8.62701	4.53536
8.61268	4.50059
8.5984	4.56358
8.58416	4.69937
8.56997	4.73232
8.55583	4.64824
8.54174	4.63573
8.52769	4.62998
8.51368	4.57699
8.49973	4.52404
8.48582	4.48861
8.47195	4.54971
8.45813	4.72988
8.44436	4.69749
8.43062	4.65242
8.41693	4.6324
8.4033	4.66618
8.3897	4.80436
8.37614	4.92752
8.36264	4.89366
8.34917	4.79072
8.33574	4.69127
8.32236	4.71006
8.30903	4.70348
8.29573	4.66488
8.28248	4.72883
8.26927	4.88553
8.2561	4.84494
8.24298	4.78626
8.2299	4.91833
8.21685	4.99363
8.20385	4.98229
8.19089	5.01526
8.17797	4.96936
8.16509	4.80032
8.15225	4.88354
8.13946	4.99838
8.1267	5.03455
8.11398	5.15046
8.10131	5.11541
8.08867	5.03789
8.07606	5.06562
8.0635	5.05859
8.05099	5.11448
8.0385	5.11603
8.02606	5.13284
8.01366	5.12098
8.00129	5.13727
7.98896	5.21174
7.97667	5.22278
7.96442	5.10663
7.9522	5.11514
7.94002	5.25524
7.92788	5.32643
7.91578	5.30781
7.90371	5.37426
7.89168	5.47335
7.87969	5.52276
7.86773	5.54358
7.85581	5.50438
7.84392	5.45795
7.83207	5.52323
7.82026	5.63261
7.80849	5.63285
7.79674	5.65277
7.78503	5.68275
7.77337	5.75596
7.76173	5.86793
7.75012	5.90373
7.73856	5.91563
7.72703	5.91698
7.71553	5.96784
7.70406	6.05417
7.69263	6.17581
7.68123	6.21464
7.66987	6.24515
7.65855	6.30091
7.64725	6.32552
7.63598	6.34882
7.62475	6.42308
7.61356	6.56114
7.60239	6.55208
7.59126	6.60715
7.58017	6.75392
7.5691	6.79669
7.55806	6.84359
7.54707	6.88609
7.5361	6.87489
7.52516	6.891
7.51425	6.97132
7.50338	7.09313
7.49253	7.20003
7.48172	7.29974
7.47094	7.39646
7.46019	7.39818
7.44947	7.40459
7.43879	7.47698
7.42813	7.51769
7.4175	7.49866
7.4069	7.59796
7.39634	7.74374
7.3858	7.79706
7.37529	7.76879
7.36482	7.79905
7.35437	7.91477
7.34396	8.06156
7.33357	8.08075
7.32321	8.03552
7.31288	8.10985
7.30258	8.25984
7.29231	8.39099
7.28207	8.43876
7.27185	8.37803
7.26167	8.37504
7.25152	8.40107
7.24139	8.46078
7.23129	8.54313
7.22122	8.64016
7.21117	8.78765
7.20116	8.82025
7.19117	8.76626
7.18121	8.78738
7.17128	8.85648
7.16137	8.92808
7.1515	9.02022
7.14164	9.13353
7.13182	9.23064
7.12203	9.32799
7.11225	9.38438
7.10251	9.4288
7.0928	9.51987
7.08311	9.61229
7.07344	9.59525
7.06381	9.67062
7.0542	9.84443
7.04461	9.88243
7.03506	9.8139
7.02552	9.93611
7.01601	10.0567
7.00653	10.0519
6.99708	10.1349
6.98765	10.1706
6.97824	10.2808
6.96886	10.4327
6.95951	10.4963
6.95018	10.4757
6.94087	10.5063
6.9316	10.5341
6.92234	10.5483
6.91311	10.6697
6.90391	10.8665
6.89473	10.9646
6.88557	11.0575
6.87644	11.1597
6.86733	11.3665
6.85824	11.4624
6.84918	11.3486
6.84015	11.3834
6.83114	11.5178
6.82215	11.5065
6.81319	11.58
6.80424	11.7326
6.79532	11.8363
6.78643	11.9132
6.77756	11.9191
6.76871	11.9123
6.75989	12.0176
6.75109	12.0904
6.74231	12.0614
6.73355	12.1778
6.72482	12.3262
6.71611	12.4708
6.70742	12.6222
6.69875	12.688
6.69011	12.7707
6.68149	12.9106
6.67289	12.9391
6.66431	12.938
6.65576	12.9418
6.64722	13.1574
6.63871	13.4407
6.63022	13.3733
6.62175	13.294
6.61331	13.4412
6.60488	13.467
6.59648	13.5687
6.5881	13.748
6.57974	13.9008
6.5714	13.995
6.56308	13.9818
6.55478	14.0785
6.54651	14.1211
6.53825	14.1309
6.53001	14.2291
6.5218	14.4059
6.51361	14.4345
6.50544	14.5282
6.49729	14.8558
6.48915	14.9909
6.48104	14.8927
6.47295	14.8555
6.46488	14.855
6.45683	14.9052
6.4488	14.9466
6.44079	15.0549
6.4328	15.2817
6.42482	15.4824
6.41687	15.7917
6.40894	15.7251
6.40103	15.4485
6.39314	15.4244
6.38526	15.459
6.37741	15.6226
6.36957	15.7516
6.36176	15.714
6.35396	15.8076
6.34618	16.1159
6.33843	16.1611
6.33069	16.0102
6.32297	15.9627
6.31527	15.9876
6.30758	16.0578
6.29992	16.1301
6.29227	16.2164
6.28465	16.3056
6.27704	16.4181
6.26945	16.4671
6.26188	16.5238
6.25432	16.6009
6.24679	16.6792
6.23927	16.7774
6.23177	16.9028
6.22429	16.9004
6.21683	16.9222
6.20938	17.0428
6.20195	17.095
6.19454	17.2096
6.18715	17.5148
6.17978	17.4738
6.17242	17.3998
6.16508	17.5606
6.15776	17.6632
6.15045	17.6812
6.14317	17.7409
6.1359	17.8073
6.12864	17.8683
6.12141	18.1707
6.11419	18.5563
6.10699	18.4606
6.0998	18.3064
6.09263	18.346
6.08549	18.4727
6.07835	18.8438
6.07123	19.105
6.06413	19.0244
6.05705	19.2206
6.04998	19.8207
6.04293	19.5584
6.0359	19.248
6.02888	19.3704
6.02187	19.4981
6.01489	19.6677
6.00792	19.6536
6.00096	19.7501
5.99403	20.0721
5.98711	20.2395
5.9802	20.2162
5.97331	20.3546
5.96644	20.5321
5.95958	20.5244
5.95274	20.6412
5.94591	20.8957
5.9391	21.4093
5.9323	21.411
5.92552	21.1749
5.91876	21.2147
5.91201	21.3615
5.90528	21.5132
5.89856	21.9074
5.89186	21.9869
5.88517	22.2665
5.8785	22.5009
5.87184	22.1806
5.8652	22.2645
5.85857	22.3743
5.85196	22.4443
5.84536	22.4749
5.83878	22.6277
5.83221	22.9314
5.82566	23.2926
5.81912	23.3723
5.81259	23.1563
5.80608	23.0784
5.79959	23.2623
5.79311	23.4329
5.78665	23.5728
5.78019	23.709
5.77376	23.9784
5.76734	24.3947
5.76093	24.2909
5.75453	24.1879
5.74815	24.3896
5.74179	24.3822
5.73543	24.4555
5.7291	24.5336
5.72277	24.6432
5.71646	24.9009
5.71017	25.0889
5.70389	24.9952
5.69762	25.009
5.69136	25.136
5.68513	25.1926
5.6789	25.346
5.67268	25.4323
5.66648	25.437
5.6603	25.595
5.65413	25.6982
5.64797	25.8806
5.64182	26.1266
5.63569	26.0578
5.62957	25.9849
5.62347	26.0526
5.61737	26.2013
5.61129	26.2719
5.60522	26.3191
5.59917	26.4141
5.59313	26.4685
5.5871	26.552
5.58109	26.7768
5.57509	26.8103
5.5691	26.7147
5.56312	26.7624
5.55716	26.9238
5.55121	27.0934
5.54528	27.1234
5.53935	27.1605
5.53344	27.2369
5.52754	27.3553
5.52166	27.4846
5.51578	27.5478
5.50992	27.5809
5.50407	27.6723
5.49823	27.7075
5.49241	27.8014
5.4866	27.9303
5.4808	28.0651
5.47501	28.1217
5.46923	28.2486
5.46347	28.3729
5.45772	28.3286
5.45198	28.3409
5.44625	28.4542
5.44054	28.4908
5.43484	28.5545
5.42914	28.7059
5.42347	28.9396
5.4178	28.9221
5.41214	28.8614
5.4065	28.8864
5.40087	29.0094
5.39525	29.0636
5.38964	29.0632
5.38404	29.121
5.37846	29.1912
5.37288	29.2306
5.36732	29.2837
5.36177	29.4067
5.35623	29.5478
5.35071	29.648
5.34519	29.706
5.33968	29.7317
5.33419	29.735
5.32871	29.7845
5.32324	29.9124
5.31778	29.9819
5.31233	30.1271
5.30689	30.2688
5.30147	30.3291
5.29605	30.3935
5.29065	30.4552
5.28525	30.4863
5.27987	30.58
5.2745	30.6664
5.26914	30.7475
5.26379	30.7695
5.25845	30.783
5.25312	30.9292
5.24781	31.0875
5.2425	31.1542
5.23721	31.2548
5.23192	31.3146
5.22665	31.4256
5.22138	31.5586
5.21613	31.6373
5.21089	31.7251
5.20566	31.8004
5.20044	31.8657
5.19522	31.8681
5.19002	31.8485
5.18483	31.9007
5.17965	31.9964
5.17448	32.0881
5.16933	32.1412
5.16418	32.1621
5.15904	32.1963
5.15391	32.2759
5.14879	32.3876
5.14368	32.3931
5.13859	32.4321
5.1335	32.457
5.12842	32.4786
5.12335	32.5387
5.1183	32.615
5.11325	32.7097
5.10821	32.7542
5.10318	32.8122
5.09817	32.8705
5.09316	32.8831
5.08816	32.907
5.08317	32.973
5.07819	33.0786
5.07322	33.225
5.06826	33.1935
5.06331	33.1287
5.05837	33.1455
5.05344	33.2145
5.04852	33.2625
5.04361	33.3002
5.03871	33.3586
5.03382	33.4271
5.02894	33.5569
5.02406	33.6073
5.0192	33.6528
5.01435	33.622
5.0095	33.5865
5.00467	33.7005
4.99984	33.8353
4.99502	33.8403
4.99021	33.8971
4.98542	33.975
4.98063	34.0302
4.97585	34.0828
4.97108	34.0934
4.96632	34.1551
4.96156	34.1689
4.95682	34.2255
4.95209	34.2982
4.94736	34.3483
4.94264	34.4069
4.93794	34.4581
4.93324	34.5018
4.92855	34.5354
4.92387	34.5692
4.9192	34.6172
4.91453	34.6779
4.90988	34.7257
4.90524	34.7906
4.9006	34.8386
4.89597	34.9084
4.89135	34.9689
4.88674	34.9573
4.88214	34.9606
4.87755	35.0181
4.87296	35.0978
4.86839	35.1626
4.86382	35.239
4.85926	35.2511
4.85471	35.2426
4.85017	35.2749
4.84564	35.273
4.84111	35.294
4.8366	35.3076
4.83209	35.3314
4.82759	35.3522
4.8231	35.4063
4.81862	35.3912
4.81415	35.402
4.80968	35.4556
4.80522	35.4361
4.80077	35.411
4.79633	35.3721
4.7919	35.3259
4.78747	35.3036
4.78306	35.3435
4.77865	35.3042
4.77425	35.198
4.76986	35.1065
4.76547	35.0868
4.7611	35.0181
4.75673	34.8978
4.75237	34.802
4.74802	34.7207
4.74367	34.6441
4.73934	34.5604
4.73501	34.4353
4.73069	34.405
4.72638	34.4219
4.72207	34.4249
4.71777	34.4687
4.71348	34.5584
4.7092	34.7122
4.70493	34.8449
4.70066	34.952
4.69641	35.049
4.69216	35.1629
4.68791	35.3314
4.68368	35.462
4.67945	35.5688
4.67523	35.729
4.67102	35.9037
4.66682	36.0608
4.66262	36.1263
4.65843	36.2138
4.65425	36.3395
4.65007	36.4493
4.64591	36.4843
4.64175	36.5347
4.6376	36.703
4.63345	36.83
4.62932	36.8918
4.62519	36.9017
4.62106	36.9608
4.61695	37.0892
4.61284	37.1401
4.60874	37.1658
4.60465	37.2268
4.60056	37.2544
4.59648	37.3272
4.59241	37.3737
4.58835	37.3992
4.58429	37.4483
4.58024	37.4553
4.5762	37.4961
4.57216	37.5741
4.56814	37.5921
4.56411	37.5899
4.5601	37.6546
4.55609	37.7383
4.55209	37.7527
4.5481	37.7586
4.54411	37.7553
4.54013	37.799
4.53616	37.7518
4.5322	37.7087
4.52824	37.7723
4.52429	37.7858
4.52034	37.8197
4.51641	37.8673
4.51247	37.9379
4.50855	37.9982
4.50463	38.0313
4.50072	38.0182
4.49682	37.9764
4.49292	37.9365
4.48903	37.9395
4.48515	37.9851
4.48127	38.0144
4.4774	38.047
4.47354	38.0804
4.46968	38.1476
4.46584	38.1633
4.46199	38.1429
4.45815	38.1718
4.45432	38.196
4.4505	38.1546
4.44668	38.1975
4.44287	38.2433
4.43907	38.1985
4.43527	38.2141
4.43148	38.2711
4.4277	38.2979
4.42392	38.362
4.42015	38.3522
4.41638	38.2624
4.41262	38.2919
4.40887	38.3833
4.40513	38.3938
4.40139	38.3854
4.39765	38.3953
4.39393	38.4001
4.39021	38.3861
4.38649	38.3783
4.38278	38.375
4.37908	38.3623
4.37539	38.3229
4.3717	38.3142
4.36801	38.3424
4.36434	38.41
4.36067	38.4722
4.357	38.4659
4.35335	38.4075
4.34969	38.4202
4.34605	38.4454
4.34241	38.3413
4.33877	38.3681
4.33514	38.3626
4.33152	38.3866
4.32791	38.4347
4.3243	38.3862
4.32069	38.3264
4.3171	38.3009
4.31351	38.2763
4.30992	38.1865
4.30634	38.139
4.30277	38.2251
4.2992	38.2192
4.29564	38.1303
4.29208	38.1452
4.28853	38.1896
4.28499	38.1911
4.28145	38.1824
4.27792	38.1206
4.27439	38.0653
4.27087	38.0732
4.26735	38.0954
4.26384	38.1133
4.26034	38.0889
4.25684	38.064
4.25335	38.0952
4.24986	38.1653
4.24638	38.1719
4.24291	38.2015
4.23944	38.2277
4.23598	38.2389
4.23252	38.1969
4.22906	38.2273
4.22562	38.232
4.22218	38.1799
4.21874	38.2588
4.21531	38.3977
4.21189	38.4228
4.20847	38.4001
4.20506	38.3942
4.20165	38.4275
4.19825	38.4869
4.19485	38.4471
4.19146	38.3955
4.18807	38.4502
4.18469	38.4621
4.18132	38.4264
4.17795	38.3931
4.17458	38.4487
4.17123	38.496
4.16787	38.4696
4.16453	38.4137
4.16118	38.4038
4.15785	38.4305
4.15451	38.4373
4.15119	38.4197
4.14787	38.3699
4.14455	38.39
4.14124	38.4199
4.13794	38.4267
4.13464	38.4296
4.13134	38.3933
4.12805	38.2626
4.12477	38.2206
4.12149	38.3492
4.11822	38.3786
4.11495	38.346
4.11168	38.3684
4.10843	38.3709
4.10517	38.3126
4.10192	38.2297
4.09868	38.2711
4.09545	38.3632
4.09221	38.3757
4.08899	38.3529
4.08576	38.3114
4.08255	38.242
4.07933	38.2293
4.07613	38.1934
4.07292	38.2254
4.06973	38.2713
4.06654	38.1812
4.06335	38.1003
4.06017	38.127
4.05699	38.1554
4.05382	38.1489
4.05065	38.1171
4.04749	38.1162
4.04433	38.1794
4.04118	38.1239
4.03803	38.0311
4.03489	38.0289
4.03175	38.0058
4.02862	37.9979
4.02549	37.9189
4.02237	37.8867
4.01925	37.8865
4.01614	37.8662
4.01303	37.8754
4.00993	37.87
4.00683	37.8287
4.00373	37.7361
4.00064	37.6689
3.99756	37.7327
3.99448	37.7859
3.9914	37.7822
3.98833	37.739
3.98527	37.6906
3.98221	37.7086
3.97915	37.6402
3.9761	37.5913
3.97305	37.5893
3.97001	37.6194
3.96697	37.601
3.96394	37.5845
3.96091	37.5458
3.95789	37.4602
3.95487	37.4868
3.95186	37.5433
3.94885	37.5379
3.94584	37.5946
3.94284	37.5952
3.93984	37.5263
3.93685	37.4784
3.93386	37.4908
3.93088	37.4761
3.9279	37.4077
3.92493	37.3801
3.92196	37.3437
3.919	37.3703
3.91604	37.4113
3.91308	37.3989
3.91013	37.4383
3.90718	37.5148
3.90424	37.4787
3.9013	37.3988
3.89837	37.3391
3.89544	37.2922
3.89252	37.2842
3.8896	37.2605
3.88668	37.1744
3.88377	37.1372
3.88086	37.1462
3.87796	37.1736
3.87506	37.1792
3.87217	37.2166
3.86928	37.2488
3.86639	37.1355
3.86351	37.0923
3.86064	37.1207
3.85776	37.0738
3.8549	37.0168
3.85203	37.0016
3.84917	37.0388
3.84631	37.0412
3.84346	36.9769
3.84062	36.9598
3.83777	36.8974
3.83494	36.9431
3.8321	36.9861
3.82927	36.9356
3.82644	36.8654
3.82362	36.8967
3.82081	36.9535
3.81799	36.9127
3.81518	36.8161
3.81238	36.799
3.80958	36.8191
3.80678	36.8279
3.80399	36.7385
3.8012	36.6421
3.79841	36.6602
3.79563	36.707
3.79286	36.6631
3.79008	36.677
3.78731	36.6939
3.78455	36.6736
3.78179	36.6826
3.77903	36.5897
3.77628	36.4962
3.77353	36.4941
3.77079	36.5228
3.76805	36.5851
3.76531	36.5798
3.76258	36.4536
3.75985	36.3841
3.75713	36.3609
3.7544	36.3813
3.75169	36.3848
3.74898	36.3501
3.74627	36.3647
3.74356	36.4751
3.74086	36.4147
3.73816	36.275
3.73547	36.2539
3.73278	36.2831
3.7301	36.2791
3.72741	36.2496
3.72474	36.19
3.72206	36.1347
3.71939	36.1197
3.71673	36.1043
3.71406	36.0184
3.71141	35.9744
3.70875	36.0374
3.7061	36.0528
3.70345	35.9999
3.70081	35.9445
3.69817	35.8504
3.69553	35.802
3.6929	35.8373
3.69027	35.8834
3.68765	35.9009
3.68503	35.8374
3.68241	35.7279
3.6798	35.621
3.67719	35.6249
3.67458	35.705
3.67198	35.6534
3.66938	35.5156
3.66678	35.4516
3.66419	35.4322
3.66161	35.4629
3.65902	35.4257
3.65644	35.3823
3.65387	35.3908
3.65129	35.3144
3.64872	35.2564
3.64616	35.2294
3.64359	35.1671
3.64103	35.1705
3.63848	35.2288
3.63593	35.1946
3.63338	35.0969
3.63084	35.0147
3.6283	34.9612
3.62576	35.002
3.62322	35.0139
3.62069	34.9945
3.61817	34.9224
3.61564	34.8443
3.61312	34.818
3.61061	34.7507
3.6081	34.7197
3.60559	34.7637
3.60308	34.7766
3.60058	34.6681
3.59808	34.5366
3.59558	34.4764
3.59309	34.445
3.59061	34.4812
3.58812	34.493
3.58564	34.4087
3.58316	34.389
3.58069	34.3502
3.57822	34.2826
3.57575	34.2222
3.57328	34.1618
3.57082	34.1428
3.56836	34.0995
3.56591	34.0599
3.56346	34.0298
3.56101	34.0069
3.55857	33.9679
3.55613	33.9151
3.55369	33.8312
3.55126	33.7782
3.54883	33.8251
3.5464	33.8554
3.54397	33.7949
3.54155	33.6236
3.53914	33.5464
3.53672	33.5773
3.53431	33.5482
3.5319	33.4864
3.5295	33.4343
3.5271	33.3852
3.5247	33.3732
3.52231	33.3649
3.51991	33.297
3.51753	33.2151
3.51514	33.0741
3.51276	33.0305
3.51038	33.0491
3.50801	32.9184
3.50563	32.7757
3.50327	32.7925
3.5009	32.7432
3.49854	32.7352
3.49618	32.7407
3.49382	32.6991
3.49147	32.7174
3.48912	32.6832
3.48677	32.5994
3.48443	32.5423
3.48209	32.4937
3.47975	32.4162
3.47742	32.3903
3.47509	32.3569
3.47276	32.2498
3.47044	32.1862
3.46812	32.215
3.4658	32.2384
3.46348	32.2162
3.46117	32.2588
3.45886	32.1877
