Name: Pyroxenite
Type: Rock
Class: Igneous
Subclass:  Ultramafic 
Particle Size: Solid surface
Sample No.: Ward43.txt
Owner: JPL
Wavelength range:  IR 
Origin: Ward's Collection of American Rocks.  Sample locality - near Webster, Jackson County, North Carolina.
Collected by:  Ward's Natural Science
Description: A brownish granular rock composed largely of fibrous 
bronzite with good cleavage.   A small amount of granular green diopside
may be seen between the bronzite crystals and small grains of chromite
are also apparent.
Geologic age - Pre-Cambrian.

Measurement: Hemispherical reflectance
First Column: X
Second Column: Y
X Units: Wavelength (micrometers)
Y Units: Reflectance (percent)
First X Value: 15.3871
Last X Value: 1.9998
Number of X Values: 2257
Additional information: None

15.3871   3.14091
15.3416   2.71903
15.2964   2.39076
15.2514   2.62179
15.2066   2.94603
15.1622   2.99996
15.1180   2.78180
15.0740   2.62730
15.0303   2.76518
14.9869   3.05145
14.9437   3.34933
14.9008   3.03343
14.8581   2.81599
14.8156   2.66104
14.7734   3.13012
14.7314   3.82332
14.6897   4.14623
14.6482   4.53959
14.6069   4.96581
14.5659   4.95409
14.5251   5.17988
14.4845   5.02012
14.4442   4.99100
14.4041   5.29485
14.3642   4.97996
14.3245   3.96946
14.2850   3.20325
14.2458   2.67503
14.2068   2.66251
14.1679   2.78582
14.1293   2.61319
14.0909   2.45160
14.0528   2.94625
14.0148   3.51425
13.9770   3.34097
13.9394   2.92685
13.9021   2.81896
13.8649   3.05900
13.8279   3.65001
13.7911   3.86541
13.7546   3.52133
13.7182   3.23437
13.6820   3.01721
13.6460   3.05723
13.6101   3.01682
13.5745   3.10683
13.5391   3.49573
13.5038   3.48629
13.4687   3.15577
13.4339   3.37383
13.3991   3.46930
13.3646   3.18100
13.3302   3.20827
13.2961   3.59423
13.2621   4.09074
13.2282   3.96387
13.1946   3.91127
13.1611   4.23807
13.1278   4.31747
13.0946   4.47134
13.0616   4.38310
13.0288   4.40969
12.9962   4.65351
12.9637   4.68998
12.9313   4.50797
12.8992   4.38945
12.8672   4.39468
12.8353   4.86739
12.8036   5.37540
12.7721   5.59500
12.7407   5.77031
12.7095   5.85383
12.6784   5.70610
12.6475   5.82528
12.6167   6.20111
12.5861   6.44919
12.5556   6.39661
12.5253   6.27117
12.4951   6.51458
12.4651   6.52478
12.4352   6.72788
12.4054   7.02776
12.3758   7.06040
12.3463   7.15287
12.3170   7.33674
12.2878   7.72443
12.2588   8.05686
12.2299   8.22352
12.2011   8.35392
12.1725   8.71489
12.1439   8.74595
12.1156   8.58390
12.0873   9.10047
12.0592   9.57283
12.0312  10.02140
12.0034  10.16380
11.9757  10.01530
11.9481  10.47610
11.9206  11.14820
11.8933  11.53830
11.8661  12.15790
11.8390  12.61520
11.8120  13.26200
11.7852  14.29300
11.7584  15.15620
11.7318  15.58850
11.7053  16.26360
11.6790  16.85730
11.6527  17.05590
11.6266  17.49110
11.6006  17.98210
11.5747  18.39110
11.5489  18.69500
11.5233  18.57250
11.4977  18.73380
11.4723  18.86770
11.4469  18.58610
11.4217  18.11470
11.3966  18.19860
11.3716  18.01870
11.3468  17.04750
11.3220  15.46970
11.2973  14.19900
11.2728  13.13060
11.2483  12.48680
11.2240  12.22740
11.1997  12.05380
11.1756  12.24580
11.1515  12.68730
11.1276  13.17810
11.1038  13.44280
11.0801  13.51420
11.0564  13.29760
11.0329  12.70620
11.0095  12.32180
10.9862  12.18070
10.9629  12.36240
10.9398  13.21380
10.9168  14.45540
10.8938  15.52250
10.8710  16.42590
10.8483  17.47450
10.8256  18.23780
10.8031  18.66780
10.7806  19.03800
10.7582  18.98790
10.7360  18.80150
10.7138  18.30430
10.6917  18.06200
10.6697  17.87120
10.6478  17.72610
10.6260  18.07750
10.6042  18.36540
10.5826  18.68040
10.5610  19.20490
10.5396  19.47820
10.5182  19.98650
10.4969  20.45290
10.4757  20.39730
10.4546  20.52090
10.4335  20.84040
10.4126  20.93740
10.3917  20.66910
10.3709  20.10170
10.3502  19.46890
10.3296  18.83630
10.3091  18.72120
10.2886  19.31680
10.2683  20.65310
10.2480  22.03470
10.2277  22.90420
10.2076  23.67050
10.1876  24.07480
10.1676  23.64860
10.1477  23.04520
10.1279  22.37690
10.1081  21.62450
10.0885  21.00540
10.0689  20.39670
10.0494  19.90800
10.0299  19.33740
10.0106  19.13030
 9.9913  19.09740
 9.9720  19.38800
 9.9529  20.23460
 9.9338  21.35630
 9.9148  22.27620
 9.8959  22.85620
 9.8771  23.03360
 9.8583  22.67190
 9.8396  21.70320
 9.8210  20.77820
 9.8024  20.21310
 9.7839  19.85290
 9.7655  19.23170
 9.7471  18.60050
 9.7288  18.56920
 9.7106  18.78600
 9.6925  19.41160
 9.6744  19.93270
 9.6564  20.73130
 9.6384  22.18260
 9.6205  23.70820
 9.6027  24.72260
 9.5850  25.28180
 9.5673  25.51490
 9.5497  25.82560
 9.5321  26.00200
 9.5146  25.85320
 9.4972  25.29640
 9.4798  25.04520
 9.4625  25.04400
 9.4453  25.09960
 9.4281  24.86220
 9.4110  24.53110
 9.3940  24.44450
 9.3770  24.39270
 9.3600  23.94720
 9.3432  23.61000
 9.3264  23.26230
 9.3096  22.52100
 9.2930  22.24180
 9.2763  21.92910
 9.2598  21.45060
 9.2432  21.03510
 9.2268  20.59880
 9.2104  20.28830
 9.1941  19.88900
 9.1778  19.57380
 9.1616  19.55150
 9.1454  19.32760
 9.1293  19.06410
 9.1133  18.64830
 9.0973  18.31890
 9.0814  18.22400
 9.0655  18.28470
 9.0497  17.97150
 9.0339  17.61680
 9.0182  17.46530
 9.0025  16.91500
 8.9870  16.12000
 8.9714  15.76290
 8.9559  15.42220
 8.9405  14.46970
 8.9251  13.24140
 8.9097  12.47950
 8.8945  11.71530
 8.8792  11.65340
 8.8641  12.03970
 8.8489  12.20170
 8.8338  12.19530
 8.8188  11.73020
 8.8039  10.46050
 8.7889   9.02587
 8.7741   7.91311
 8.7592   6.98267
 8.7445   6.04530
 8.7297   4.95646
 8.7151   4.10907
 8.7005   3.66282
 8.6859   3.11870
 8.6714   2.78627
 8.6569   2.40957
 8.6425   1.92543
 8.6281   1.63692
 8.6137   1.59104
 8.5994   1.50543
 8.5852   1.09758
 8.5710   0.75345
 8.5569   0.75932
 8.5428   0.84145
 8.5287   1.00330
 8.5147   0.72298
 8.5008   0.63531
 8.4869   0.69476
 8.4730   0.53683
 8.4592   0.17080
 8.4454   0.28760
 8.4316   0.49368
 8.4180   0.60305
 8.4043   0.47240
 8.3907   0.49842
 8.3772   0.60909
 8.3637   0.66334
 8.3502   0.60222
 8.3368   0.71558
 8.3234   0.79617
 8.3100   0.87424
 8.2967   0.82963
 8.2835   0.51873
 8.2703   0.43601
 8.2571   0.44086
 8.2440   0.45389
 8.2309   0.31578
 8.2179   0.24773
 8.2049   0.37107
 8.1919   0.65246
 8.1790   1.02787
 8.1661   1.19554
 8.1532   0.91523
 8.1404   0.70917
 8.1277   0.66794
 8.1150   0.64745
 8.1023   0.65757
 8.0897   0.71775
 8.0770   0.70484
 8.0645   0.61728
 8.0520   0.46831
 8.0395   0.56884
 8.0270   0.78037
 8.0146   0.87090
 8.0023   1.15011
 7.9899   1.14382
 7.9776   0.99094
 7.9654   1.13958
 7.9532   1.17439
 7.9410   1.09983
 7.9288   0.99776
 7.9167   0.78243
 7.9047   0.93114
 7.8926   1.21101
 7.8807   1.05267
 7.8687   1.01329
 7.8568   1.33933
 7.8449   1.44044
 7.8330   1.16126
 7.8212   0.93895
 7.8094   1.07356
 7.7977   0.97263
 7.7860   1.01872
 7.7743   1.20701
 7.7627   1.14135
 7.7511   1.10257
 7.7395   1.23230
 7.7280   1.47984
 7.7165   1.42423
 7.7050   1.21206
 7.6936   1.25325
 7.6822   1.39055
 7.6708   1.54581
 7.6595   1.54657
 7.6482   1.52349
 7.6369   1.61052
 7.6257   1.61866
 7.6145   1.67203
 7.6033   1.67551
 7.5922   1.53622
 7.5811   1.57258
 7.5700   1.68124
 7.5590   1.59713
 7.5480   1.52456
 7.5370   1.47548
 7.5261   1.60088
 7.5152   1.63655
 7.5043   1.78926
 7.4935   1.60243
 7.4826   1.58738
 7.4718   1.95163
 7.4611   2.17929
 7.4504   1.99143
 7.4397   1.90611
 7.4290   1.96150
 7.4184   1.94130
 7.4078   1.80400
 7.3972   1.68639
 7.3867   1.76455
 7.3762   1.98505
 7.3657   2.16132
 7.3553   2.19259
 7.3449   2.14862
 7.3345   2.13599
 7.3241   2.23809
 7.3138   2.10381
 7.3035   1.96529
 7.2932   1.96293
 7.2830   1.96144
 7.2727   2.03993
 7.2626   2.16691
 7.2524   2.24392
 7.2423   2.14087
 7.2322   1.97532
 7.2221   2.15030
 7.2120   2.19305
 7.2020   2.08313
 7.1921   2.15003
 7.1821   2.29206
 7.1722   2.36597
 7.1623   2.18743
 7.1524   2.14231
 7.1425   2.34462
 7.1327   2.32095
 7.1229   2.29253
 7.1131   2.43940
 7.1034   2.37494
 7.0937   2.30760
 7.0840   2.42206
 7.0743   2.52354
 7.0647   2.42889
 7.0551   2.26584
 7.0455   2.44213
 7.0359   2.39466
 7.0264   2.25973
 7.0169   2.41215
 7.0074   2.63040
 6.9979   2.65881
 6.9885   2.82904
 6.9791   2.72412
 6.9697   2.47989
 6.9604   2.50409
 6.9510   2.68524
 6.9417   2.58482
 6.9324   2.44462
 6.9232   2.44027
 6.9140   2.49784
 6.9047   2.58834
 6.8956   2.65782
 6.8864   2.50241
 6.8773   2.51535
 6.8682   2.95370
 6.8591   2.88465
 6.8500   2.62746
 6.8410   2.40729
 6.8320   2.68387
 6.8230   2.75946
 6.8140   2.60788
 6.8051   2.61905
 6.7962   2.87924
 6.7873   3.17586
 6.7784   3.15236
 6.7695   3.06488
 6.7607   2.96455
 6.7519   2.87397
 6.7431   2.86281
 6.7344   2.82471
 6.7256   2.90179
 6.7169   3.15017
 6.7082   3.22122
 6.6996   3.21512
 6.6909   3.36847
 6.6823   3.38354
 6.6737   3.14143
 6.6651   3.09840
 6.6566   3.30729
 6.6480   3.35293
 6.6395   3.16459
 6.6310   3.13042
 6.6226   3.13701
 6.6141   3.22283
 6.6057   3.26260
 6.5973   3.28487
 6.5889   3.30337
 6.5805   3.42315
 6.5722   3.27307
 6.5639   3.16999
 6.5556   3.28811
 6.5473   3.37619
 6.5390   3.40080
 6.5308   3.58733
 6.5226   3.43625
 6.5144   3.19388
 6.5062   3.09301
 6.4981   3.11363
 6.4900   3.11147
 6.4818   2.99334
 6.4737   3.08686
 6.4657   3.23111
 6.4576   3.12370
 6.4496   3.12479
 6.4416   3.25216
 6.4336   3.10107
 6.4256   3.05323
 6.4177   3.44219
 6.4097   3.63920
 6.4018   3.41852
 6.3939   3.27863
 6.3860   3.06246
 6.3782   3.06728
 6.3704   2.89737
 6.3625   2.72920
 6.3547   2.91380
 6.3470   3.14247
 6.3392   3.05609
 6.3315   3.12663
 6.3237   3.11775
 6.3160   3.05213
 6.3083   2.93786
 6.3007   2.97952
 6.2930   2.95723
 6.2854   2.94237
 6.2778   3.14021
 6.2702   3.21096
 6.2626   3.06627
 6.2551   2.69035
 6.2476   2.58882
 6.2400   2.69075
 6.2325   2.82189
 6.2251   2.84135
 6.2176   2.77049
 6.2101   2.76066
 6.2027   2.68480
 6.1953   2.60496
 6.1879   2.73611
 6.1805   2.77058
 6.1732   2.74774
 6.1658   2.86777
 6.1585   3.11603
 6.1512   3.07663
 6.1439   2.86381
 6.1367   2.97700
 6.1294   3.12297
 6.1222   2.88527
 6.1149   2.71729
 6.1077   2.84975
 6.1006   3.00120
 6.0934   3.12885
 6.0862   3.11345
 6.0791   3.08154
 6.0720   3.15134
 6.0649   3.23383
 6.0578   3.44121
 6.0507   3.37572
 6.0437   3.16847
 6.0366   3.22479
 6.0296   3.10738
 6.0226   2.87378
 6.0156   2.79366
 6.0087   3.00569
 6.0017   3.22089
 5.9948   3.36320
 5.9878   3.29687
 5.9809   3.25639
 5.9740   3.16306
 5.9672   3.26567
 5.9603   3.57778
 5.9535   3.56597
 5.9466   3.45924
 5.9398   3.38497
 5.9330   3.44069
 5.9262   3.30824
 5.9195   3.29110
 5.9127   3.35775
 5.9060   3.39931
 5.8993   3.49165
 5.8926   3.53243
 5.8859   3.52128
 5.8792   3.46638
 5.8726   3.53190
 5.8659   3.84184
 5.8593   3.78317
 5.8527   3.77283
 5.8461   3.94989
 5.8395   3.82112
 5.8329   3.77699
 5.8264   3.80926
 5.8198   3.79259
 5.8133   4.01931
 5.8068   4.23406
 5.8003   4.35923
 5.7938   4.19879
 5.7874   4.03726
 5.7809   4.19084
 5.7745   4.30018
 5.7680   4.16794
 5.7616   4.18513
 5.7552   4.31262
 5.7489   4.47979
 5.7425   4.63065
 5.7361   4.61215
 5.7298   4.44301
 5.7235   4.32135
 5.7172   4.25492
 5.7109   4.25692
 5.7046   4.27926
 5.6983   4.35955
 5.6921   4.43924
 5.6858   4.44726
 5.6796   4.38798
 5.6734   4.33138
 5.6672   4.31930
 5.6610   4.32789
 5.6548   4.44385
 5.6487   4.46538
 5.6425   4.53007
 5.6364   4.66851
 5.6303   4.80217
 5.6242   4.77459
 5.6181   4.70279
 5.6120   4.72945
 5.6059   4.65677
 5.5999   4.52999
 5.5938   4.54550
 5.5878   4.62116
 5.5818   4.60854
 5.5758   4.73056
 5.5698   4.85444
 5.5638   4.86542
 5.5578   5.00003
 5.5519   5.00787
 5.5460   4.78623
 5.5400   4.75421
 5.5341   4.88857
 5.5282   5.03776
 5.5223   5.13925
 5.5164   5.23272
 5.5106   5.10150
 5.5047   4.97572
 5.4989   5.05958
 5.4931   5.15257
 5.4873   5.17489
 5.4815   4.99202
 5.4757   4.83513
 5.4699   4.94621
 5.4641   5.09899
 5.4584   5.19314
 5.4527   5.19369
 5.4469   5.18424
 5.4412   5.19058
 5.4355   5.09687
 5.4298   5.13448
 5.4241   5.18195
 5.4185   5.24735
 5.4128   5.34540
 5.4072   5.23785
 5.4015   5.18955
 5.3959   5.30625
 5.3903   5.45710
 5.3847   5.55613
 5.3791   5.35754
 5.3735   5.27627
 5.3680   5.38811
 5.3624   5.56905
 5.3569   5.62759
 5.3514   5.72954
 5.3458   5.58737
 5.3403   5.40228
 5.3348   5.35907
 5.3294   5.45648
 5.3239   5.43667
 5.3184   5.48214
 5.3130   5.69372
 5.3075   5.85357
 5.3021   5.82730
 5.2967   5.77909
 5.2913   5.60739
 5.2859   5.38247
 5.2805   5.37898
 5.2751   5.46076
 5.2698   5.47821
 5.2644   5.64784
 5.2591   5.57367
 5.2538   5.40973
 5.2485   5.57392
 5.2431   5.60448
 5.2378   5.52499
 5.2326   5.49416
 5.2273   5.59949
 5.2220   5.65669
 5.2168   5.54350
 5.2115   5.51656
 5.2063   5.45866
 5.2011   5.53007
 5.1959   5.66820
 5.1907   5.64458
 5.1855   5.52015
 5.1803   5.42851
 5.1751   5.48140
 5.1700   5.57189
 5.1648   5.66070
 5.1597   5.56460
 5.1545   5.53922
 5.1494   5.63028
 5.1443   5.31150
 5.1392   5.09686
 5.1341   5.30601
 5.1291   5.46398
 5.1240   5.42424
 5.1189   5.49379
 5.1139   5.66214
 5.1088   5.75544
 5.1038   5.61589
 5.0988   5.52429
 5.0938   5.58790
 5.0888   5.87675
 5.0838   5.97518
 5.0788   5.74879
 5.0738   5.53153
 5.0689   5.58583
 5.0639   5.82123
 5.0590   5.93610
 5.0541   6.01252
 5.0491   5.99072
 5.0442   5.95523
 5.0393   5.99769
 5.0344   6.06620
 5.0296   5.99942
 5.0247   5.93345
 5.0198   5.91432
 5.0150   5.83914
 5.0101   5.95780
 5.0053   6.08558
 5.0004   6.20573
 4.9956   6.17677
 4.9908   6.00283
 4.9860   6.04913
 4.9812   6.11125
 4.9765   6.20210
 4.9717   6.30304
 4.9669   6.27395
 4.9622   6.14112
 4.9574   6.20795
 4.9527   6.18807
 4.9480   6.27888
 4.9432   6.38533
 4.9385   6.37537
 4.9338   6.34038
 4.9291   6.28524
 4.9245   6.32465
 4.9198   6.37696
 4.9151   6.32851
 4.9105   6.26070
 4.9058   6.34126
 4.9012   6.25049
 4.8966   6.16818
 4.8919   6.17611
 4.8873   6.27410
 4.8827   6.17726
 4.8781   6.18290
 4.8736   6.47331
 4.8690   6.42589
 4.8644   6.28171
 4.8599   6.50311
 4.8553   6.34753
 4.8508   6.05791
 4.8462   6.28284
 4.8417   6.48738
 4.8372   6.40388
 4.8327   6.46401
 4.8282   6.42154
 4.8237   6.25946
 4.8192   6.41028
 4.8147   6.52242
 4.8103   6.53792
 4.8058   6.39588
 4.8014   6.33338
 4.7969   6.51661
 4.7925   6.51357
 4.7881   6.57399
 4.7836   6.58053
 4.7792   6.45152
 4.7748   6.48925
 4.7704   6.41523
 4.7660   6.41691
 4.7617   6.66190
 4.7573   6.84310
 4.7530   6.95819
 4.7486   6.94982
 4.7443   6.75200
 4.7399   6.79966
 4.7356   6.89509
 4.7313   6.81877
 4.7270   6.75427
 4.7226   6.81714
 4.7184   6.90136
 4.7141   6.86129
 4.7098   6.68477
 4.7055   6.90211
 4.7012   7.14189
 4.6970   7.07676
 4.6927   6.97811
 4.6885   6.99429
 4.6842   7.07031
 4.6800   6.97119
 4.6758   6.79961
 4.6716   6.99773
 4.6674   7.19731
 4.6632   7.17142
 4.6590   7.10469
 4.6548   7.29535
 4.6506   7.44976
 4.6465   7.33994
 4.6423   7.03203
 4.6382   6.77034
 4.6340   6.98925
 4.6299   7.37464
 4.6258   7.49619
 4.6216   7.23919
 4.6175   7.13819
 4.6134   7.50120
 4.6093   7.68471
 4.6052   7.42904
 4.6011   7.42586
 4.5971   7.57674
 4.5930   7.71247
 4.5889   7.68651
 4.5849   7.68782
 4.5808   7.72936
 4.5768   7.76125
 4.5727   7.98184
 4.5687   8.06484
 4.5647   7.99946
 4.5607   7.96903
 4.5567   8.08974
 4.5526   8.31563
 4.5487   8.31768
 4.5447   8.44759
 4.5407   8.52984
 4.5367   8.21774
 4.5328   8.10720
 4.5288   8.43933
 4.5248   8.68395
 4.5209   8.40155
 4.5170   8.23590
 4.5130   8.35153
 4.5091   8.45326
 4.5052   8.46517
 4.5013   8.43063
 4.4974   8.40750
 4.4935   8.51684
 4.4896   8.89065
 4.4857   8.81443
 4.4818   8.44914
 4.4779   8.28740
 4.4741   8.32378
 4.4702   8.27019
 4.4664   8.55350
 4.4625   8.75300
 4.4587   8.91932
 4.4549   8.89027
 4.4510   8.72272
 4.4472   8.75283
 4.4434   8.78435
 4.4396   8.66827
 4.4358   8.63325
 4.4320   8.64867
 4.4282   8.72434
 4.4245   8.64267
 4.4207   8.56333
 4.4169   8.57381
 4.4132   8.69900
 4.4094   8.77726
 4.4057   9.08264
 4.4019   9.09041
 4.3982   8.80464
 4.3945   8.82846
 4.3907   8.84250
 4.3870   8.86432
 4.3833   8.79271
 4.3796   8.66033
 4.3759   8.59522
 4.3722   8.67147
 4.3685   8.70650
 4.3649   8.86464
 4.3612   9.06333
 4.3575   8.94861
 4.3539   8.87081
 4.3502   8.86483
 4.3466   8.83503
 4.3429   8.93403
 4.3393   8.87320
 4.3357   8.74978
 4.3320   8.80435
 4.3284   9.14532
 4.3248   9.22603
 4.3212   9.04466
 4.3176   8.98822
 4.3140   8.99323
 4.3105   9.17128
 4.3069   9.16217
 4.3033   8.93302
 4.2997   8.89174
 4.2962   8.92611
 4.2926   8.80068
 4.2890   8.75765
 4.2855   8.68171
 4.2820   8.71493
 4.2784   8.86143
 4.2749   8.84771
 4.2714   9.03703
 4.2679   9.13646
 4.2644   9.07152
 4.2609   9.04208
 4.2574   8.95348
 4.2539   9.05505
 4.2504   9.04089
 4.2469   8.97922
 4.2434   9.12169
 4.2400   9.05976
 4.2365   8.77071
 4.2330   8.68732
 4.2296   8.92957
 4.2261   9.32399
 4.2227   9.29386
 4.2193   9.04994
 4.2158   9.03669
 4.2124   9.12728
 4.2090   9.07262
 4.2056   9.06899
 4.2022   9.11808
 4.1988   9.25508
 4.1954   9.39310
 4.1920   9.40529
 4.1886   9.35794
 4.1852   9.46700
 4.1818   9.56196
 4.1785   9.55524
 4.1751   9.53012
 4.1717   9.48153
 4.1684   9.44651
 4.1650   9.31541
 4.1617   9.27252
 4.1584   9.44782
 4.1550   9.67761
 4.1517   9.87242
 4.1484   9.77813
 4.1451   9.53917
 4.1418   9.40482
 4.1384   9.31301
 4.1351   9.44367
 4.1319   9.79628
 4.1286   9.63597
 4.1253   9.48310
 4.1220   9.41262
 4.1187   9.28615
 4.1155   9.57175
 4.1122  10.00530
 4.1089  10.16260
 4.1057   9.87397
 4.1024   9.64609
 4.0992   9.72888
 4.0959   9.85807
 4.0927   9.94080
 4.0895   9.72235
 4.0863   9.48646
 4.0830   9.54830
 4.0798   9.86733
 4.0766   9.69101
 4.0734   9.53112
 4.0702   9.83005
 4.0670   9.86519
 4.0639   9.78973
 4.0607   9.58657
 4.0575   9.52665
 4.0543   9.84275
 4.0511  10.05050
 4.0480   9.89386
 4.0448   9.85195
 4.0417   9.90602
 4.0385  10.07680
 4.0354   9.81628
 4.0323   9.70794
 4.0291   9.82782
 4.0260   9.87140
 4.0229  10.01590
 4.0197  10.10260
 4.0166   9.99512
 4.0135   9.92845
 4.0104  10.07760
 4.0073  10.07260
 4.0042  10.16850
 4.0011  10.11860
 3.9981  10.19970
 3.9950  10.34100
 3.9919  10.29270
 3.9888  10.24920
 3.9857  10.06990
 3.9827   9.91105
 3.9796   9.76539
 3.9766   9.80740
 3.9735  10.06260
 3.9705  10.19720
 3.9675  10.22320
 3.9644  10.32290
 3.9614  10.15530
 3.9584   9.78244
 3.9554   9.64058
 3.9523   9.66771
 3.9493   9.89770
 3.9463   9.95544
 3.9433   9.78185
 3.9403   9.80652
 3.9373   9.89520
 3.9343  10.23990
 3.9314  10.30630
 3.9284  10.26550
 3.9254  10.31460
 3.9224  10.22960
 3.9195  10.18670
 3.9165  10.28770
 3.9136  10.30840
 3.9106  10.18010
 3.9077   9.99993
 3.9047  10.00170
 3.9018  10.07070
 3.8988  10.22370
 3.8959  10.59730
 3.8930  10.56490
 3.8901  10.18560
 3.8872  10.28010
 3.8842  10.59470
 3.8813  10.74040
 3.8784  10.72610
 3.8755  10.35780
 3.8726   9.99940
 3.8697   9.97688
 3.8669   9.94585
 3.8640  10.11170
 3.8611  10.19500
 3.8582   9.96546
 3.8554  10.18910
