Name: Smithsonite PbCO_3
Type: Mineral
Class: Carbonates
Subclass: 
Particle Size: 0-45um
Sample No.: C-11A
Owner: JPL
Wavelength range: IR
Origin: 
Collected by JPL
Description: 





Measurement: Hemispherical reflectance
First Column: X
Second Column: Y
X Units:  Wavelength (micrometers)
Y Units:  Reflectance (percent)
First X Value: 15.3853
Last X Value: 2.00032
Number of X Values: 2256
Additional information: c11aa.txt
 
15.3853	33.3369
15.3397	33.3079
15.2945	33.3783
15.2495	33.5655
15.2048	33.768
15.1603	33.8856
15.1161	33.7845
15.0722	33.7821
15.0285	33.764
14.9851	33.8271
14.9419	33.9599
14.8989	33.8279
14.8563	33.8474
14.8138	34.0952
14.7716	33.9927
14.7296	33.8238
14.6879	33.9592
14.6464	33.8111
14.6052	33.4845
14.5641	33.4045
14.5233	33.1606
14.4828	32.7208
14.4424	32.6037
14.4023	32.5124
14.3624	32.1533
14.3227	31.6212
14.2833	31.2461
14.244	30.7645
14.205	30.0267
14.1662	29.5218
14.1276	28.8903
14.0892	27.9091
14.051	26.9635
14.0131	25.9687
13.9753	24.8647
13.9377	23.9332
13.9004	23.1285
13.8632	22.2681
13.8262	21.0803
13.7895	19.4919
13.7529	17.8209
13.7165	16.3097
13.6803	14.7009
13.6443	12.7534
13.6085	10.868
13.5729	9.15314
13.5374	7.52178
13.5022	6.14836
13.4671	5.06914
13.4322	4.12055
13.3975	2.9372
13.363	2.47187
13.3286	3.45652
13.2944	5.6991
13.2604	8.5332
13.2266	11.5397
13.193	14.3106
13.1595	16.8045
13.1262	18.8853
13.093	20.4756
13.06	21.852
13.0272	23.0544
12.9946	24.1579
12.9621	24.964
12.9298	25.6185
12.8976	26.1563
12.8656	26.5572
12.8337	26.7729
12.8021	26.956
12.7705	27.0761
12.7391	27.1926
12.7079	27.563
12.6769	27.9192
12.6459	28.042
12.6152	28.2133
12.5845	28.3234
12.5541	28.534
12.5238	28.7467
12.4936	28.8203
12.4635	28.6888
12.4337	28.6479
12.4039	28.6328
12.3743	28.4739
12.3448	28.3618
12.3155	28.1716
12.2863	27.9228
12.2573	27.6672
12.2284	27.2215
12.1996	26.8246
12.171	26.5372
12.1425	26.3226
12.1141	26.161
12.0859	25.9795
12.0578	25.6296
12.0298	25.0971
12.0019	24.5575
11.9742	23.9438
11.9466	22.434
11.9192	18.4196
11.8918	13.6257
11.8646	15.0463
11.8375	19.516
11.8106	20.884
11.7837	20.3014
11.757	19.0299
11.7304	17.3765
11.7039	15.5607
11.6776	13.7626
11.6513	12.0972
11.6252	10.6608
11.5992	9.85173
11.5733	9.45155
11.5475	9.31097
11.5219	9.50362
11.4963	10.0638
11.4709	10.9028
11.4455	11.651
11.4203	12.7534
11.3952	14.7102
11.3702	17.6457
11.3454	21.425
11.3206	25.2076
11.2959	27.083
11.2714	26.7783
11.2469	25.9748
11.2226	25.6164
11.1983	25.4803
11.1742	25.512
11.1502	25.5781
11.1263	25.6253
11.1024	25.7351
11.0787	25.9598
11.0551	26.1495
11.0316	26.2374
11.0081	26.4361
10.9848	26.762
10.9616	26.8846
10.9385	26.972
10.9154	27.1268
10.8925	27.3162
10.8697	27.4992
10.8469	27.5865
10.8243	27.6795
10.8017	27.7099
10.7793	27.8287
10.7569	27.8065
10.7346	27.8073
10.7125	27.8789
10.6904	27.8088
10.6684	27.6825
10.6465	27.4502
10.6247	27.2507
10.6029	27.2197
10.5813	27.21
10.5597	27.144
10.5383	27.146
10.5169	27.1402
10.4956	27.0259
10.4744	26.9593
10.4533	26.9733
10.4323	27.1462
10.4113	27.5077
10.3904	27.8104
10.3697	27.941
10.349	28.129
10.3284	28.3054
10.3078	28.342
10.2874	28.4214
10.267	28.6532
10.2467	28.8294
10.2265	28.9433
10.2064	29.1905
10.1863	29.5427
10.1663	29.8693
10.1464	30.1292
10.1266	30.2957
10.1069	30.453
10.0872	30.6562
10.0676	30.7432
10.0481	30.6782
10.0287	30.6057
10.0093	30.5959
9.99005	30.563
9.97084	30.6154
9.95169	30.6194
9.93263	30.5585
9.91364	30.4339
9.89472	30.1615
9.87587	29.9914
9.8571	29.8483
9.83839	29.766
9.81976	29.5729
9.80119	29.2508
9.78271	28.94
9.76428	28.5247
9.74592	28.0129
9.72764	27.4584
9.70943	26.9419
9.69128	26.3314
9.6732	25.6869
9.65518	25.094
9.63724	24.731
9.61935	24.5777
9.60155	24.594
9.5838	24.6693
9.56611	24.6214
9.5485	24.5802
9.53094	24.5851
9.51345	24.4928
9.49604	24.2726
9.47867	24.0149
9.46137	23.7269
9.44414	23.5761
9.42697	23.5971
9.40986	23.6632
9.39281	23.6294
9.37583	23.5011
9.35891	23.2847
9.34204	23.0645
9.32524	22.8321
9.3085	22.5481
9.29182	22.208
9.27519	22.0099
9.25863	21.9668
9.24213	21.7387
9.22568	21.3293
9.2093	20.9251
9.19297	20.6278
9.17669	20.423
9.16048	20.1937
9.14433	20.3045
9.12823	20.725
9.11218	21.238
9.0962	21.594
9.08027	21.7393
9.06439	21.9372
9.04858	22.1403
9.03281	22.3591
9.0171	22.5709
9.00145	22.7632
8.98585	23.0944
8.9703	23.4682
8.9548	23.6396
8.93937	23.7458
8.92398	23.8614
8.90865	24.0344
8.89337	24.3532
8.87814	24.6722
8.86296	24.8316
8.84784	24.886
8.83277	24.6763
8.81774	24.3394
8.80277	23.9804
8.78786	23.7755
8.77298	23.6292
8.75816	23.4352
8.7434	23.2655
8.72868	23.1067
8.714	22.8491
8.69938	22.3899
8.68481	21.9067
8.67029	21.2852
8.65581	20.5127
8.64139	19.8484
8.62701	19.0831
8.61268	18.1726
8.5984	17.3281
8.58416	16.764
8.56997	16.2882
8.55583	15.7687
8.54174	15.4393
8.52769	15.0965
8.51368	14.7718
8.49973	14.6887
8.48582	14.6642
8.47195	14.6162
8.45813	14.64
8.44436	14.6612
8.43062	14.7214
8.41693	14.8067
8.4033	14.9554
8.3897	14.959
8.37614	14.9612
8.36264	15.0979
8.34917	15.1605
8.33574	15.2053
8.32236	15.2585
8.30903	15.2445
8.29573	15.2264
8.28248	15.1687
8.26927	14.9432
8.2561	14.5458
8.24298	14.0133
8.2299	13.3908
8.21685	13.0962
8.20385	13.1207
8.19089	13.1326
8.17797	13.1835
8.16509	13.2718
8.15225	13.42
8.13946	13.6725
8.1267	13.7344
8.11398	13.8298
8.10131	13.9598
8.08867	14.0995
8.07606	14.1811
8.0635	14.3227
8.05099	14.4752
8.0385	14.589
8.02606	14.6717
8.01366	14.7505
8.00129	14.9143
7.98896	15.0031
7.97667	14.9957
7.96442	15.0743
7.9522	15.1863
7.94002	15.2177
7.92788	15.3365
7.91578	15.3708
7.90371	15.3282
7.89168	15.2926
7.87969	15.232
7.86773	15.1286
7.85581	15.0456
7.84392	14.8945
7.83207	14.676
7.82026	14.5654
7.80849	14.48
7.79674	14.3957
7.78503	14.3035
7.77337	14.1485
7.76173	14.07
7.75012	13.8786
7.73856	13.7094
7.72703	13.6198
7.71553	13.4595
7.70406	13.3431
7.69263	13.1704
7.68123	12.9982
7.66987	12.9015
7.65855	12.8228
7.64725	12.7195
7.63598	12.6559
7.62475	12.6022
7.61356	12.5137
7.60239	12.3575
7.59126	12.2109
7.58017	12.0383
7.5691	11.8982
7.55806	11.7402
7.54707	11.579
7.5361	11.405
7.52516	11.3046
7.51425	11.1817
7.50338	11.1003
7.49253	11.0741
7.48172	11.0336
7.47094	10.9967
7.46019	10.8967
7.44947	10.8302
7.43879	10.7551
7.42813	10.7276
7.4175	10.6468
7.4069	10.4931
7.39634	10.3024
7.3858	10.0892
7.37529	9.9232
7.36482	9.80957
7.35437	9.69426
7.34396	9.62617
7.33357	9.56734
7.32321	9.4202
7.31288	9.4064
7.30258	9.49294
7.29231	9.51052
7.28207	9.49889
7.27185	9.4642
7.26167	9.50002
7.25152	9.46585
7.24139	9.46926
7.23129	9.55639
7.22122	9.58925
7.21117	9.73427
7.20116	9.99547
7.19117	10.3587
7.18121	10.8432
7.17128	11.4909
7.16137	12.2182
7.1515	12.8531
7.14164	13.2476
7.13182	13.4274
7.12203	13.5234
7.11225	13.4981
7.10251	13.4903
7.0928	13.4708
7.08311	13.3815
7.07344	13.3663
7.06381	13.3797
7.0542	13.4439
7.04461	13.4721
7.03506	13.3198
7.02552	13.2401
7.01601	13.1391
7.00653	13.0253
6.99708	13.025
6.98765	13.0525
6.97824	13.0135
6.96886	13.0307
6.95951	13.0889
6.95018	12.8958
6.94087	12.7828
6.9316	12.7911
6.92234	12.8407
6.91311	12.9466
6.90391	13.0392
6.89473	13.0241
6.88557	13.1072
6.87644	13.3631
6.86733	13.6473
6.85824	13.6494
6.84918	13.4874
6.84015	13.515
6.83114	13.6981
6.82215	13.78
6.81319	13.7451
6.80424	13.8941
6.79532	14.1821
6.78643	14.2701
6.77756	14.3815
6.76871	14.509
6.75989	14.5915
6.75109	14.7343
6.74231	14.8984
6.73355	15.1604
6.72482	15.4308
6.71611	15.688
6.70742	15.9187
6.69875	16.0921
6.69011	16.4181
6.68149	16.6537
6.67289	16.6941
6.66431	16.7685
6.65576	16.9643
6.64722	17.4414
6.63871	18.0153
6.63022	17.9899
6.62175	17.8644
6.61331	17.9288
6.60488	18.06
6.59648	18.2884
6.5881	18.5133
6.57974	18.8753
6.5714	19.2073
6.56308	19.2926
6.55478	19.5321
6.54651	19.661
6.53825	19.7696
6.53001	19.934
6.5218	20.1569
6.51361	20.2009
6.50544	20.3362
6.49729	20.7372
6.48915	20.871
6.48104	20.637
6.47295	20.298
6.46488	19.8407
6.45683	19.5313
6.4488	19.1825
6.44079	18.7396
6.4328	18.2896
6.42482	17.8248
6.41687	17.395
6.40894	16.4219
6.40103	15.3852
6.39314	14.666
6.38526	13.9515
6.37741	13.3903
6.36957	12.6201
6.36176	11.659
6.35396	10.8119
6.34618	10.0597
6.33843	9.04929
6.33069	7.98275
6.32297	6.97109
6.31527	6.08498
6.30758	5.38986
6.29992	4.91069
6.29227	4.51346
6.28465	4.13268
6.27704	3.72647
6.26945	3.39632
6.26188	3.1144
6.25432	2.87467
6.24679	2.7059
6.23927	2.56611
6.23177	2.38476
6.22429	2.25774
6.21683	2.22969
6.20938	2.22208
6.20195	2.25154
6.19454	2.29597
6.18715	2.27753
6.17978	2.22304
6.17242	2.18408
6.16508	2.21031
6.15776	2.3461
6.15045	2.44828
6.14317	2.42811
6.1359	2.44615
6.12864	2.52536
6.12141	2.60844
6.11419	2.70338
6.10699	2.77786
6.0998	2.84876
6.09263	2.90915
6.08549	3.05246
6.07835	3.2807
6.07123	3.46027
6.06413	3.53334
6.05705	3.67099
6.04998	3.77219
6.04293	3.80947
6.0359	3.89595
6.02888	3.97994
6.02187	4.05722
6.01489	4.12443
6.00792	4.23322
6.00096	4.33501
5.99403	4.49876
5.98711	4.66217
5.9802	4.70221
5.97331	4.8591
5.96644	5.10475
5.95958	5.34989
5.95274	5.59421
5.94591	5.84674
5.9391	6.18999
5.9323	6.56294
5.92552	6.82478
5.91876	7.14013
5.91201	7.44352
5.90528	7.87218
5.89856	8.41465
5.89186	8.7983
5.88517	9.19309
5.8785	9.67361
5.87184	9.9199
5.8652	10.3635
5.85857	10.8164
5.85196	11.1103
5.84536	11.3734
5.83878	11.7288
5.83221	12.117
5.82566	12.5241
5.81912	12.749
5.81259	12.8095
5.80608	12.9823
5.79959	13.1561
5.79311	13.3627
5.78665	13.6256
5.78019	13.7892
5.77376	14.0712
5.76734	14.4701
5.76093	14.5101
5.75453	14.5619
5.74815	14.8694
5.74179	14.9904
5.73543	15.116
5.7291	15.3679
5.72277	15.5336
5.71646	15.5534
5.71017	15.7276
5.70389	15.8553
5.69762	15.9132
5.69136	15.9155
5.68513	15.8589
5.6789	15.8803
5.67268	15.933
5.66648	15.9878
5.6603	16.0594
5.65413	16.1362
5.64797	16.1916
5.64182	16.1823
5.63569	15.9614
5.62957	15.8506
5.62347	15.7367
5.61737	15.5921
5.61129	15.4024
5.60522	15.1641
5.59917	14.8581
5.59313	14.4127
5.5871	13.8841
5.58109	13.1975
5.57509	12.3287
5.5691	11.2879
5.56312	10.1617
5.55716	9.04461
5.55121	7.92769
5.54528	6.85499
5.53935	6.12295
5.53344	5.72028
5.52754	5.49313
5.52166	5.45968
5.51578	5.49645
5.50992	5.48787
5.50407	5.51071
5.49823	5.60017
5.49241	5.74573
5.4866	6.01502
5.4808	6.4689
5.47501	7.1248
5.46923	7.9399
5.46347	8.9742
5.45772	10.2326
5.45198	11.8859
5.44625	13.9047
5.44054	16.152
5.43484	18.6913
5.42914	21.4107
5.42347	24.1085
5.4178	26.4336
5.41214	28.4444
5.4065	30.333
5.40087	32.025
5.39525	33.4914
5.38964	34.9169
5.38404	36.2365
5.37846	37.3022
5.37288	38.2662
5.36732	39.1851
5.36177	40.0606
5.35623	40.8901
5.35071	41.7433
5.34519	42.3557
5.33968	42.884
5.33419	43.4876
5.32871	44.06
5.32324	44.6443
5.31778	45.1379
5.31233	45.6392
5.30689	46.1441
5.30147	46.6269
5.29605	47.0491
5.29065	47.4108
5.28525	47.6837
5.27987	48.0564
5.2745	48.3656
5.26914	48.5707
5.26379	48.8601
5.25845	49.1358
5.25312	49.3746
5.24781	49.5979
5.2425	49.8323
5.23721	50.0541
5.23192	50.2279
5.22665	50.382
5.22138	50.5239
5.21613	50.7656
5.21089	50.949
5.20566	51.0457
5.20044	51.1881
5.19522	51.2496
5.19002	51.2809
5.18483	51.3871
5.17965	51.4438
5.17448	51.5312
5.16933	51.6371
5.16418	51.7012
5.15904	51.714
5.15391	51.7214
5.14879	51.6189
5.14368	51.3163
5.13859	50.7558
5.1335	49.905
5.12842	48.6899
5.12335	47.444
5.1183	46.5139
5.11325	46.3374
5.10821	46.9744
5.10318	48.1135
5.09817	49.3874
5.09316	50.53
5.08816	51.4378
5.08317	52.1212
5.07819	52.6144
5.07322	53.0612
5.06826	53.3785
5.06331	53.5821
5.05837	53.7537
5.05344	53.8334
5.04852	53.94
5.04361	54.0895
5.03871	54.1414
5.03382	54.1854
5.02894	54.2242
5.02406	54.2631
5.0192	54.3167
5.01435	54.4271
5.0095	54.5248
5.00467	54.5731
4.99984	54.565
4.99502	54.5524
4.99021	54.5936
4.98542	54.715
4.98063	54.8371
4.97585	54.9505
4.97108	54.9462
4.96632	54.967
4.96156	55.0736
4.95682	55.1218
4.95209	55.1065
4.94736	55.17
4.94264	55.2685
4.93794	55.3779
4.93324	55.3873
4.92855	55.4081
4.92387	55.5131
4.9192	55.6109
4.91453	55.7031
4.90988	55.6977
4.90524	55.7064
4.9006	55.7878
4.89597	55.8706
4.89135	55.856
4.88674	55.8289
4.88214	55.8841
4.87755	55.9376
4.87296	56.0109
4.86839	56.0106
4.86382	55.9493
4.85926	55.9884
4.85471	56.1201
4.85017	56.1414
4.84564	56.1534
4.84111	56.1919
4.8366	56.1214
4.83209	56.0215
4.82759	56.0471
4.8231	56.108
4.81862	56.1383
4.81415	56.091
4.80968	56.0456
4.80522	55.9251
4.80077	55.9155
4.79633	55.976
4.7919	55.8891
4.78747	55.7881
4.78306	55.6692
4.77865	55.5027
4.77425	55.4022
4.76986	55.2811
4.76547	55.1134
4.7611	54.9534
4.75673	54.7111
4.75237	54.4366
4.74802	54.125
4.74367	53.718
4.73934	53.2161
4.73501	52.6996
4.73069	52.1768
4.72638	51.4457
4.72207	50.4549
4.71777	49.2424
4.71348	47.8728
4.7092	46.1921
4.70493	44.5537
4.70066	43.1905
4.69641	42.1232
4.69216	41.383
4.68791	40.8654
4.68368	40.5022
4.67945	40.2266
4.67523	40.0456
4.67102	40.0211
4.66682	40.0671
4.66262	40.2755
4.65843	40.6282
4.65425	41.0752
4.65007	41.6487
4.64591	42.3149
4.64175	42.8926
4.6376	43.5601
4.63345	44.3476
4.62932	45.1675
4.62519	45.9236
4.62106	46.6092
4.61695	47.1944
4.61284	47.6578
4.60874	48.0371
4.60465	48.3113
4.60056	48.5281
4.59648	48.8159
4.59241	49.118
4.58835	49.3999
4.58429	49.7481
4.58024	50.1128
4.5762	50.3708
4.57216	50.5594
4.56814	50.7156
4.56411	50.9094
4.5601	51.126
4.55609	51.2685
4.55209	51.3106
4.5481	51.4039
4.54411	51.478
4.54013	51.5583
4.53616	51.6117
4.5322	51.641
4.52824	51.6902
4.52429	51.7227
4.52034	51.6721
4.51641	51.6974
4.51247	51.7093
4.50855	51.636
4.50463	51.5629
4.50072	51.5637
4.49682	51.6184
4.49292	51.6468
4.48903	51.676
4.48515	51.7013
4.48127	51.7546
4.4774	51.855
4.47354	51.9004
4.46968	52.0248
4.46584	52.1889
4.46199	52.3746
4.45815	52.5442
4.45432	52.6567
4.4505	52.8075
4.44668	53.0009
4.44287	53.1708
4.43907	53.322
4.43527	53.4809
4.43148	53.7377
4.4277	53.9313
4.42392	54.0154
4.42015	54.0935
4.41638	54.1259
4.41262	53.9518
4.40887	53.7694
4.40513	53.5626
4.40139	53.4518
4.39765	53.5163
4.39393	53.7099
4.39021	53.8691
4.38649	53.9444
4.38278	54.0411
4.37908	54.2549
4.37539	54.4699
4.3717	54.6238
4.36801	54.7283
4.36434	54.7937
4.36067	54.8554
4.357	54.8997
4.35335	54.9534
4.34969	54.956
4.34605	54.9649
4.34241	55.0424
4.33877	55.0764
4.33514	55.1726
4.33152	55.2539
4.32791	55.366
4.3243	55.4353
4.32069	55.4719
4.3171	55.5472
4.31351	55.7031
4.30992	55.8467
4.30634	55.8559
4.30277	55.8815
4.2992	56.0057
4.29564	56.0946
4.29208	56.1546
4.28853	56.2494
4.28499	56.2767
4.28145	56.2044
4.27792	56.2225
4.27439	56.2599
4.27087	56.1834
4.26735	56.0239
4.26384	55.9684
4.26034	55.9098
4.25684	55.8146
4.25335	55.7781
4.24986	55.7674
4.24638	55.7351
4.24291	55.6565
4.23944	55.5503
4.23598	55.4711
4.23252	55.3575
4.22906	55.1907
4.22562	55.0426
4.22218	54.8337
4.21874	54.6641
4.21531	54.4969
4.21189	54.2782
4.20847	54.0985
4.20506	53.939
4.20165	53.8162
4.19825	53.7184
4.19485	53.6263
4.19146	53.5038
4.18807	53.3548
4.18469	53.2098
4.18132	53.0763
4.17795	52.9624
4.17458	52.8629
4.17123	52.66
4.16787	52.3834
4.16453	52.0826
4.16118	51.8559
4.15785	51.5956
4.15451	51.3575
4.15119	51.1067
4.14787	50.7832
4.14455	50.4118
4.14124	50.0596
4.13794	49.6827
4.13464	49.3299
4.13134	49.0022
4.12805	48.7241
4.12477	48.3686
4.12149	47.9377
4.11822	47.5009
4.11495	46.9988
4.11168	46.4957
4.10843	46.011
4.10517	45.4952
4.10192	44.8797
4.09868	44.1625
4.09545	43.3344
4.09221	42.5379
4.08899	41.7329
4.08576	40.8386
4.08255	39.889
4.07933	38.7878
4.07613	37.6197
4.07292	36.4822
4.06973	35.2006
4.06654	33.6947
4.06335	32.1526
4.06017	30.4973
4.05699	28.827
4.05382	27.1326
4.05065	25.6001
4.04749	24.1291
4.04433	22.5064
4.04118	20.8395
4.03803	19.1365
4.03489	17.3789
4.03175	15.6099
4.02862	13.8143
4.02549	12.0623
4.02237	10.6415
4.01925	9.61616
4.01614	8.89855
4.01303	8.52003
4.00993	8.38448
4.00683	8.37856
4.00373	8.57021
4.00064	8.77441
3.99756	9.00166
3.99448	9.17959
3.9914	9.49185
3.98833	9.842
3.98527	10.0928
3.98221	10.3024
3.97915	10.6108
3.9761	10.9626
3.97305	11.4209
3.97001	11.9754
3.96697	12.5576
3.96394	13.1601
3.96091	13.9099
3.95789	14.7726
3.95487	15.5495
3.95186	16.3121
3.94885	16.9966
3.94584	17.6357
3.94284	18.2677
3.93984	18.727
3.93685	19.0801
3.93386	19.3215
3.93088	19.4135
3.9279	19.3976
3.92493	19.3919
3.92196	19.4626
3.919	19.6038
3.91604	19.8689
3.91308	20.0016
3.91013	20.0686
3.90718	20.2098
3.90424	20.3749
3.9013	20.5816
3.89837	20.7956
3.89544	20.9412
3.89252	21.0437
3.8896	21.1613
3.88668	21.3126
3.88377	21.4622
3.88086	21.569
3.87796	21.6452
3.87506	21.6828
3.87217	21.7801
3.86928	21.8822
3.86639	21.8873
3.86351	21.8714
3.86064	21.8708
3.85776	21.9781
3.8549	22.1205
3.85203	22.3536
3.84917	22.6134
3.84631	22.7705
3.84346	23.0021
3.84062	23.4188
3.83777	23.901
3.83494	24.3858
3.8321	24.9818
3.82927	25.6733
3.82644	26.3627
3.82362	26.9373
3.82081	27.6033
3.81799	28.3656
3.81518	29.0978
3.81238	29.7966
3.80958	30.5309
3.80678	31.275
3.80399	32.0635
3.8012	32.916
3.79841	33.6685
3.79563	34.4962
3.79286	35.3853
3.79008	36.3115
3.78731	37.2324
3.78455	38.1049
3.78179	39.0931
3.77903	40.1691
3.77628	41.2389
3.77353	42.2877
3.77079	43.244
3.76805	44.1637
3.76531	45.1718
3.76258	46.082
3.75985	46.7769
3.75713	47.4015
3.7544	47.9118
3.75169	48.2729
3.74898	48.576
3.74627	48.863
3.74356	49.0958
3.74086	49.2771
3.73816	49.3899
3.73547	49.473
3.73278	49.6277
3.7301	49.78
3.72741	49.8752
3.72474	49.9748
3.72206	50.1179
3.71939	50.2384
3.71673	50.3613
3.71406	50.5105
3.71141	50.5661
3.70875	50.7407
3.7061	50.9303
3.70345	51.0655
3.70081	51.203
3.69817	51.412
3.69553	51.5921
3.6929	51.6931
3.69027	51.7399
3.68765	51.7636
3.68503	51.8256
3.68241	51.8823
3.6798	51.9104
3.67719	51.9899
3.67458	51.9655
3.67198	52.026
3.66938	52.1239
3.66678	52.0004
3.66419	51.9264
3.66161	51.9945
3.65902	51.9275
3.65644	51.8242
3.65387	51.8001
3.65129	51.6903
3.64872	51.575
3.64616	51.4365
3.64359	51.2456
3.64103	51.1563
3.63848	51.0848
3.63593	50.9107
3.63338	50.6358
3.63084	50.233
3.6283	49.9175
3.62576	49.6108
3.62322	49.1445
3.62069	48.5339
3.61817	47.7516
3.61564	46.852
3.61312	45.9057
3.61061	45.1324
3.6081	44.9092
3.60559	45.224
3.60308	45.5591
3.60058	45.7339
3.59808	45.5271
3.59558	45.0058
3.59309	44.3736
3.59061	43.6074
3.58812	42.5746
3.58564	41.3639
3.58316	39.9349
3.58069	38.335
3.57822	36.5666
3.57575	34.5606
3.57328	32.5073
3.57082	30.5539
3.56836	28.7891
3.56591	27.2581
3.56346	25.9638
3.56101	24.9555
3.55857	24.1903
3.55613	23.5253
3.55369	22.9697
3.55126	22.6259
3.54883	22.2894
3.5464	21.729
3.54397	21.2364
3.54155	20.7957
3.53914	20.3442
3.53672	19.9251
3.53431	19.4946
3.5319	19.0337
3.5295	18.5609
3.5271	18.1441
3.5247	17.7671
3.52231	17.3835
3.51991	17.0636
3.51753	16.7214
3.51514	16.382
3.51276	16.2359
3.51038	16.1018
3.50801	16.0521
3.50563	16.2357
3.50327	16.6381
3.5009	17.2236
3.49854	17.9003
3.49618	18.6369
3.49382	19.4561
3.49147	20.2386
3.48912	20.8615
3.48677	21.3551
3.48443	21.827
3.48209	22.1278
3.47975	22.4087
3.47742	22.6932
3.47509	22.9546
3.47276	23.2123
3.47044	23.3799
3.46812	23.3877
3.4658	23.4854
3.46348	23.5992
3.46117	23.5801
3.45886	23.5115
3.45656	23.5776
3.45425	23.6427
3.45195	23.715
