Name: Micaceous Sandstone (Brownstone)
Type: Rock
Class: Sedimentary
Subclass:  Sandstone 
Particle Size: Solid surface
Sample No.: Ward60.txt
Owner: JPL
Wavelength range:  IR 
Origin: Ward's Collection of American Rocks.  Sample locality - Portland, Middlesex County, Connecticut.
Collected by:  Ward's Natural Science
Description: A dark reddish-brown sandstone composed of grains of quartz
feldspar and muscovite with a ferruginous cement.
Geologic age - Upper Triassic.



Measurement: Hemispherical reflectance
First Column: X
Second Column: Y
X Units: Wavelength (micrometers)
Y Units: Reflectance (percent)
First X Value: 15.3871
Last X Value: 1.9998
Number of X Values: 2257
Additional information: None

15.3871   3.88600
15.3416   4.02651
15.2964   4.14347
15.2514   4.29386
15.2066   4.16621
15.1622   3.99103
15.1180   3.87209
15.0740   3.89246
15.0303   3.65805
14.9869   3.30563
14.9437   3.37918
14.9008   3.52907
14.8581   3.29825
14.8156   3.36547
14.7734   3.58031
14.7314   3.47252
14.6897   3.39014
14.6482   3.51560
14.6069   3.73526
14.5659   3.86453
14.5251   3.77455
14.4845   3.62014
14.4442   3.64155
14.4041   3.81372
14.3642   3.70156
14.3245   3.27522
14.2850   3.03675
14.2458   2.98968
14.2068   3.24035
14.1679   3.61247
14.1293   3.61843
14.0909   3.55824
14.0528   3.46336
14.0148   3.53099
13.9770   3.63566
13.9394   3.79751
13.9021   3.77346
13.8649   3.70745
13.8279   3.90053
13.7911   4.04788
13.7546   3.99455
13.7182   3.80276
13.6820   3.73483
13.6460   3.65414
13.6101   3.68801
13.5745   4.07523
13.5391   4.32889
13.5038   4.18063
13.4687   4.20711
13.4339   4.40962
13.3991   4.29071
13.3646   4.19721
13.3302   4.42502
13.2961   4.54042
13.2621   4.28505
13.2282   4.39966
13.1946   4.53861
13.1611   4.49325
13.1278   4.65469
13.0946   4.79449
13.0616   4.69097
13.0288   4.71137
12.9962   4.88318
12.9637   5.07621
12.9313   5.23775
12.8992   5.58173
12.8672   5.88201
12.8353   5.90759
12.8036   5.99805
12.7721   5.99586
12.7407   5.63761
12.7095   5.05002
12.6784   4.59839
12.6475   4.30244
12.6167   4.27144
12.5861   4.52521
12.5556   4.75550
12.5253   4.76176
12.4951   4.72354
12.4651   4.56692
12.4352   4.18412
12.4054   3.71140
12.3758   3.12306
12.3463   2.76665
12.3170   2.65938
12.2878   2.40069
12.2588   2.44215
12.2299   2.60556
12.2011   2.55382
12.1725   2.60973
12.1439   2.94151
12.1156   3.06510
12.0873   2.95960
12.0592   3.09368
12.0312   3.31894
12.0034   3.35173
11.9757   3.40734
11.9481   3.47530
11.9206   3.52571
11.8933   3.42585
11.8661   3.36803
11.8390   3.55326
11.8120   3.83338
11.7852   4.00425
11.7584   3.87372
11.7318   3.80037
11.7053   3.94804
11.6790   4.01575
11.6527   4.07575
11.6266   4.06873
11.6006   4.03922
11.5747   4.05598
11.5489   4.18929
11.5233   4.33714
11.4977   4.40022
11.4723   4.34182
11.4469   4.45947
11.4217   4.53130
11.3966   4.49298
11.3716   4.48560
11.3468   4.53133
11.3220   4.70956
11.2973   4.73999
11.2728   4.71041
11.2483   4.75053
11.2240   4.77599
11.1997   4.88980
11.1756   5.04363
11.1515   5.16135
11.1276   5.19103
11.1038   5.19910
11.0801   5.19931
11.0564   5.17634
11.0329   5.32239
11.0095   5.30880
10.9862   5.27909
10.9629   5.42517
10.9398   5.59188
10.9168   5.72869
10.8938   5.66028
10.8710   5.57443
10.8483   5.68884
10.8256   5.85338
10.8031   6.05199
10.7806   6.31010
10.7582   6.25457
10.7360   6.30616
10.7138   6.52763
10.6917   6.68973
10.6697   6.91441
10.6478   7.16612
10.6260   7.27512
10.6042   7.33549
10.5826   7.49267
10.5610   7.83017
10.5396   7.95899
10.5182   8.12013
10.4969   8.45449
10.4757   8.70307
10.4546   8.76604
10.4335   8.85917
10.4126   8.99943
10.3917   9.20098
10.3709   9.43604
10.3502   9.69449
10.3296   9.84812
10.3091  10.02700
10.2886  10.27360
10.2683  10.65400
10.2480  11.03830
10.2277  11.22390
10.2076  11.24700
10.1876  11.47600
10.1676  11.87350
10.1477  12.27790
10.1279  12.54230
10.1081  12.78220
10.0885  13.17910
10.0689  13.44570
10.0494  13.67390
10.0299  13.89300
10.0106  14.19950
 9.9913  14.51320
 9.9720  14.74790
 9.9529  14.92530
 9.9338  15.09670
 9.9148  15.23030
 9.8959  15.41380
 9.8771  15.61220
 9.8583  15.71090
 9.8396  15.75580
 9.8210  15.61380
 9.8024  15.62280
 9.7839  15.75870
 9.7655  15.90760
 9.7471  16.21500
 9.7288  16.63230
 9.7106  16.92460
 9.6925  17.30760
 9.6744  17.82120
 9.6564  18.15890
 9.6384  18.34130
 9.6205  18.41900
 9.6027  18.40770
 9.5850  18.35390
 9.5673  18.19320
 9.5497  18.01570
 9.5321  17.89080
 9.5146  17.67790
 9.4972  17.53270
 9.4798  17.52660
 9.4625  17.50660
 9.4453  17.53190
 9.4281  17.81830
 9.4110  18.37590
 9.3940  18.99180
 9.3770  19.42940
 9.3600  19.79910
 9.3432  20.21700
 9.3264  20.58520
 9.3096  20.76240
 9.2930  20.83470
 9.2763  20.91760
 9.2598  21.00360
 9.2432  21.15430
 9.2268  21.16230
 9.2104  21.18590
 9.1941  21.09860
 9.1778  20.99480
 9.1616  20.90260
 9.1454  20.88220
 9.1293  20.67820
 9.1133  20.55070
 9.0973  20.43950
 9.0814  20.22670
 9.0655  20.12210
 9.0497  20.13030
 9.0339  20.10000
 9.0182  20.03800
 9.0025  19.94150
 8.9870  19.98000
 8.9714  20.01780
 8.9559  20.05170
 8.9405  19.99040
 8.9251  20.06770
 8.9097  20.21520
 8.8945  20.25690
 8.8792  20.18470
 8.8641  20.18410
 8.8489  20.38970
 8.8338  20.49970
 8.8188  20.38510
 8.8039  20.23810
 8.7889  20.19550
 8.7741  20.28150
 8.7592  20.27130
 8.7445  20.13170
 8.7297  20.12820
 8.7151  19.88560
 8.7005  19.44490
 8.6859  19.04180
 8.6714  18.57760
 8.6569  17.97910
 8.6425  17.08100
 8.6281  16.64820
 8.6137  17.34290
 8.5994  18.58380
 8.5852  19.76310
 8.5710  20.46430
 8.5569  20.90120
 8.5428  21.26870
 8.5287  21.51480
 8.5147  21.73570
 8.5008  21.99590
 8.4869  22.15670
 8.4730  22.32960
 8.4592  22.60920
 8.4454  22.86800
 8.4316  23.05280
 8.4180  23.13750
 8.4043  23.22130
 8.3907  23.32380
 8.3772  23.35530
 8.3637  23.32440
 8.3502  23.35270
 8.3368  23.27950
 8.3234  23.22250
 8.3100  23.24560
 8.2967  23.04840
 8.2835  22.84870
 8.2703  22.71300
 8.2571  22.52250
 8.2440  22.24090
 8.2309  21.93910
 8.2179  21.66220
 8.2049  21.26030
 8.1919  20.79190
 8.1790  20.10250
 8.1661  19.36090
 8.1532  18.61510
 8.1404  17.66240
 8.1277  16.55640
 8.1150  15.35990
 8.1023  14.32400
 8.0897  13.49410
 8.0770  12.75230
 8.0645  12.00790
 8.0520  11.21040
 8.0395  10.38670
 8.0270   9.67970
 8.0146   9.08715
 8.0023   8.53748
 7.9899   8.06294
 7.9776   7.51976
 7.9654   7.03534
 7.9532   6.65646
 7.9410   6.20822
 7.9288   5.67963
 7.9167   5.37632
 7.9047   5.12264
 7.8926   4.87708
 7.8807   4.58158
 7.8687   4.32246
 7.8568   4.11408
 7.8449   3.90306
 7.8330   3.70537
 7.8212   3.63135
 7.8094   3.52960
 7.7977   3.29409
 7.7860   3.12730
 7.7743   3.18896
 7.7627   3.12537
 7.7511   3.01813
 7.7395   2.96415
 7.7280   2.93747
 7.7165   2.89092
 7.7050   2.75283
 7.6936   2.65202
 7.6822   2.53093
 7.6708   2.47313
 7.6595   2.50614
 7.6482   2.43201
 7.6369   2.30592
 7.6257   2.19955
 7.6145   2.02278
 7.6033   1.83475
 7.5922   1.80288
 7.5811   1.83496
 7.5700   1.80597
 7.5590   1.73359
 7.5480   1.85679
 7.5370   1.95846
 7.5261   1.91656
 7.5152   1.78721
 7.5043   1.78306
 7.4935   1.92901
 7.4826   1.96925
 7.4718   1.98520
 7.4611   1.97062
 7.4504   1.92752
 7.4397   1.90231
 7.4290   1.85011
 7.4184   1.85019
 7.4078   1.86777
 7.3972   1.81788
 7.3867   1.79566
 7.3762   1.85835
 7.3657   1.92504
 7.3553   1.94821
 7.3449   1.91102
 7.3345   1.80380
 7.3241   1.77290
 7.3138   1.79367
 7.3035   1.81552
 7.2932   1.88836
 7.2830   1.95146
 7.2727   1.88525
 7.2626   1.83271
 7.2524   1.83010
 7.2423   1.89840
 7.2322   1.97379
 7.2221   1.96301
 7.2120   1.96623
 7.2020   1.94300
 7.1921   1.89884
 7.1821   1.91280
 7.1722   1.87588
 7.1623   1.84606
 7.1524   1.96686
 7.1425   1.97965
 7.1327   1.98521
 7.1229   1.97092
 7.1131   1.90463
 7.1034   1.93952
 7.0937   2.02112
 7.0840   2.03612
 7.0743   2.01301
 7.0647   2.02632
 7.0551   2.11853
 7.0455   2.09121
 7.0359   1.97989
 7.0264   1.95816
 7.0169   1.98240
 7.0074   1.99774
 6.9979   2.06399
 6.9885   2.11388
 6.9791   2.14065
 6.9697   2.12979
 6.9604   2.09181
 6.9510   2.06172
 6.9417   2.03327
 6.9324   2.03443
 6.9232   2.06346
 6.9140   2.13311
 6.9047   2.16362
 6.8956   2.07464
 6.8864   2.01175
 6.8773   2.09778
 6.8682   2.20040
 6.8591   2.16795
 6.8500   2.11634
 6.8410   2.17099
 6.8320   2.16736
 6.8230   2.12054
 6.8140   2.15582
 6.8051   2.08711
 6.7962   2.04539
 6.7873   2.18236
 6.7784   2.16537
 6.7695   2.09265
 6.7607   2.10476
 6.7519   2.14700
 6.7431   2.26947
 6.7344   2.36583
 6.7256   2.36611
 6.7169   2.39652
 6.7082   2.45500
 6.6996   2.37332
 6.6909   2.28481
 6.6823   2.30511
 6.6737   2.30701
 6.6651   2.31072
 6.6566   2.33555
 6.6480   2.36191
 6.6395   2.45185
 6.6310   2.42185
 6.6226   2.36160
 6.6141   2.38656
 6.6057   2.41187
 6.5973   2.47460
 6.5889   2.57123
 6.5805   2.66036
 6.5722   2.60762
 6.5639   2.46953
 6.5556   2.36988
 6.5473   2.44300
 6.5390   2.56748
 6.5308   2.61667
 6.5226   2.68375
 6.5144   2.69621
 6.5062   2.62409
 6.4981   2.57130
 6.4900   2.57727
 6.4818   2.64424
 6.4737   2.62533
 6.4657   2.50902
 6.4576   2.50824
 6.4496   2.62903
 6.4416   2.69041
 6.4336   2.65532
 6.4256   2.54924
 6.4177   2.43352
 6.4097   2.46870
 6.4018   2.45318
 6.3939   2.44113
 6.3860   2.51945
 6.3782   2.54910
 6.3704   2.41280
 6.3625   2.32923
 6.3547   2.31503
 6.3470   2.38026
 6.3392   2.39271
 6.3315   2.45042
 6.3237   2.37844
 6.3160   2.33958
 6.3083   2.35740
 6.3007   2.40120
 6.2930   2.43731
 6.2854   2.44769
 6.2778   2.42309
 6.2702   2.37519
 6.2626   2.33594
 6.2551   2.30706
 6.2476   2.28892
 6.2400   2.30173
 6.2325   2.29519
 6.2251   2.29726
 6.2176   2.29902
 6.2101   2.31612
 6.2027   2.21684
 6.1953   2.25380
 6.1879   2.28548
 6.1805   2.24312
 6.1732   2.30285
 6.1658   2.24007
 6.1585   2.16926
 6.1512   2.11588
 6.1439   2.14024
 6.1367   2.34874
 6.1294   2.37918
 6.1222   2.24544
 6.1149   2.24211
 6.1077   2.27012
 6.1006   2.26630
 6.0934   2.26630
 6.0862   2.22794
 6.0791   2.22596
 6.0720   2.26310
 6.0649   2.29258
 6.0578   2.31853
 6.0507   2.34290
 6.0437   2.34531
 6.0366   2.33216
 6.0296   2.34281
 6.0226   2.29096
 6.0156   2.26326
 6.0087   2.24381
 6.0017   2.28576
 5.9948   2.30642
 5.9878   2.29569
 5.9809   2.28467
 5.9740   2.35490
 5.9672   2.45244
 5.9603   2.35987
 5.9535   2.35189
 5.9466   2.37902
 5.9398   2.23895
 5.9330   2.19489
 5.9262   2.24555
 5.9195   2.38782
 5.9127   2.46464
 5.9060   2.37466
 5.8993   2.34285
 5.8926   2.35258
 5.8859   2.38345
 5.8792   2.37032
 5.8726   2.29481
 5.8659   2.33818
 5.8593   2.47618
 5.8527   2.46825
 5.8461   2.35173
 5.8395   2.45951
 5.8329   2.53879
 5.8264   2.55672
 5.8198   2.56736
 5.8133   2.50225
 5.8068   2.49446
 5.8003   2.63488
 5.7938   2.61341
 5.7874   2.55755
 5.7809   2.57579
 5.7745   2.65821
 5.7680   2.71311
 5.7616   2.70298
 5.7552   2.68502
 5.7489   2.68093
 5.7425   2.64913
 5.7361   2.59749
 5.7298   2.67161
 5.7235   2.73816
 5.7172   2.76535
 5.7109   2.84150
 5.7046   2.85156
 5.6983   2.82666
 5.6921   2.73786
 5.6858   2.70108
 5.6796   2.79545
 5.6734   2.87557
 5.6672   2.89101
 5.6610   2.90487
 5.6548   2.82818
 5.6487   2.70629
 5.6425   2.71341
 5.6364   2.80488
 5.6303   2.82682
 5.6242   2.78907
 5.6181   2.80120
 5.6120   2.90573
 5.6059   2.83135
 5.5999   2.70100
 5.5938   2.76531
 5.5878   2.79713
 5.5818   2.84279
 5.5758   2.85615
 5.5698   2.77132
 5.5638   2.68517
 5.5578   2.74004
 5.5519   2.90759
 5.5460   2.91487
 5.5400   2.76601
 5.5341   2.73868
 5.5282   2.89343
 5.5223   2.97588
 5.5164   2.95247
 5.5106   2.93151
 5.5047   2.99291
 5.4989   2.98429
 5.4931   3.00614
 5.4873   3.05971
 5.4815   3.10596
 5.4757   3.10873
 5.4699   3.10262
 5.4641   3.09789
 5.4584   3.11063
 5.4527   3.22694
 5.4469   3.22999
 5.4412   3.09465
 5.4355   3.03698
 5.4298   3.12816
 5.4241   3.21039
 5.4185   3.18792
 5.4128   3.15127
 5.4072   3.18297
 5.4015   3.18708
 5.3959   3.12790
 5.3903   3.14215
 5.3847   3.18037
 5.3791   3.17976
 5.3735   3.24135
 5.3680   3.24508
 5.3624   3.21263
 5.3569   3.19763
 5.3514   3.20149
 5.3458   3.26736
 5.3403   3.31777
 5.3348   3.29759
 5.3294   3.23896
 5.3239   3.20569
 5.3184   3.22451
 5.3130   3.30132
 5.3075   3.34051
 5.3021   3.33975
 5.2967   3.37666
 5.2913   3.36349
 5.2859   3.36357
 5.2805   3.35748
 5.2751   3.37003
 5.2698   3.36742
 5.2644   3.45597
 5.2591   3.50309
 5.2538   3.46156
 5.2485   3.47867
 5.2431   3.51471
 5.2378   3.50708
 5.2326   3.51189
 5.2273   3.66346
 5.2220   3.69502
 5.2168   3.62737
 5.2115   3.62956
 5.2063   3.64189
 5.2011   3.65396
 5.1959   3.66490
 5.1907   3.68596
 5.1855   3.71383
 5.1803   3.70798
 5.1751   3.76423
 5.1700   3.82364
 5.1648   3.84933
 5.1597   3.78207
 5.1545   3.74431
 5.1494   3.85118
 5.1443   3.88489
 5.1392   3.85248
 5.1341   3.90023
 5.1291   3.94780
 5.1240   3.92674
 5.1189   3.93381
 5.1139   3.91658
 5.1088   3.96697
 5.1038   4.01305
 5.0988   3.99625
 5.0938   3.99256
 5.0888   3.94055
 5.0838   3.93233
 5.0788   3.92503
 5.0738   3.92149
 5.0689   4.02881
 5.0639   4.03258
 5.0590   4.01402
 5.0541   4.08972
 5.0491   4.18149
 5.0442   4.14205
 5.0393   4.09995
 5.0344   4.06501
 5.0296   4.07273
 5.0247   4.02196
 5.0198   3.99645
 5.0150   4.06659
 5.0101   4.07909
 5.0053   4.14317
 5.0004   4.23806
 4.9956   4.26042
 4.9908   4.21985
 4.9860   4.22085
 4.9812   4.25633
 4.9765   4.29849
 4.9717   4.31966
 4.9669   4.26207
 4.9622   4.23222
 4.9574   4.28155
 4.9527   4.36301
 4.9480   4.42321
 4.9432   4.48939
 4.9385   4.52995
 4.9338   4.56963
 4.9291   4.59160
 4.9245   4.64726
 4.9198   4.64323
 4.9151   4.62057
 4.9105   4.61251
 4.9058   4.62507
 4.9012   4.69128
 4.8966   4.73613
 4.8919   4.86726
 4.8873   5.08510
 4.8827   5.07324
 4.8781   5.07599
 4.8736   5.30579
 4.8690   5.42090
 4.8644   5.46816
 4.8599   5.46002
 4.8553   5.51226
 4.8508   5.70483
 4.8462   5.80460
 4.8417   5.82765
 4.8372   5.86696
 4.8327   6.00577
 4.8282   6.09839
 4.8237   6.09460
 4.8192   6.09185
 4.8147   6.15461
 4.8103   6.23153
 4.8058   6.28233
 4.8014   6.39520
 4.7969   6.44318
 4.7925   6.37668
 4.7881   6.40728
 4.7836   6.48150
 4.7792   6.46481
 4.7748   6.55205
 4.7704   6.61948
 4.7660   6.60242
 4.7617   6.68452
 4.7573   6.81181
 4.7530   6.79074
 4.7486   6.87355
 4.7443   6.84494
 4.7399   6.86494
 4.7356   7.02267
 4.7313   7.11026
 4.7270   7.12986
 4.7226   7.11548
 4.7184   7.02032
 4.7141   7.01799
 4.7098   7.12688
 4.7055   7.12797
 4.7012   6.97893
 4.6970   6.87425
 4.6927   6.85738
 4.6885   6.81331
 4.6842   6.69274
 4.6800   6.75116
 4.6758   6.87040
 4.6716   7.04914
 4.6674   7.11845
 4.6632   7.17826
 4.6590   7.30406
 4.6548   7.47800
 4.6506   7.59595
 4.6465   7.69754
 4.6423   7.81507
 4.6382   7.83198
 4.6340   8.00717
 4.6299   8.21952
 4.6258   8.26645
 4.6216   8.34944
 4.6175   8.46287
 4.6134   8.55216
 4.6093   8.64078
 4.6052   8.73879
 4.6011   8.85144
 4.5971   8.90571
 4.5930   8.94662
 4.5889   9.04771
 4.5849   9.14104
 4.5808   9.20261
 4.5768   9.17706
 4.5727   9.22466
 4.5687   9.28202
 4.5647   9.29694
 4.5607   9.29302
 4.5567   9.24094
 4.5526   9.23780
 4.5487   9.19402
 4.5447   9.12054
 4.5407   9.04472
 4.5367   8.96019
 4.5328   8.95970
 4.5288   8.91785
 4.5248   8.75992
 4.5209   8.64637
 4.5170   8.51772
 4.5130   8.45619
 4.5091   8.50109
 4.5052   8.47357
 4.5013   8.31195
 4.4974   8.21338
 4.4935   8.16799
 4.4896   8.23111
 4.4857   8.25226
 4.4818   8.19952
 4.4779   8.17648
 4.4741   8.20705
 4.4702   8.16141
 4.4664   8.07643
 4.4625   8.15876
 4.4587   8.33422
 4.4549   8.45690
 4.4510   8.56959
 4.4472   8.73887
 4.4434   8.90214
 4.4396   8.92085
 4.4358   8.89977
 4.4320   8.91872
 4.4282   8.96341
 4.4245   9.12125
 4.4207   9.20116
 4.4169   9.26893
 4.4132   9.32678
 4.4094   9.45387
 4.4057   9.64318
 4.4019   9.71691
 4.3982   9.81509
 4.3945  10.00020
 4.3907  10.09160
 4.3870  10.14800
 4.3833  10.21580
 4.3796  10.38160
 4.3759  10.56090
 4.3722  10.71240
 4.3685  10.81100
 4.3649  10.98910
 4.3612  11.12110
 4.3575  11.32110
 4.3539  11.54470
 4.3502  11.63380
 4.3466  11.64880
 4.3429  11.72680
 4.3393  11.80010
 4.3357  11.94950
 4.3320  12.12950
 4.3284  12.15850
 4.3248  12.06570
 4.3212  12.00770
 4.3176  12.13220
 4.3140  12.19010
 4.3105  12.12220
 4.3069  12.19130
 4.3033  12.29780
 4.2997  12.27520
 4.2962  12.24010
 4.2926  12.28450
 4.2890  12.36170
 4.2855  12.39670
 4.2820  12.46050
 4.2784  12.48470
 4.2749  12.45700
 4.2714  12.62040
 4.2679  12.79620
 4.2644  12.87130
 4.2609  12.99710
 4.2574  13.09860
 4.2539  13.05910
 4.2504  13.17360
 4.2469  13.18730
 4.2434  13.12770
 4.2400  13.11020
 4.2365  13.04600
 4.2330  13.03990
 4.2296  13.15640
 4.2261  13.24850
 4.2227  13.24100
 4.2193  13.28310
 4.2158  13.33770
 4.2124  13.44350
 4.2090  13.51280
 4.2056  13.55710
 4.2022  13.62370
 4.1988  13.56130
 4.1954  13.40870
 4.1920  13.47720
 4.1886  13.65760
 4.1852  13.81490
 4.1818  13.90270
 4.1785  13.85900
 4.1751  13.88890
 4.1717  14.00250
 4.1684  14.01480
 4.1650  14.09130
 4.1617  14.20040
 4.1584  14.14810
 4.1550  14.16390
 4.1517  14.27960
 4.1484  14.19930
 4.1451  14.27410
 4.1418  14.40480
 4.1384  14.47010
 4.1351  14.51900
 4.1319  14.47380
 4.1286  14.58940
 4.1253  14.69310
 4.1220  14.66850
 4.1187  14.64980
 4.1155  14.65400
 4.1122  14.67260
 4.1089  14.80980
 4.1057  14.92580
 4.1024  15.02270
 4.0992  15.06540
 4.0959  15.08090
 4.0927  15.11710
 4.0895  15.14750
 4.0863  15.19610
 4.0830  15.26240
 4.0798  15.30760
 4.0766  15.31360
 4.0734  15.33710
 4.0702  15.30320
 4.0670  15.39950
 4.0639  15.47150
 4.0607  15.44920
 4.0575  15.47290
 4.0543  15.42740
 4.0511  15.46310
 4.0480  15.49550
 4.0448  15.48160
 4.0417  15.45620
 4.0385  15.45820
 4.0354  15.40610
 4.0323  15.37620
 4.0291  15.32980
 4.0260  15.15800
 4.0229  15.14490
 4.0197  15.14800
 4.0166  15.10650
 4.0135  15.20800
 4.0104  15.37420
 4.0073  15.36530
 4.0042  15.29780
 4.0011  15.23220
 3.9981  15.32220
 3.9950  15.36510
 3.9919  15.26650
 3.9888  15.23020
 3.9857  15.40330
 3.9827  15.51090
 3.9796  15.41150
 3.9766  15.43010
 3.9735  15.46900
 3.9705  15.37310
 3.9675  15.32870
 3.9644  15.51050
 3.9614  15.66950
 3.9584  15.79570
 3.9554  15.89770
 3.9523  15.97320
 3.9493  15.87270
 3.9463  15.86010
 3.9433  15.88550
 3.9403  15.98180
 3.9373  16.05800
 3.9343  16.01090
 3.9314  16.04860
 3.9284  16.11080
 3.9254  16.11340
 3.9224  16.11190
 3.9195  16.16010
 3.9165  16.31690
 3.9136  16.35910
 3.9106  16.15710
 3.9077  16.05060
 3.9047  16.12110
 3.9018  16.05920
 3.8988  16.00380
 3.8959  16.00350
 3.8930  16.01080
 3.8901  16.05130
 3.8872  16.16240
 3.8842  16.15900
 3.8813  16.02000
 3.8784  16.05000
 3.8755  16.08640
 3.8726  15.94000
 3.8697  15.87120
 3.8669  15.89800
 3.8640  15.92570
 3.8611  15.88450
 3.8582  15.94530
 3.8554  16.04780
 3.8525  16.02550
 3.8496  15.99830
 3.8468  16.19070
 3.8439  16.18100
