Name: Lepidolite K(Li,Al)3(Si,Al)_4O_10(F,OH)_2
Type: Mineral
Class: Silicates
Subclass: Phyllosilicates
Particle Size: 0-45um
Sample No.: PS-13A
Owner: JPL
Wavelength range: IR
Origin: USA, South Dakota
Collected by Ward's
Description:  Yellow lepidolite. 





Measurement: Hemispherical reflectance
First Column: X
Second Column: Y
X Units:  Wavelength (micrometers)
Y Units:  Reflectance (percent)
First X Value: 15.3853
Last X Value: 2.00032
Number of X Values: 2256
Additional information: ps13aa.txt
 
15.3853	1.41018
15.3397	1.55893
15.2945	1.49125
15.2495	1.54836
15.2048	1.50671
15.1603	1.57613
15.1161	1.80731
15.0722	1.77675
15.0285	1.75747
14.9851	1.84775
14.9419	1.80637
14.8989	1.73307
14.8563	1.71769
14.8138	1.96711
14.7716	2.29507
14.7296	2.20961
14.6879	1.95401
14.6464	1.936
14.6052	1.89823
14.5641	1.91026
14.5233	1.92595
14.4828	1.94005
14.4424	1.89747
14.4023	1.92514
14.3624	2.08808
14.3227	2.1141
14.2833	2.0641
14.244	2.14867
14.205	2.21302
14.1662	2.34938
14.1276	2.23767
14.0892	2.24905
14.051	2.38239
14.0131	2.39414
13.9753	2.36743
13.9377	2.39073
13.9004	2.50641
13.8632	2.71387
13.8262	2.85828
13.7895	2.72054
13.7529	2.36975
13.7165	2.37164
13.6803	2.48802
13.6443	2.52851
13.6085	2.5815
13.5729	2.52734
13.5374	2.53398
13.5022	2.69389
13.4671	2.60095
13.4322	2.55572
13.3975	2.5834
13.363	2.65174
13.3286	2.54802
13.2944	2.31501
13.2604	2.25778
13.2266	2.25517
13.193	2.09794
13.1595	2.1342
13.1262	2.18686
13.093	1.93911
13.06	1.94876
13.0272	2.04555
12.9946	2.01946
12.9621	2.04764
12.9298	2.04534
12.8976	2.09766
12.8656	2.37409
12.8337	2.6928
12.8021	2.79247
12.7705	2.69105
12.7391	2.60471
12.7079	2.70185
12.6769	3.07427
12.6459	3.17097
12.6152	3.01562
12.5845	2.97864
12.5541	2.87039
12.5238	2.73412
12.4936	2.61731
12.4635	2.81361
12.4337	2.95282
12.4039	2.79798
12.3743	2.79854
12.3448	3.04654
12.3155	3.11524
12.2863	3.18524
12.2573	3.43392
12.2284	3.74334
12.1996	3.77637
12.171	3.84037
12.1425	4.0167
12.1141	4.16276
12.0859	4.29961
12.0578	4.24494
12.0298	4.20996
12.0019	4.20646
11.9742	4.3488
11.9466	4.64375
11.9192	4.9109
11.8918	5.04657
11.8646	5.27714
11.8375	5.5835
11.8106	5.8853
11.7837	6.09959
11.757	6.04508
11.7304	5.9973
11.7039	5.98959
11.6776	6.13298
11.6513	6.19055
11.6252	6.15297
11.5992	6.18446
11.5733	6.28558
11.5475	6.06062
11.5219	5.69017
11.4963	5.66186
11.4709	5.60895
11.4455	5.40115
11.4203	5.37064
11.3952	5.27572
11.3702	5.25218
11.3454	5.29372
11.3206	5.24613
11.2959	5.25434
11.2714	5.24752
11.2469	5.21026
11.2226	5.23981
11.1983	5.19482
11.1742	5.16443
11.1502	5.12081
11.1263	5.31752
11.1024	5.33514
11.0787	5.13179
11.0551	5.0707
11.0316	5.22415
11.0081	5.30442
10.9848	5.13759
10.9616	4.90204
10.9385	4.75913
10.9154	4.70778
10.8925	4.92609
10.8697	5.06454
10.8469	5.10019
10.8243	4.98215
10.8017	4.92733
10.7793	4.85786
10.7569	4.80224
10.7346	4.80576
10.7125	4.81684
10.6904	4.74898
10.6684	4.62757
10.6465	4.53215
10.6247	4.53723
10.6029	4.55587
10.5813	4.60989
10.5597	4.70664
10.5383	4.79082
10.5169	4.76133
10.4956	4.85841
10.4744	5.09327
10.4533	5.33109
10.4323	5.52434
10.4113	5.61442
10.3904	5.58134
10.3697	5.71697
10.349	5.98376
10.3284	6.2062
10.3078	6.34071
10.2874	6.49678
10.267	6.65278
10.2467	6.82647
10.2265	6.92121
10.2064	7.06195
10.1863	7.25642
10.1663	7.38249
10.1464	7.46092
10.1266	7.63948
10.1069	7.63759
10.0872	7.7042
10.0676	7.74421
10.0481	7.76947
10.0287	7.78899
10.0093	7.82394
9.99005	7.83385
9.97084	7.85649
9.95169	8.02125
9.93263	8.20416
9.91364	8.268
9.89472	8.39487
9.87587	8.54423
9.8571	8.57204
9.83839	8.55654
9.81976	8.75998
9.80119	8.98825
9.78271	9.24764
9.76428	9.47726
9.74592	9.71225
9.72764	10.0137
9.70943	10.3149
9.69128	10.6722
9.6732	11.04
9.65518	11.4714
9.63724	11.9191
9.61935	12.2734
9.60155	12.3732
9.5838	12.168
9.56611	11.8842
9.5485	11.5112
9.53094	10.9449
9.51345	10.1554
9.49604	9.5048
9.47867	9.05701
9.46137	8.75752
9.44414	8.61079
9.42697	8.63419
9.40986	8.81505
9.39281	9.25826
9.37583	9.59915
9.35891	9.85362
9.34204	10.2645
9.32524	10.6365
9.3085	10.8682
9.29182	11.0278
9.27519	11.3092
9.25863	11.7486
9.24213	12.1348
9.22568	12.366
9.2093	12.5836
9.19297	12.7441
9.17669	12.738
9.16048	12.846
9.14433	12.9098
9.12823	12.7103
9.11218	12.6376
9.0962	12.6997
9.08027	12.6619
9.06439	12.5349
9.04858	12.3585
9.03281	12.1465
9.0171	12.1667
9.00145	12.1928
8.98585	12.0877
8.9703	12.047
8.9548	11.9694
8.93937	11.8573
8.92398	11.7023
8.90865	11.5996
8.89337	11.4271
8.87814	11.2992
8.86296	11.103
8.84784	10.8079
8.83277	10.7089
8.81774	10.6075
8.80277	10.3866
8.78786	10.1622
8.77298	9.8345
8.75816	9.64628
8.7434	9.60067
8.72868	9.35113
8.714	8.92742
8.69938	8.56453
8.68481	8.07316
8.67029	7.46952
8.65581	7.02057
8.64139	6.71147
8.62701	6.24293
8.61268	5.71833
8.5984	5.43397
8.58416	5.18582
8.56997	4.9732
8.55583	4.74385
8.54174	4.36522
8.52769	4.02302
8.51368	3.79505
8.49973	3.59088
8.48582	3.35981
8.47195	3.20154
8.45813	3.10537
8.44436	2.97642
8.43062	2.87771
8.41693	2.78204
8.4033	2.61966
8.3897	2.42954
8.37614	2.30973
8.36264	2.33352
8.34917	2.33625
8.33574	2.21929
8.32236	2.02263
8.30903	1.85064
8.29573	1.78444
8.28248	1.76316
8.26927	1.75219
8.2561	1.7288
8.24298	1.77096
8.2299	1.62366
8.21685	1.55455
8.20385	1.55816
8.19089	1.45058
8.17797	1.33654
8.16509	1.31633
8.15225	1.31036
8.13946	1.22451
8.1267	1.22749
8.11398	1.18246
8.10131	1.03378
8.08867	1.03944
8.07606	1.11764
8.0635	1.17336
8.05099	1.16485
8.0385	1.15422
8.02606	1.25415
8.01366	1.33752
8.00129	1.32026
7.98896	1.35981
7.97667	1.42843
7.96442	1.53619
7.9522	1.67906
7.94002	1.69234
7.92788	1.72189
7.91578	1.79456
7.90371	1.88106
7.89168	1.95754
7.87969	2.00599
7.86773	2.09737
7.85581	2.20777
7.84392	2.21877
7.83207	2.3343
7.82026	2.49338
7.80849	2.61307
7.79674	2.61865
7.78503	2.71147
7.77337	2.89981
7.76173	3.07413
7.75012	3.2252
7.73856	3.3698
7.72703	3.4973
7.71553	3.53907
7.70406	3.61375
7.69263	3.7317
7.68123	3.78904
7.66987	3.94967
7.65855	4.22243
7.64725	4.40434
7.63598	4.47834
7.62475	4.57767
7.61356	4.82322
7.60239	5.05263
7.59126	5.22661
7.58017	5.4508
7.5691	5.57953
7.55806	5.6616
7.54707	5.80234
7.5361	5.94149
7.52516	6.03365
7.51425	6.24454
7.50338	6.49238
7.49253	6.70134
7.48172	6.83042
7.47094	6.82459
7.46019	6.8757
7.44947	7.12247
7.43879	7.31497
7.42813	7.42211
7.4175	7.52479
7.4069	7.62549
7.39634	7.69316
7.3858	7.89512
7.37529	8.08686
7.36482	8.19057
7.35437	8.27375
7.34396	8.41732
7.33357	8.59262
7.32321	8.72256
7.31288	8.77941
7.30258	8.85512
7.29231	8.97273
7.28207	9.14405
7.27185	9.29531
7.26167	9.39406
7.25152	9.53706
7.24139	9.70864
7.23129	9.78184
7.22122	9.91927
7.21117	10.1384
7.20116	10.2153
7.19117	10.1755
7.18121	10.3132
7.17128	10.5101
7.16137	10.5833
7.1515	10.6391
7.14164	10.6992
7.13182	10.6593
7.12203	10.5953
7.11225	10.6965
7.10251	10.8748
7.0928	10.9162
7.08311	10.977
7.07344	11.0813
7.06381	11.225
7.0542	11.4008
7.04461	11.5909
7.03506	11.6085
7.02552	11.59
7.01601	11.6561
7.00653	11.7382
6.99708	11.8909
6.98765	12.0261
6.97824	12.174
6.96886	12.4178
6.95951	12.7496
6.95018	12.8879
6.94087	12.9096
6.9316	12.998
6.92234	13.2137
6.91311	13.4595
6.90391	13.6523
6.89473	13.9371
6.88557	14.2301
6.87644	14.4761
6.86733	14.8427
6.85824	15.0638
6.84918	15.0968
6.84015	15.3074
6.83114	15.6353
6.82215	15.9128
6.81319	16.0489
6.80424	16.2616
6.79532	16.5907
6.78643	16.9199
6.77756	17.0962
6.76871	17.2456
6.75989	17.4102
6.75109	17.6953
6.74231	17.9703
6.73355	18.2033
6.72482	18.4827
6.71611	18.7507
6.70742	18.94
6.69875	19.0629
6.69011	19.32
6.68149	19.6091
6.67289	19.7162
6.66431	19.7252
6.65576	19.8217
6.64722	20.1842
6.63871	20.5572
6.63022	20.537
6.62175	20.517
6.61331	20.6112
6.60488	20.7258
6.59648	20.9005
6.5881	21.0568
6.57974	21.419
6.5714	21.7034
6.56308	21.6201
6.55478	21.6465
6.54651	21.7556
6.53825	21.8932
6.53001	22.0403
6.5218	22.2055
6.51361	22.2625
6.50544	22.5085
6.49729	23.0198
6.48915	23.196
6.48104	23.0921
6.47295	23.0041
6.46488	22.957
6.45683	23.044
6.4488	23.1717
6.44079	23.2918
6.4328	23.5057
6.42482	23.6888
6.41687	24.031
6.40894	23.9293
6.40103	23.4796
6.39314	23.424
6.38526	23.4474
6.37741	23.4802
6.36957	23.5673
6.36176	23.4983
6.35396	23.6434
6.34618	23.9555
6.33843	23.8272
6.33069	23.6804
6.32297	23.72
6.31527	23.6999
6.30758	23.7527
6.29992	23.7332
6.29227	23.7288
6.28465	23.8416
6.27704	23.8899
6.26945	23.8258
6.26188	23.7262
6.25432	23.6769
6.24679	23.6533
6.23927	23.6539
6.23177	23.6729
6.22429	23.6207
6.21683	23.5466
6.20938	23.3935
6.20195	23.2118
6.19454	23.1269
6.18715	23.2198
6.17978	22.9857
6.17242	22.6228
6.16508	22.5296
6.15776	22.4488
6.15045	22.2975
6.14317	22.1708
6.1359	22.0669
6.12864	21.957
6.12141	22.0648
6.11419	22.1996
6.10699	21.9394
6.0998	21.6277
6.09263	21.4807
6.08549	21.4256
6.07835	21.4813
6.07123	21.5101
6.06413	21.3474
6.05705	21.3952
6.04998	21.7152
6.04293	21.3859
6.0359	21.0034
6.02888	20.9341
6.02187	20.892
6.01489	20.8151
6.00792	20.6362
6.00096	20.574
5.99403	20.6844
5.98711	20.6947
5.9802	20.5776
5.97331	20.5091
5.96644	20.4073
5.95958	20.2162
5.95274	20.1864
5.94591	20.1984
5.9391	20.4046
5.9323	20.2516
5.92552	19.9271
5.91876	19.8185
5.91201	19.7825
5.90528	19.8019
5.89856	20.018
5.89186	19.9556
5.88517	20.0152
5.8785	20.1233
5.87184	19.8377
5.8652	19.8096
5.85857	19.9072
5.85196	19.9238
5.84536	19.8962
5.83878	20.0066
5.83221	20.2525
5.82566	20.4967
5.81912	20.4758
5.81259	20.2467
5.80608	20.157
5.79959	20.1146
5.79311	20.1169
5.78665	20.1166
5.78019	20.0194
5.77376	19.9789
5.76734	20.1708
5.76093	20.1055
5.75453	19.905
5.74815	19.8207
5.74179	19.6818
5.73543	19.5638
5.7291	19.4617
5.72277	19.4585
5.71646	19.4595
5.71017	19.4927
5.70389	19.4097
5.69762	19.2644
5.69136	19.2382
5.68513	19.276
5.6789	19.3199
5.67268	19.2773
5.66648	19.1215
5.6603	19.0513
5.65413	19.0811
5.64797	19.0959
5.64182	19.2173
5.63569	19.0989
5.62957	18.9119
5.62347	18.8202
5.61737	18.7947
5.61129	18.7844
5.60522	18.7364
5.59917	18.6106
5.59313	18.4798
5.5871	18.4723
5.58109	18.513
5.57509	18.449
5.5691	18.3281
5.56312	18.2906
5.55716	18.2701
5.55121	18.2326
5.54528	18.1759
5.53935	18.1707
5.53344	18.1796
5.52754	18.2434
5.52166	18.3287
5.51578	18.2729
5.50992	18.2606
5.50407	18.3351
5.49823	18.3918
5.49241	18.3156
5.4866	18.308
5.4808	18.4021
5.47501	18.3989
5.46923	18.4594
5.46347	18.5608
5.45772	18.5056
5.45198	18.5058
5.44625	18.5747
5.44054	18.6844
5.43484	18.8184
5.42914	18.9045
5.42347	19.0178
5.4178	19.112
5.41214	19.1571
5.4065	19.2044
5.40087	19.4027
5.39525	19.559
5.38964	19.6325
5.38404	19.7839
5.37846	19.9535
5.37288	20.1102
5.36732	20.1925
5.36177	20.3961
5.35623	20.7458
5.35071	20.9925
5.34519	21.1359
5.33968	21.3488
5.33419	21.5678
5.32871	21.8116
5.32324	22.1166
5.31778	22.3583
5.31233	22.6343
5.30689	22.9766
5.30147	23.2945
5.29605	23.626
5.29065	23.9293
5.28525	24.277
5.27987	24.6271
5.2745	24.977
5.26914	25.3653
5.26379	25.7557
5.25845	26.1546
5.25312	26.5084
5.24781	26.7937
5.2425	27.1013
5.23721	27.4674
5.23192	27.7996
5.22665	28.1537
5.22138	28.5602
5.21613	28.9444
5.21089	29.2818
5.20566	29.6379
5.20044	30.0028
5.19522	30.2979
5.19002	30.6523
5.18483	30.9763
5.17965	31.3384
5.17448	31.7824
5.16933	32.1969
5.16418	32.5209
5.15904	32.8165
5.15391	33.2011
5.14879	33.6181
5.14368	33.9139
5.13859	34.2732
5.1335	34.6213
5.12842	34.904
5.12335	35.2011
5.1183	35.5587
5.11325	35.8871
5.10821	36.1346
5.10318	36.3976
5.09817	36.6782
5.09316	36.9759
5.08816	37.232
5.08317	37.4445
5.07819	37.6066
5.07322	37.6941
5.06826	37.8778
5.06331	38.1036
5.05837	38.2316
5.05344	38.2975
5.04852	38.3518
5.04361	38.4723
5.03871	38.5966
5.03382	38.6973
5.02894	38.8256
5.02406	38.9365
5.0192	38.9827
5.01435	39.0305
5.0095	39.1291
5.00467	39.0871
4.99984	39.0159
4.99502	39.0676
4.99021	39.1638
4.98542	39.2715
4.98063	39.2676
4.97585	39.306
4.97108	39.3864
4.96632	39.4839
4.96156	39.57
4.95682	39.6237
4.95209	39.6406
4.94736	39.7373
4.94264	39.7816
4.93794	39.7192
4.93324	39.7185
4.92855	39.8094
4.92387	39.8238
4.9192	39.842
4.91453	39.8311
4.90988	39.8701
4.90524	39.9272
4.9006	40.0303
4.89597	40.2047
4.89135	40.3343
4.88674	40.4514
4.88214	40.5647
4.87755	40.7405
4.87296	40.9381
4.86839	41.0209
4.86382	41.2395
4.85926	41.4681
4.85471	41.5637
4.85017	41.6322
4.84564	41.8049
4.84111	41.9743
4.8366	42.0869
4.83209	42.148
4.82759	42.2722
4.8231	42.4202
4.81862	42.5178
4.81415	42.5563
4.80968	42.576
4.80522	42.7017
4.80077	42.8395
4.79633	42.8661
4.7919	42.9535
4.78747	43.0746
4.78306	43.198
4.77865	43.3497
4.77425	43.526
4.76986	43.7148
4.76547	43.9515
4.7611	44.1876
4.75673	44.4031
4.75237	44.5657
4.74802	44.8122
4.74367	44.9863
4.73934	45.1689
4.73501	45.4189
4.73069	45.5345
4.72638	45.6415
4.72207	45.8151
4.71777	46.0734
4.71348	46.2992
4.7092	46.4828
4.70493	46.662
4.70066	46.8673
4.69641	47.0662
4.69216	47.128
4.68791	47.2582
4.68368	47.479
4.67945	47.7169
4.67523	47.9902
4.67102	48.2813
4.66682	48.4621
4.66262	48.6285
4.65843	48.9065
4.65425	49.2272
4.65007	49.5327
4.64591	49.7818
4.64175	50.0411
4.6376	50.3399
4.63345	50.7055
4.62932	51.0758
4.62519	51.4321
4.62106	51.7585
4.61695	52.0396
4.61284	52.3052
4.60874	52.6297
4.60465	52.9543
4.60056	53.2685
4.59648	53.5258
4.59241	53.7078
4.58835	53.9709
4.58429	54.2607
4.58024	54.5006
4.5762	54.7188
4.57216	54.9604
4.56814	55.2225
4.56411	55.3912
4.5601	55.5123
4.55609	55.7951
4.55209	56.0798
4.5481	56.2877
4.54411	56.5064
4.54013	56.7738
4.53616	56.9899
4.5322	57.21
4.52824	57.453
4.52429	57.6466
4.52034	57.903
4.51641	58.1709
4.51247	58.3808
4.50855	58.5733
4.50463	58.7797
4.50072	58.9788
4.49682	59.2197
4.49292	59.4366
4.48903	59.6328
4.48515	59.924
4.48127	60.1671
4.4774	60.4083
4.47354	60.6364
4.46968	60.8528
4.46584	61.1094
4.46199	61.3863
4.45815	61.5739
4.45432	61.8043
4.4505	62.0775
4.44668	62.2807
4.44287	62.5252
4.43907	62.8178
4.43527	63.091
4.43148	63.376
4.4277	63.6413
4.42392	63.8196
4.42015	63.9879
4.41638	64.2011
4.41262	64.476
4.40887	64.6773
4.40513	64.7946
4.40139	64.9406
4.39765	65.1562
4.39393	65.4204
4.39021	65.5822
4.38649	65.6858
4.38278	65.7815
4.37908	65.9753
4.37539	66.1306
4.3717	66.2391
4.36801	66.2891
4.36434	66.3057
4.36067	66.4026
4.357	66.5176
4.35335	66.5908
4.34969	66.6822
4.34605	66.7812
4.34241	66.8371
4.33877	66.9093
4.33514	66.9806
4.33152	67.0122
4.32791	67.0379
4.3243	67.1051
4.32069	67.1775
4.3171	67.1856
4.31351	67.2133
4.30992	67.2719
4.30634	67.374
4.30277	67.4355
4.2992	67.4655
4.29564	67.5146
4.29208	67.474
4.28853	67.467
4.28499	67.5201
4.28145	67.5183
4.27792	67.6102
4.27439	67.5988
4.27087	67.5386
4.26735	67.5375
4.26384	67.612
4.26034	67.6572
4.25684	67.6735
4.25335	67.7325
4.24986	67.7518
4.24638	67.7334
4.24291	67.7693
4.23944	67.8347
4.23598	67.8684
4.23252	67.9446
4.22906	67.9825
4.22562	67.9035
4.22218	67.8801
4.21874	67.9027
4.21531	67.8883
4.21189	67.8664
4.20847	67.9111
4.20506	67.9549
4.20165	67.9619
4.19825	67.914
4.19485	67.9398
4.19146	67.9302
4.18807	67.9557
4.18469	68.053
4.18132	68.0336
4.17795	67.9906
4.17458	68.0495
4.17123	68.0598
4.16787	68.0367
4.16453	68.092
4.16118	68.1749
4.15785	68.1323
4.15451	68.0862
4.15119	68.0489
4.14787	68.0147
4.14455	68.0942
4.14124	68.1409
4.13794	68.143
4.13464	68.1311
4.13134	68.0666
4.12805	68.0611
4.12477	68.1736
4.12149	68.1998
4.11822	68.107
4.11495	68.092
4.11168	68.1855
4.10843	68.1982
4.10517	68.202
4.10192	68.2511
4.09868	68.252
4.09545	68.2029
4.09221	68.1823
4.08899	68.2502
4.08576	68.3056
4.08255	68.3393
4.07933	68.3454
4.07613	68.3888
4.07292	68.3797
4.06973	68.3909
4.06654	68.4189
4.06335	68.4035
4.06017	68.3558
4.05699	68.3423
4.05382	68.4322
4.05065	68.5094
4.04749	68.5593
4.04433	68.5219
4.04118	68.4958
4.03803	68.5396
4.03489	68.5404
4.03175	68.4963
4.02862	68.5168
4.02549	68.5449
4.02237	68.5443
4.01925	68.6212
4.01614	68.6154
4.01303	68.567
4.00993	68.5926
4.00683	68.5898
4.00373	68.5813
4.00064	68.6462
3.99756	68.6508
3.99448	68.6641
3.9914	68.6946
3.98833	68.6445
3.98527	68.607
3.98221	68.5769
3.97915	68.6147
3.9761	68.693
3.97305	68.6886
3.97001	68.6943
3.96697	68.637
3.96394	68.6228
3.96091	68.7055
3.95789	68.7126
3.95487	68.7006
3.95186	68.7133
3.94885	68.7174
3.94584	68.7703
3.94284	68.8106
3.93984	68.8638
3.93685	68.9
3.93386	68.875
3.93088	68.8589
3.9279	68.9008
3.92493	68.9084
3.92196	68.9489
3.919	68.9658
3.91604	68.9624
3.91308	68.9816
3.91013	68.9845
3.90718	69.0321
3.90424	69.0662
3.9013	69.018
3.89837	68.9877
3.89544	68.9927
3.89252	69.0286
3.8896	69.025
3.88668	69.0953
3.88377	69.0898
3.88086	69.0659
3.87796	69.0633
3.87506	69.0861
3.87217	69.1103
3.86928	69.0823
3.86639	69.112
3.86351	69.1065
3.86064	69.0512
3.85776	69.0479
3.8549	69.0534
3.85203	69.0591
3.84917	68.9899
3.84631	68.9016
3.84346	68.9414
3.84062	69.011
3.83777	68.9657
3.83494	68.9469
3.8321	68.9624
3.82927	68.8952
3.82644	68.9106
3.82362	68.9772
3.82081	68.9296
3.81799	68.848
3.81518	68.772
3.81238	68.7
3.80958	68.6781
3.80678	68.6389
3.80399	68.6433
3.8012	68.6596
3.79841	68.5532
3.79563	68.4697
3.79286	68.3816
3.79008	68.3329
3.78731	68.3505
3.78455	68.3405
3.78179	68.2645
3.77903	68.141
3.77628	68.0359
3.77353	67.9276
3.77079	67.8306
3.76805	67.7805
3.76531	67.7206
3.76258	67.5893
3.75985	67.4477
3.75713	67.281
3.7544	67.0968
3.75169	66.9327
3.74898	66.7394
3.74627	66.5626
3.74356	66.4616
3.74086	66.2301
3.73816	66.023
3.73547	65.893
3.73278	65.8035
3.7301	65.7313
3.72741	65.6455
3.72474	65.5819
3.72206	65.5236
3.71939	65.454
3.71673	65.3935
3.71406	65.3908
3.71141	65.2962
3.70875	65.1654
3.7061	65.1284
3.70345	65.1023
3.70081	65.0719
3.69817	65.0612
3.69553	65.044
3.6929	65.0561
3.69027	65.0473
3.68765	65.0789
3.68503	65.0527
3.68241	65.0064
3.6798	64.9668
3.67719	64.886
3.67458	64.813
3.67198	64.7025
3.66938	64.6454
3.66678	64.6352
3.66419	64.6318
3.66161	64.5544
3.65902	64.3881
3.65644	64.347
3.65387	64.4322
3.65129	64.3857
3.64872	64.2762
3.64616	64.2095
3.64359	64.2192
3.64103	64.1486
3.63848	64.0297
3.63593	63.9775
3.63338	63.9749
3.63084	63.9863
3.6283	63.9727
3.62576	63.8707
3.62322	63.7787
3.62069	63.7335
3.61817	63.7168
3.61564	63.636
3.61312	63.5372
3.61061	63.4284
3.6081	63.2869
3.60559	63.2356
3.60308	63.2258
3.60058	63.0842
3.59808	62.9024
3.59558	62.7902
3.59309	62.6875
3.59061	62.523
3.58812	62.4394
3.58564	62.2871
3.58316	62.0897
3.58069	61.9829
3.57822	61.826
3.57575	61.6285
3.57328	61.469
3.57082	61.3281
3.56836	61.1861
3.56591	61.0534
3.56346	60.8768
3.56101	60.7253
3.55857	60.6461
3.55613	60.5139
3.55369	60.3572
3.55126	60.2276
3.54883	60.1088
3.5464	59.9698
3.54397	59.8584
3.54155	59.8079
3.53914	59.6649
3.53672	59.5637
3.53431	59.4312
3.5319	59.3784
3.5295	59.327
3.5271	59.1977
3.5247	59.0938
3.52231	58.9627
3.51991	58.7861
3.51753	58.5568
3.51514	58.2964
3.51276	58.091
3.51038	57.8973
3.50801	57.7266
3.50563	57.5957
3.50327	57.5269
3.5009	57.4231
3.49854	57.3208
3.49618	57.3897
3.49382	57.4251
3.49147	57.3818
3.48912	57.3658
3.48677	57.3896
3.48443	57.2978
3.48209	57.1643
3.47975	57.0453
3.47742	57.0164
3.47509	56.9851
3.47276	56.9744
3.47044	56.8997
3.46812	56.7906
3.4658	56.7643
