Name: Wollastonite CaSiO_3
Type: Mineral
Class: Silicates
Subclass: Inosilicates
Particle Size: 125-500um
Sample No.: IN-2A
Owner: JPL
Wavelength range: IR
Origin: USA, California, Inyo County, Panamint Mountains
Collected by Burminco
Description: 





Measurement: Hemispherical reflectance
First Column: X
Second Column: Y
X Units:  Wavelength (micrometers)
Y Units:  Reflectance (percent)
First X Value: 15.3853
Last X Value: 2.00032
Number of X Values: 2256
Additional information: in02aa.txt
 
15.3853	3.66318
15.3397	2.75624
15.2945	1.95837
15.2495	1.48023
15.2048	1.51028
15.1603	1.57346
15.1161	1.8133
15.0722	2.15835
15.0285	2.15207
14.9851	2.08765
14.9419	2.13181
14.8989	2.19337
14.8563	2.40799
14.8138	2.56541
14.7716	2.69996
14.7296	3.0273
14.6879	3.31873
14.6464	3.21005
14.6052	2.738
14.5641	2.21789
14.5233	1.74135
14.4828	1.4357
14.4424	1.38913
14.4023	1.35066
14.3624	1.55503
14.3227	1.82336
14.2833	1.84534
14.244	1.89542
14.205	1.91348
14.1662	2.03942
14.1276	2.2207
14.0892	2.1914
14.051	2.23649
14.0131	2.32343
13.9753	2.52184
13.9377	2.55588
13.9004	2.77414
13.8632	2.98214
13.8262	2.90583
13.7895	2.97168
13.7529	3.16003
13.7165	3.21496
13.6803	3.14266
13.6443	3.17356
13.6085	3.20782
13.5729	3.20016
13.5374	3.30374
13.5022	3.42561
13.4671	3.45341
13.4322	3.46914
13.3975	3.5393
13.363	3.63064
13.3286	3.51612
13.2944	3.50687
13.2604	3.67139
13.2266	3.85851
13.193	3.99716
13.1595	4.04122
13.1262	4.14642
13.093	4.16835
13.06	4.03366
13.0272	3.90645
12.9946	4.0596
12.9621	4.02889
12.9298	3.99814
12.8976	4.12624
12.8656	4.29083
12.8337	4.35269
12.8021	4.3889
12.7705	4.33783
12.7391	4.34463
12.7079	4.40625
12.6769	4.37378
12.6459	4.29425
12.6152	4.30145
12.5845	4.41749
12.5541	4.52832
12.5238	4.60212
12.4936	4.68669
12.4635	4.61542
12.4337	4.56496
12.4039	4.65127
12.3743	4.50357
12.3448	4.53189
12.3155	4.60844
12.2863	4.6002
12.2573	4.60877
12.2284	4.59431
12.1996	4.62627
12.171	4.64967
12.1425	4.73998
12.1141	4.84771
12.0859	4.91112
12.0578	5.00909
12.0298	5.06374
12.0019	5.12055
11.9742	5.18244
11.9466	5.16298
11.9192	5.214
11.8918	5.36384
11.8646	5.42426
11.8375	5.40716
11.8106	5.47752
11.7837	5.51725
11.757	5.67897
11.7304	5.96755
11.7039	6.15783
11.6776	6.25856
11.6513	6.3457
11.6252	6.32592
11.5992	6.40183
11.5733	6.67503
11.5475	6.87183
11.5219	6.9604
11.4963	7.18149
11.4709	7.34217
11.4455	7.55658
11.4203	7.7834
11.3952	8.01728
11.3702	8.34398
11.3454	8.74461
11.3206	9.07719
11.2959	9.56435
11.2714	10.1229
11.2469	10.5564
11.2226	11.0214
11.1983	11.7045
11.1742	12.6675
11.1502	13.8475
11.1263	15.0525
11.1024	16.0668
11.0787	16.883
11.0551	17.1117
11.0316	16.5891
11.0081	15.51
10.9848	14.6827
10.9616	14.7918
10.9385	15.5004
10.9154	16.2796
10.8925	16.8207
10.8697	17.4419
10.8469	18.0813
10.8243	18.3968
10.8017	18.3892
10.7793	18.1979
10.7569	17.7444
10.7346	17.2128
10.7125	16.9972
10.6904	17.2221
10.6684	17.8395
10.6465	18.3942
10.6247	18.789
10.6029	19.2386
10.5813	19.5761
10.5597	19.8099
10.5383	20.1362
10.5169	20.6739
10.4956	21.0479
10.4744	21.2513
10.4533	21.6576
10.4323	22.2274
10.4113	22.6049
10.3904	22.8414
10.3697	23.2144
10.349	23.7471
10.3284	24.2616
10.3078	24.3596
10.2874	23.9634
10.267	23.3064
10.2467	22.0552
10.2265	19.9169
10.2064	17.7395
10.1863	16.5696
10.1663	16.2841
10.1464	16.3518
10.1266	16.3377
10.1069	16.3411
10.0872	16.1672
10.0676	15.7652
10.0481	15.2101
10.0287	14.5495
10.0093	13.7741
9.99005	12.7787
9.97084	11.8278
9.95169	11.4252
9.93263	11.4679
9.91364	11.8392
9.89472	12.3261
9.87587	12.4681
9.8571	12.1253
9.83839	11.4855
9.81976	10.9889
9.80119	10.7592
9.78271	10.9442
9.76428	11.5102
9.74592	12.205
9.72764	12.849
9.70943	12.9435
9.69128	12.4004
9.6732	11.4495
9.65518	9.82974
9.63724	7.59144
9.61935	6.25388
9.60155	6.58917
9.5838	7.75479
9.56611	9.16743
9.5485	10.3092
9.53094	11.2864
9.51345	12.3915
9.49604	13.3901
9.47867	14.5962
9.46137	16.3709
9.44414	18.5573
9.42697	20.7269
9.40986	22.7886
9.39281	24.5924
9.37583	25.9461
9.35891	26.6813
9.34204	27.0968
9.32524	27.3713
9.3085	27.3604
9.29182	26.9987
9.27519	26.4448
9.25863	25.5717
9.24213	23.9499
9.22568	21.5882
9.2093	18.8038
9.19297	16.3654
9.17669	14.5599
9.16048	13.2472
9.14433	12.3131
9.12823	11.5195
9.11218	10.8701
9.0962	10.3775
9.08027	10.2253
9.06439	10.2653
9.04858	10.2495
9.03281	10.2348
9.0171	10.2866
9.00145	10.3692
8.98585	10.6173
8.9703	10.842
8.9548	10.9794
8.93937	11.2508
8.92398	11.4736
8.90865	11.7113
8.89337	11.7622
8.87814	11.6937
8.86296	11.6639
8.84784	11.4687
8.83277	11.032
8.81774	10.3408
8.80277	9.27725
8.78786	8.09546
8.77298	7.01355
8.75816	6.03084
8.7434	5.25977
8.72868	4.5376
8.714	3.97016
8.69938	3.52805
8.68481	3.11432
8.67029	2.66181
8.65581	2.28623
8.64139	2.05039
8.62701	1.83175
8.61268	1.68439
8.5984	1.85997
8.58416	1.91217
8.56997	1.79508
8.55583	1.86463
8.54174	1.95896
8.52769	1.85469
8.51368	1.71913
8.49973	1.7126
8.48582	1.7628
8.47195	1.8336
8.45813	1.8132
8.44436	1.75791
8.43062	1.69373
8.41693	1.68305
8.4033	1.72975
8.3897	1.87323
8.37614	1.9146
8.36264	1.93563
8.34917	1.90542
8.33574	1.97796
8.32236	2.05856
8.30903	1.93178
8.29573	1.93119
8.28248	2.07659
8.26927	2.02311
8.2561	1.99081
8.24298	2.03032
8.2299	1.97292
8.21685	1.92055
8.20385	1.99284
8.19089	2.07102
8.17797	2.06551
8.16509	2.0955
8.15225	2.1397
8.13946	2.05691
8.1267	1.97599
8.11398	1.92402
8.10131	1.78408
8.08867	1.74779
8.07606	1.86087
8.0635	1.79007
8.05099	1.72521
8.0385	1.74112
8.02606	1.7254
8.01366	1.658
8.00129	1.71624
7.98896	1.72243
7.97667	1.73543
7.96442	1.77605
7.9522	1.71992
7.94002	1.67226
7.92788	1.64917
7.91578	1.5493
7.90371	1.55134
7.89168	1.68965
7.87969	1.76795
7.86773	1.72896
7.85581	1.68138
7.84392	1.6396
7.83207	1.67328
7.82026	1.77289
7.80849	1.88508
7.79674	1.88735
7.78503	1.86831
7.77337	1.92281
7.76173	1.99115
7.75012	2.05622
7.73856	1.99015
7.72703	1.92876
7.71553	1.90672
7.70406	2.0153
7.69263	2.15194
7.68123	2.20321
7.66987	2.21325
7.65855	2.15139
7.64725	2.12743
7.63598	2.19583
7.62475	2.17767
7.61356	2.1008
7.60239	2.06068
7.59126	2.0654
7.58017	2.11037
7.5691	2.1965
7.55806	2.23823
7.54707	2.17183
7.5361	2.20462
7.52516	2.30681
7.51425	2.45317
7.50338	2.48315
7.49253	2.47991
7.48172	2.43281
7.47094	2.39763
7.46019	2.45939
7.44947	2.66053
7.43879	2.70707
7.42813	2.70326
7.4175	2.75727
7.4069	2.81066
7.39634	2.91416
7.3858	3.044
7.37529	3.17522
7.36482	3.12511
7.35437	3.18746
7.34396	3.37745
7.33357	3.36547
7.32321	3.4453
7.31288	3.60522
7.30258	3.72238
7.29231	3.79514
7.28207	3.85123
7.27185	3.81567
7.26167	3.83971
7.25152	3.92122
7.24139	3.97238
7.23129	3.95944
7.22122	3.88192
7.21117	4.03321
7.20116	4.16746
7.19117	4.2224
7.18121	4.25111
7.17128	4.28481
7.16137	4.34889
7.1515	4.39719
7.14164	4.42571
7.13182	4.45781
7.12203	4.52234
7.11225	4.58908
7.10251	4.51305
7.0928	4.44174
7.08311	4.38981
7.07344	4.41374
7.06381	4.57758
7.0542	4.70371
7.04461	4.72038
7.03506	4.76082
7.02552	4.83494
7.01601	4.82938
7.00653	4.7701
6.99708	4.82908
6.98765	4.89225
6.97824	4.90174
6.96886	4.86966
6.95951	4.85107
6.95018	4.8631
6.94087	4.91378
6.9316	4.89216
6.92234	4.91651
6.91311	4.96249
6.90391	4.98908
6.89473	4.98656
6.88557	4.92678
6.87644	4.86971
6.86733	4.92414
6.85824	4.99117
6.84918	4.95782
6.84015	4.89206
6.83114	4.8877
6.82215	5.0022
6.81319	5.03357
6.80424	5.06071
6.79532	5.07883
6.78643	5.00461
6.77756	4.95289
6.76871	4.87333
6.75989	4.77414
6.75109	4.73776
6.74231	4.72147
6.73355	4.69483
6.72482	4.75587
6.71611	4.74982
6.70742	4.61168
6.69875	4.54706
6.69011	4.51361
6.68149	4.50686
6.67289	4.55248
6.66431	4.54187
6.65576	4.59267
6.64722	4.64027
6.63871	4.75156
6.63022	4.96591
6.62175	5.07586
6.61331	5.06605
6.60488	5.1453
6.59648	5.352
6.5881	5.45621
6.57974	5.49095
6.5714	5.53648
6.56308	5.42711
6.55478	5.39518
6.54651	5.35581
6.53825	5.37515
6.53001	5.35529
6.5218	5.33794
6.51361	5.31355
6.50544	5.25321
6.49729	5.12476
6.48915	4.92735
6.48104	4.79577
6.47295	4.73038
6.46488	4.65256
6.45683	4.62407
6.4488	4.55051
6.44079	4.51373
6.4328	4.48124
6.42482	4.45744
6.41687	4.54092
6.40894	4.37257
6.40103	4.17401
6.39314	4.14598
6.38526	4.12293
6.37741	4.14898
6.36957	4.23316
6.36176	4.24631
6.35396	4.25815
6.34618	4.24175
6.33843	4.21327
6.33069	4.21641
6.32297	4.2518
6.31527	4.31571
6.30758	4.31371
6.29992	4.36945
6.29227	4.45681
6.28465	4.46394
6.27704	4.42384
6.26945	4.46573
6.26188	4.48821
6.25432	4.42553
6.24679	4.30059
6.23927	4.13312
6.23177	3.99122
6.22429	3.93137
6.21683	3.90943
6.20938	3.97994
6.20195	4.01477
6.19454	4.04483
6.18715	4.08284
6.17978	3.94794
6.17242	3.93273
6.16508	3.9175
6.15776	3.83838
6.15045	3.85711
6.14317	3.84407
6.1359	3.85114
6.12864	3.91896
6.12141	3.9028
6.11419	3.90893
6.10699	3.90666
6.0998	3.97938
6.09263	4.0483
6.08549	4.08664
6.07835	4.18378
6.07123	4.35454
6.06413	4.38493
6.05705	4.52214
6.04998	4.80019
6.04293	4.96879
6.0359	5.00467
6.02888	5.07693
6.02187	5.26646
6.01489	5.5607
6.00792	5.77556
6.00096	5.93757
5.99403	6.07193
5.98711	6.22274
5.9802	6.32976
5.97331	6.37227
5.96644	6.40659
5.95958	6.37926
5.95274	6.35742
5.94591	6.33625
5.9391	6.45212
5.9323	6.41482
5.92552	6.30187
5.91876	6.18578
5.91201	5.98857
5.90528	5.90635
5.89856	5.949
5.89186	5.85378
5.88517	5.82697
5.8785	5.72724
5.87184	5.53937
5.8652	5.44468
5.85857	5.38795
5.85196	5.23611
5.84536	5.04807
5.83878	5.00676
5.83221	5.03235
5.82566	5.06501
5.81912	5.07246
5.81259	5.0255
5.80608	5.03444
5.79959	5.12091
5.79311	5.18895
5.78665	5.26499
5.78019	5.446
5.77376	5.59037
5.76734	5.66495
5.76093	5.85199
5.75453	6.07629
5.74815	6.26612
5.74179	6.35975
5.73543	6.51612
5.7291	6.61507
5.72277	6.79272
5.71646	7.05638
5.71017	7.36003
5.70389	7.70843
5.69762	8.0464
5.69136	8.38623
5.68513	8.64099
5.6789	8.87049
5.67268	9.01972
5.66648	9.06365
5.6603	9.0065
5.65413	8.95862
5.64797	8.98637
5.64182	8.97565
5.63569	8.93771
5.62957	8.86737
5.62347	8.77817
5.61737	8.71385
5.61129	8.65423
5.60522	8.62108
5.59917	8.59466
5.59313	8.57122
5.5871	8.57065
5.58109	8.59766
5.57509	8.55951
5.5691	8.32673
5.56312	8.14129
5.55716	7.97769
5.55121	7.83281
5.54528	7.87509
5.53935	8.11282
5.53344	8.57819
5.52754	9.1728
5.52166	9.66485
5.51578	10.0053
5.50992	10.3223
5.50407	10.6428
5.49823	11.0172
5.49241	11.386
5.4866	11.6983
5.4808	12.0232
5.47501	12.2637
5.46923	12.4955
5.46347	12.7215
5.45772	12.8764
5.45198	12.8992
5.44625	12.8771
5.44054	12.9014
5.43484	12.9596
5.42914	13.0043
5.42347	13.0462
5.4178	13.027
5.41214	13.0011
5.4065	12.8343
5.40087	12.5314
5.39525	12.0908
5.38964	11.5619
5.38404	11.1637
5.37846	10.9643
5.37288	10.9287
5.36732	10.8788
5.36177	10.782
5.35623	10.8227
5.35071	10.8454
5.34519	10.8457
5.33968	10.8032
5.33419	10.5939
5.32871	10.3688
5.32324	9.99392
5.31778	9.57143
5.31233	9.1391
5.30689	8.67973
5.30147	8.23981
5.29605	7.75838
5.29065	7.26788
5.28525	6.92013
5.27987	6.64463
5.2745	6.41024
5.26914	6.35024
5.26379	6.34055
5.25845	6.17432
5.25312	5.97612
5.24781	5.93582
5.2425	6.03848
5.23721	6.11477
5.23192	6.19587
5.22665	6.25057
5.22138	6.26246
5.21613	6.33307
5.21089	6.43262
5.20566	6.44571
5.20044	6.45696
5.19522	6.48273
5.19002	6.63005
5.18483	6.81571
5.17965	6.96224
5.17448	7.2018
5.16933	7.45782
5.16418	7.68651
5.15904	7.9199
5.15391	8.16163
5.14879	8.32309
5.14368	8.47511
5.13859	8.62213
5.1335	8.69691
5.12842	8.77078
5.12335	8.8875
5.1183	9.00348
5.11325	9.11726
5.10821	9.26131
5.10318	9.34279
5.09817	9.4292
5.09316	9.44851
5.08816	9.48186
5.08317	9.56314
5.07819	9.61474
5.07322	9.61132
5.06826	9.65648
5.06331	9.76095
5.05837	9.80167
5.05344	9.79652
5.04852	9.89073
5.04361	9.96575
5.03871	10.0207
5.03382	10.0577
5.02894	9.99777
5.02406	10.0373
5.0192	10.1878
5.01435	10.2446
5.0095	10.2911
5.00467	10.3494
4.99984	10.4329
4.99502	10.5216
4.99021	10.649
4.98542	10.7647
4.98063	10.8698
4.97585	10.8817
4.97108	10.8517
4.96632	10.8562
4.96156	10.8859
4.95682	10.8252
4.95209	10.7424
4.94736	10.7273
4.94264	10.6718
4.93794	10.5974
4.93324	10.5186
4.92855	10.4327
4.92387	10.4148
4.9192	10.4913
4.91453	10.6401
4.90988	10.8311
4.90524	11.1341
4.9006	11.5546
4.89597	11.8755
4.89135	12.0606
4.88674	12.1508
4.88214	12.3161
4.87755	12.442
4.87296	12.5384
4.86839	12.7344
4.86382	12.9661
4.85926	13.2045
4.85471	13.3869
4.85017	13.4437
4.84564	13.5758
4.84111	13.6754
4.8366	13.7429
4.83209	13.8708
4.82759	14.1716
4.8231	14.5419
4.81862	14.9517
4.81415	15.3965
4.80968	15.8086
4.80522	16.1264
4.80077	16.4763
4.79633	16.7364
4.7919	16.9366
4.78747	17.0765
4.78306	17.17
4.77865	17.4136
4.77425	17.7356
4.76986	17.9741
4.76547	18.015
4.7611	18.0978
4.75673	18.4818
4.75237	18.9619
4.74802	19.3494
4.74367	19.6987
4.73934	20.1945
4.73501	20.8302
4.73069	21.3788
4.72638	21.7987
4.72207	22.2081
4.71777	22.6077
4.71348	22.9547
4.7092	23.2409
4.70493	23.4162
4.70066	23.478
4.69641	23.5633
4.69216	23.7108
4.68791	23.8472
4.68368	24.0347
4.67945	24.2921
4.67523	24.4997
4.67102	24.7268
4.66682	25.0386
4.66262	25.4567
4.65843	25.9541
4.65425	26.5772
4.65007	27.1949
4.64591	27.7858
4.64175	28.3665
4.6376	28.9979
4.63345	29.6098
4.62932	30.1986
4.62519	30.7954
4.62106	31.4158
4.61695	32.002
4.61284	32.455
4.60874	32.8112
4.60465	33.1615
4.60056	33.5063
4.59648	33.7821
4.59241	34.0321
4.58835	34.2702
4.58429	34.4413
4.58024	34.599
4.5762	34.785
4.57216	34.9476
4.56814	35.1595
4.56411	35.55
4.5601	35.9438
4.55609	36.4763
4.55209	37.1678
4.5481	38.0422
4.54411	38.8967
4.54013	39.6146
4.53616	40.2629
4.5322	40.7956
4.52824	41.231
4.52429	41.581
4.52034	41.8565
4.51641	42.0512
4.51247	42.1999
4.50855	42.2974
4.50463	42.2965
4.50072	42.3051
4.49682	42.381
4.49292	42.544
4.48903	42.6844
4.48515	42.7863
4.48127	42.8259
4.4774	42.9122
4.47354	43.0002
4.46968	42.9987
4.46584	43.0881
4.46199	43.2307
4.45815	43.3561
4.45432	43.4936
4.4505	43.6419
4.44668	43.7047
4.44287	43.7317
4.43907	43.834
4.43527	43.8832
4.43148	43.996
4.4277	44.162
4.42392	44.195
4.42015	44.2371
4.41638	44.3828
4.41262	44.5778
4.40887	44.684
4.40513	44.7796
4.40139	44.8881
4.39765	44.9909
4.39393	45.1692
4.39021	45.3577
4.38649	45.4943
4.38278	45.6169
4.37908	45.7948
4.37539	46.0393
4.3717	46.2422
4.36801	46.4294
4.36434	46.691
4.36067	46.9182
4.357	47.0635
4.35335	47.1623
4.34969	47.3296
4.34605	47.5135
4.34241	47.6085
4.33877	47.6657
4.33514	47.7764
4.33152	47.9475
4.32791	48.1003
4.3243	48.1223
4.32069	48.1842
4.3171	48.3167
4.31351	48.3817
4.30992	48.442
4.30634	48.5273
4.30277	48.6429
4.2992	48.7248
4.29564	48.6894
4.29208	48.7623
4.28853	48.866
4.28499	48.9374
4.28145	49.037
4.27792	49.2182
4.27439	49.3106
4.27087	49.3715
4.26735	49.4885
4.26384	49.5403
4.26034	49.4011
4.25684	49.4357
4.25335	49.6113
4.24986	49.6687
4.24638	49.7001
4.24291	49.8143
4.23944	49.9334
4.23598	50.0264
4.23252	50.1221
4.22906	50.1787
4.22562	50.209
4.22218	50.3043
4.21874	50.3452
4.21531	50.4768
4.21189	50.5871
4.20847	50.5677
4.20506	50.5483
4.20165	50.6363
4.19825	50.7675
4.19485	50.8909
4.19146	50.9275
4.18807	50.9357
4.18469	51.0011
4.18132	51.1384
4.17795	51.2181
4.17458	51.2174
4.17123	51.2406
4.16787	51.3056
4.16453	51.3479
4.16118	51.3682
4.15785	51.3791
4.15451	51.4862
4.15119	51.5888
4.14787	51.5626
4.14455	51.5203
4.14124	51.6073
4.13794	51.7803
4.13464	51.8881
4.13134	51.961
4.12805	52.0576
4.12477	52.109
4.12149	52.228
4.11822	52.3493
4.11495	52.4272
4.11168	52.4825
4.10843	52.5171
4.10517	52.6646
4.10192	52.8378
4.09868	52.9962
4.09545	53.1136
4.09221	53.2094
4.08899	53.3217
4.08576	53.3484
4.08255	53.4085
4.07933	53.4581
4.07613	53.5302
4.07292	53.6281
4.06973	53.6814
4.06654	53.7434
4.06335	53.7437
4.06017	53.6866
4.05699	53.5911
4.05382	53.5047
4.05065	53.4453
4.04749	53.3307
4.04433	53.1841
4.04118	52.9364
4.03803	52.665
4.03489	52.531
4.03175	52.4446
4.02862	52.2656
4.02549	51.9721
4.02237	51.8027
4.01925	51.6527
4.01614	51.345
4.01303	50.996
4.00993	50.554
4.00683	50.108
4.00373	49.6707
4.00064	49.2983
3.99756	48.9128
3.99448	48.5569
3.9914	48.2639
3.98833	48.0607
3.98527	47.9134
3.98221	47.7642
3.97915	47.7411
3.9761	47.8902
3.97305	48.0015
3.97001	47.9978
3.96697	48.0746
3.96394	48.2904
3.96091	48.5662
3.95789	48.7879
3.95487	49.0358
3.95186	49.3738
3.94885	49.7209
3.94584	50.107
3.94284	50.5032
3.93984	50.8082
3.93685	50.9872
3.93386	51.0305
3.93088	51.0063
3.9279	51.0049
3.92493	51.0353
3.92196	51.0707
3.919	51.1586
3.91604	51.2728
3.91308	51.3466
3.91013	51.3326
3.90718	51.3282
3.90424	51.2886
3.9013	51.3218
3.89837	51.3815
3.89544	51.3676
3.89252	51.307
3.8896	51.2342
3.88668	51.1866
3.88377	51.2172
3.88086	51.2514
3.87796	51.2023
3.87506	51.1828
3.87217	51.1741
3.86928	51.1756
3.86639	51.1089
3.86351	51.0563
3.86064	51.0301
3.85776	51.0661
3.8549	51.0719
3.85203	51.1183
3.84917	51.1353
3.84631	51.0945
3.84346	51.0458
3.84062	51.0826
3.83777	51.1115
3.83494	51.1781
3.8321	51.2278
3.82927	51.3109
3.82644	51.3877
3.82362	51.4707
3.82081	51.6433
3.81799	51.743
3.81518	51.7711
3.81238	51.793
3.80958	51.8347
3.80678	51.897
3.80399	52.0153
3.8012	52.1902
3.79841	52.2959
3.79563	52.3677
3.79286	52.3935
3.79008	52.37
3.78731	52.4217
3.78455	52.4699
3.78179	52.5207
3.77903	52.579
3.77628	52.5447
3.77353	52.462
3.77079	52.4299
3.76805	52.4188
3.76531	52.3891
3.76258	52.3844
3.75985	52.3227
3.75713	52.2646
3.7544	52.1712
3.75169	52.1123
3.74898	52.1204
3.74627	52.0613
3.74356	51.9809
3.74086	51.9802
3.73816	51.8713
3.73547	51.7249
3.73278	51.7412
3.7301	51.69
3.72741	51.6039
3.72474	51.5055
3.72206	51.4371
3.71939	51.3868
3.71673	51.3685
3.71406	51.3386
3.71141	51.2384
3.70875	51.1313
3.7061	51.067
3.70345	51.0583
3.70081	51.005
3.69817	50.9536
3.69553	50.8928
3.6929	50.7813
3.69027	50.6188
3.68765	50.5589
3.68503	50.4398
3.68241	50.3008
3.6798	50.2755
3.67719	50.1968
3.67458	50.0445
3.67198	50.0143
3.66938	50.0014
3.66678	49.9035
3.66419	49.8312
3.66161	49.7772
3.65902	49.6864
3.65644	49.595
3.65387	49.5316
3.65129	49.538
3.64872	49.4585
3.64616	49.3302
3.64359	49.2259
3.64103	49.2169
3.63848	49.1957
3.63593	49.091
3.63338	48.9005
3.63084	48.7841
3.6283	48.768
3.62576	48.7312
3.62322	48.6054
3.62069	48.5487
3.61817	48.4331
3.61564	48.259
3.61312	48.0831
3.61061	47.9266
3.6081	47.8961
3.60559	47.78
3.60308	47.686
3.60058	47.6045
3.59808	47.4454
3.59558	47.3199
3.59309	47.3015
3.59061	47.3083
3.58812	47.2652
3.58564	47.1537
3.58316	47.0611
3.58069	46.9552
3.57822	46.8414
3.57575	46.8304
3.57328	46.7243
3.57082	46.6456
3.56836	46.674
3.56591	46.742
3.56346	46.702
3.56101	46.6442
3.55857	46.6618
3.55613	46.5912
3.55369	46.5168
3.55126	46.4918
3.54883	46.4315
3.5464	46.2958
3.54397	46.1406
3.54155	46.0832
3.53914	45.99
3.53672	45.8154
3.53431	45.7228
3.5319	45.6258
3.5295	45.4429
3.5271	45.2694
3.5247	45.0562
3.52231	44.8129
3.51991	44.6218
3.51753	44.4085
3.51514	44.212
3.51276	44.1008
3.51038	43.9432
3.50801	43.7627
3.50563	43.6673
3.50327	43.5484
3.5009	43.3588
3.49854	43.2345
3.49618	43.2098
3.49382	43.1923
3.49147	43.0979
3.48912	42.9603
3.48677	42.8168
3.48443	42.754
3.48209	42.6729
3.47975	42.5324
3.47742	42.5016
3.47509	42.6087
3.47276	42.7009
3.47044	42.8608
3.46812	43.1077
3.4658	43.2794
