Name: Molybdenite MoS_2
Type: Mineral
Class: Sulfides
Subclass: 
Particle Size: 125-500um
Sample No.: S-11A
Owner: JPL
Wavelength range: IR
Origin: Norway, Arendal, Froland
Collected by JPL
Description: 





Measurement: Hemispherical reflectance
First Column: X
Second Column: Y
X Units:  Wavelength (micrometers)
Y Units:  Reflectance (percent)
First X Value: 15.3853
Last X Value: 2.00032
Number of X Values: 2256
Additional information: s11aa.txt
 
15.3853	33.0443
15.3397	32.9418
15.2945	32.8044
15.2495	32.5373
15.2048	32.3959
15.1603	32.3177
15.1161	32.5703
15.0722	32.9967
15.0285	33.0205
14.9851	32.6206
14.9419	32.8328
14.8989	33.1685
14.8563	32.9879
14.8138	32.7018
14.7716	32.544
14.7296	32.6141
14.6879	32.7527
14.6464	33.2205
14.6052	34.486
14.5641	35.7107
14.5233	36.385
14.4828	36.6804
14.4424	36.7269
14.4023	36.4165
14.3624	35.8992
14.3227	35.0724
14.2833	33.8584
14.244	32.7938
14.205	32.3608
14.1662	32.2664
14.1276	32.6196
14.0892	33.3377
14.051	33.7528
14.0131	33.7869
13.9753	33.7192
13.9377	33.5878
13.9004	32.9437
13.8632	32.1743
13.8262	31.8689
13.7895	32.2586
13.7529	32.7227
13.7165	32.8752
13.6803	32.8953
13.6443	32.7697
13.6085	32.6081
13.5729	32.3964
13.5374	32.031
13.5022	31.8832
13.4671	31.7494
13.4322	31.6654
13.3975	31.5573
13.363	31.305
13.3286	31.1855
13.2944	31.0405
13.2604	30.7938
13.2266	30.7273
13.193	30.8134
13.1595	30.9972
13.1262	30.9567
13.093	30.7387
13.06	30.6639
13.0272	31.133
12.9946	31.9643
12.9621	32.5077
12.9298	32.5957
12.8976	32.3902
12.8656	31.6736
12.8337	30.9735
12.8021	30.9773
12.7705	31.4839
12.7391	31.874
12.7079	32.1407
12.6769	32.6298
12.6459	33.1393
12.6152	33.7059
12.5845	34.5985
12.5541	35.4393
12.5238	35.8883
12.4936	36.0286
12.4635	36.0373
12.4337	36.1717
12.4039	36.2028
12.3743	35.9169
12.3448	35.5835
12.3155	35.3077
12.2863	35.1173
12.2573	34.8125
12.2284	34.3871
12.1996	33.9723
12.171	33.5725
12.1425	33.5957
12.1141	34.3915
12.0859	35.8548
12.0578	37.0927
12.0298	37.86
12.0019	38.4447
11.9742	38.8195
11.9466	39.0922
11.9192	39.1888
11.8918	39.2642
11.8646	39.3519
11.8375	39.3675
11.8106	39.3104
11.7837	39.3498
11.757	39.3935
11.7304	39.4423
11.7039	39.5612
11.6776	39.5603
11.6513	39.5459
11.6252	39.6646
11.5992	39.7615
11.5733	39.7431
11.5475	39.7589
11.5219	39.7699
11.4963	39.8019
11.4709	39.8206
11.4455	39.7791
11.4203	39.7265
11.3952	39.8188
11.3702	39.941
11.3454	39.8384
11.3206	39.7908
11.2959	39.7891
11.2714	39.7074
11.2469	39.6259
11.2226	39.4411
11.1983	39.2056
11.1742	38.9966
11.1502	38.8346
11.1263	38.8124
11.1024	38.7843
11.0787	38.6181
11.0551	38.4928
11.0316	38.4765
11.0081	38.5449
10.9848	38.5432
10.9616	38.5696
10.9385	38.6433
10.9154	38.7558
10.8925	38.9123
10.8697	39.0765
10.8469	39.2217
10.8243	39.2538
10.8017	39.4626
10.7793	39.7338
10.7569	39.7909
10.7346	39.7223
10.7125	39.6224
10.6904	39.5735
10.6684	39.5603
10.6465	39.5666
10.6247	39.4441
10.6029	39.3361
10.5813	39.2847
10.5597	39.2293
10.5383	39.2497
10.5169	39.3154
10.4956	39.3137
10.4744	39.3655
10.4533	39.4398
10.4323	39.5482
10.4113	39.6921
10.3904	39.8663
10.3697	39.9953
10.349	40.1989
10.3284	40.5617
10.3078	40.7602
10.2874	40.7402
10.267	40.7309
10.2467	40.7729
10.2265	40.8251
10.2064	40.802
10.1863	40.7366
10.1663	40.7344
10.1464	40.621
10.1266	40.4517
10.1069	40.38
10.0872	40.2971
10.0676	40.3114
10.0481	40.3504
10.0287	40.3449
10.0093	40.299
9.99005	40.3341
9.97084	40.3071
9.95169	40.1871
9.93263	40.161
9.91364	40.2646
9.89472	40.3704
9.87587	40.3624
9.8571	40.3964
9.83839	40.4616
9.81976	40.4557
9.80119	40.3374
9.78271	40.3593
9.76428	40.3797
9.74592	40.3064
9.72764	40.2796
9.70943	40.2371
9.69128	40.2713
9.6732	40.1957
9.65518	40.0253
9.63724	40.0359
9.61935	40.1439
9.60155	40.1339
9.5838	40.2112
9.56611	40.4641
9.5485	40.5948
9.53094	40.5212
9.51345	40.5092
9.49604	40.4719
9.47867	40.4383
9.46137	40.3433
9.44414	40.4061
9.42697	40.5547
9.40986	40.6442
9.39281	40.7599
9.37583	41.0234
9.35891	41.2395
9.34204	41.2693
9.32524	41.2626
9.3085	41.3874
9.29182	41.4571
9.27519	41.4528
9.25863	41.5162
9.24213	41.5034
9.22568	41.4545
9.2093	41.5302
9.19297	41.5521
9.17669	41.5818
9.16048	41.6502
9.14433	41.6876
9.12823	41.6591
9.11218	41.6412
9.0962	41.6911
9.08027	41.6442
9.06439	41.5801
9.04858	41.5585
9.03281	41.5525
9.0171	41.561
9.00145	41.5103
8.98585	41.5783
8.9703	41.6749
8.9548	41.5967
8.93937	41.5102
8.92398	41.5462
8.90865	41.6742
8.89337	41.6969
8.87814	41.6657
8.86296	41.7462
8.84784	41.743
8.83277	41.7267
8.81774	41.6456
8.80277	41.7734
8.78786	41.9592
8.77298	41.9508
8.75816	41.9281
8.7434	41.9996
8.72868	42.0712
8.714	42.001
8.69938	41.9265
8.68481	42.0632
8.67029	42.1935
8.65581	42.1855
8.64139	42.0678
8.62701	41.9206
8.61268	41.8613
8.5984	42.0464
8.58416	42.2984
8.56997	42.472
8.55583	42.571
8.54174	42.6375
8.52769	42.6043
8.51368	42.6603
8.49973	42.8214
8.48582	42.8559
8.47195	42.8685
8.45813	42.8834
8.44436	42.8376
8.43062	42.9403
8.41693	43.0093
8.4033	42.9676
8.3897	42.9709
8.37614	43.0131
8.36264	43.0121
8.34917	43.0361
8.33574	42.968
8.32236	42.9825
8.30903	43.0773
8.29573	43.1455
8.28248	43.068
8.26927	43.0764
8.2561	43.2373
8.24298	43.2687
8.2299	43.2218
8.21685	43.2775
8.20385	43.2888
8.19089	43.4132
8.17797	43.5436
8.16509	43.5865
8.15225	43.5719
8.13946	43.6186
8.1267	43.7643
8.11398	43.8291
8.10131	43.9164
8.08867	43.9967
8.07606	44.1579
8.0635	44.3403
8.05099	44.4685
8.0385	44.594
8.02606	44.7911
8.01366	45.0132
8.00129	45.052
7.98896	45.2151
7.97667	45.4522
7.96442	45.5641
7.9522	45.6729
7.94002	45.8421
7.92788	46.0107
7.91578	46.1813
7.90371	46.3654
7.89168	46.5881
7.87969	46.6883
7.86773	46.7975
7.85581	46.8914
7.84392	46.9987
7.83207	47.1717
7.82026	47.3302
7.80849	47.3992
7.79674	47.5359
7.78503	47.6083
7.77337	47.6396
7.76173	47.7741
7.75012	47.8865
7.73856	47.9292
7.72703	47.9921
7.71553	48.0666
7.70406	48.182
7.69263	48.2647
7.68123	48.3923
7.66987	48.5259
7.65855	48.6287
7.64725	48.6372
7.63598	48.5936
7.62475	48.6471
7.61356	48.7753
7.60239	48.8149
7.59126	48.8878
7.58017	48.9522
7.5691	48.9528
7.55806	48.9468
7.54707	49.0264
7.5361	49.1573
7.52516	49.1818
7.51425	49.2238
7.50338	49.2914
7.49253	49.3501
7.48172	49.4539
7.47094	49.5916
7.46019	49.5512
7.44947	49.3365
7.43879	49.2458
7.42813	49.1985
7.4175	49.1716
7.4069	49.1251
7.39634	49.1182
7.3858	49.1206
7.37529	49.1845
7.36482	49.2419
7.35437	49.262
7.34396	49.3722
7.33357	49.3046
7.32321	49.0822
7.31288	49.0556
7.30258	48.9902
7.29231	48.9857
7.28207	49.1231
7.27185	49.07
7.26167	48.7585
7.25152	48.7061
7.24139	48.6926
7.23129	48.6771
7.22122	48.6426
7.21117	48.8974
7.20116	48.7274
7.19117	48.3701
7.18121	48.4521
7.17128	48.736
7.16137	48.523
7.1515	48.3693
7.14164	48.1222
7.13182	47.6725
7.12203	47.5005
7.11225	47.2396
7.10251	46.8902
7.0928	46.6484
7.08311	46.3933
7.07344	46.1937
7.06381	46.1343
7.0542	46.605
7.04461	46.9248
7.03506	46.209
7.02552	45.8714
7.01601	45.7059
7.00653	45.5689
6.99708	45.802
6.98765	45.8127
6.97824	45.7675
6.96886	46.2865
6.95951	46.8475
6.95018	46.2133
6.94087	45.9092
6.9316	46.0369
6.92234	46.2045
6.91311	46.4896
6.90391	46.6875
6.89473	46.503
6.88557	46.5702
6.87644	47.0215
6.86733	48.4241
6.85824	48.5217
6.84918	47.4458
6.84015	47.2099
6.83114	47.8312
6.82215	48.0183
6.81319	47.8246
6.80424	48.3465
6.79532	49.6393
6.78643	50.1858
6.77756	49.858
6.76871	49.709
6.75989	49.6833
6.75109	49.8949
6.74231	49.9486
6.73355	50.1851
6.72482	50.5753
6.71611	50.9014
6.70742	50.9325
6.69875	50.5653
6.69011	50.9745
6.68149	51.6403
6.67289	51.3129
6.66431	50.8348
6.65576	50.7217
6.64722	51.7491
6.63871	53.2979
6.63022	52.4818
6.62175	51.1992
6.61331	50.9489
6.60488	50.8119
6.59648	51.1527
6.5881	51.3286
6.57974	51.7878
6.5714	52.3199
6.56308	51.4554
6.55478	51.0761
6.54651	50.7275
6.53825	50.3989
6.53001	50.5479
6.5218	51.076
6.51361	50.6505
6.50544	51.0141
6.49729	52.7701
6.48915	52.884
6.48104	51.7418
6.47295	51.0349
6.46488	50.365
6.45683	50.2222
6.4488	50.3389
6.44079	50.443
6.4328	50.7919
6.42482	51.3386
6.41687	52.9549
6.40894	52.3371
6.40103	50.2037
6.39314	49.5994
6.38526	49.4527
6.37741	49.5811
6.36957	49.7799
6.36176	49.19
6.35396	49.2155
6.34618	50.0856
6.33843	49.42
6.33069	48.3979
6.32297	48.1829
6.31527	48.0424
6.30758	47.9011
6.29992	47.7247
6.29227	47.6836
6.28465	47.5634
6.27704	47.4851
6.26945	47.3647
6.26188	47.161
6.25432	46.9097
6.24679	46.8182
6.23927	46.7269
6.23177	46.6258
6.22429	46.5166
6.21683	46.3903
6.20938	46.2607
6.20195	46.1583
6.19454	46.4059
6.18715	47.2737
6.17978	46.7832
6.17242	45.955
6.16508	46.3027
6.15776	46.4692
6.15045	46.088
6.14317	46.0168
6.1359	45.8009
6.12864	45.6927
6.12141	46.465
6.11419	47.4164
6.10699	46.7044
6.0998	45.9188
6.09263	45.8105
6.08549	45.9466
6.07835	46.7756
6.07123	47.1642
6.06413	46.5105
6.05705	47.2121
6.04998	49.2485
6.04293	47.9374
6.0359	46.1614
6.02888	45.8302
6.02187	46.0005
6.01489	46.3835
6.00792	46.1755
6.00096	46.0288
5.99403	46.6421
5.98711	46.7833
5.9802	46.3402
5.97331	46.6664
5.96644	46.7942
5.95958	46.0723
5.95274	46.0659
5.94591	46.607
5.9391	48.0928
5.9323	47.613
5.92552	46.3121
5.91876	46.1956
5.91201	46.1613
5.90528	46.5192
5.89856	47.7184
5.89186	47.6884
5.88517	48.1732
5.8785	48.3126
5.87184	46.8099
5.8652	46.773
5.85857	46.67
5.85196	46.3993
5.84536	46.3413
5.83878	46.6577
5.83221	47.3275
5.82566	48.3566
5.81912	48.5136
5.81259	47.5954
5.80608	47.3405
5.79959	47.4848
5.79311	47.5619
5.78665	47.8476
5.78019	48.1556
5.77376	48.9496
5.76734	50.2557
5.76093	49.6265
5.75453	49.0314
5.74815	49.4618
5.74179	49.2998
5.73543	49.3415
5.7291	49.5432
5.72277	49.8911
5.71646	50.3339
5.71017	50.6507
5.70389	50.2684
5.69762	50.2133
5.69136	50.4547
5.68513	50.3891
5.6789	50.6963
5.67268	50.8634
5.66648	50.6462
5.6603	50.976
5.65413	51.3236
5.64797	51.6575
5.64182	52.1556
5.63569	51.6778
5.62957	51.3113
5.62347	51.3417
5.61737	51.607
5.61129	51.6748
5.60522	51.7467
5.59917	51.836
5.59313	51.8498
5.5871	52.2768
5.58109	53.0234
5.57509	52.9876
5.5691	52.5944
5.56312	52.6813
5.55716	52.8932
5.55121	53.0488
5.54528	52.972
5.53935	53.0569
5.53344	53.133
5.52754	53.3671
5.52166	53.5821
5.51578	53.5889
5.50992	53.5841
5.50407	53.7137
5.49823	53.7794
5.49241	53.855
5.4866	53.9609
5.4808	54.3289
5.47501	54.3577
5.46923	54.4641
5.46347	54.6868
5.45772	54.4273
5.45198	54.3001
5.44625	54.3425
5.44054	54.3147
5.43484	54.3073
5.42914	54.6054
5.42347	55.1985
5.4178	54.905
5.41214	54.4481
5.4065	54.3854
5.40087	54.309
5.39525	54.3227
5.38964	54.2682
5.38404	54.2579
5.37846	54.2795
5.37288	54.2849
5.36732	54.2701
5.36177	54.3818
5.35623	54.6575
5.35071	54.8861
5.34519	54.6555
5.33968	54.442
5.33419	54.3962
5.32871	54.3552
5.32324	54.3979
5.31778	54.3919
5.31233	54.3741
5.30689	54.4197
5.30147	54.4159
5.29605	54.5153
5.29065	54.6764
5.28525	54.5417
5.27987	54.5532
5.2745	54.606
5.26914	54.603
5.26379	54.6408
5.25845	54.7197
5.25312	54.7566
5.24781	54.7515
5.2425	54.7304
5.23721	54.8408
5.23192	54.8784
5.22665	54.8975
5.22138	54.9915
5.21613	55.2534
5.21089	55.2441
5.20566	55.1766
5.20044	55.2422
5.19522	55.1162
5.19002	55.0828
5.18483	55.0426
5.17965	54.9949
5.17448	55.0227
5.16933	55.0242
5.16418	55.0216
5.15904	54.9717
5.15391	55.0886
5.14879	55.2593
5.14368	55.1812
5.13859	55.058
5.1335	55.04
5.12842	55.0335
5.12335	55.1011
5.1183	55.1879
5.11325	55.2309
5.10821	55.177
5.10318	55.1677
5.09817	55.1198
5.09316	55.0553
5.08816	55.0781
5.08317	55.1443
5.07819	55.1603
5.07322	55.1276
5.06826	55.1089
5.06331	55.1249
5.05837	55.0532
5.05344	55.0782
5.04852	55.1137
5.04361	55.101
5.03871	55.0404
5.03382	55.1363
5.02894	55.2012
5.02406	55.182
5.0192	55.24
5.01435	55.1654
5.0095	55.1243
5.00467	55.191
4.99984	55.1546
4.99502	55.0895
4.99021	55.07
4.98542	55.0937
4.98063	55.1615
4.97585	55.2197
4.97108	55.2253
4.96632	55.2919
4.96156	55.3393
4.95682	55.3714
4.95209	55.3787
4.94736	55.3979
4.94264	55.4278
4.93794	55.3975
4.93324	55.3772
4.92855	55.469
4.92387	55.4974
4.9192	55.5421
4.91453	55.6131
4.90988	55.6736
4.90524	55.7009
4.9006	55.7656
4.89597	55.9026
4.89135	55.9855
4.88674	56.0328
4.88214	56.1047
4.87755	56.2048
4.87296	56.2815
4.86839	56.3022
4.86382	56.2979
4.85926	56.3096
4.85471	56.3891
4.85017	56.3987
4.84564	56.455
4.84111	56.534
4.8366	56.5523
4.83209	56.6023
4.82759	56.6562
4.8231	56.6345
4.81862	56.6232
4.81415	56.5958
4.80968	56.6282
4.80522	56.7318
4.80077	56.7501
4.79633	56.7393
4.7919	56.7552
4.78747	56.766
4.78306	56.7201
4.77865	56.6758
4.77425	56.7276
4.76986	56.7767
4.76547	56.8057
4.7611	56.7881
4.75673	56.8289
4.75237	56.8567
4.74802	56.8089
4.74367	56.8017
4.73934	56.8855
4.73501	56.8622
4.73069	56.813
4.72638	56.8058
4.72207	56.8223
4.71777	56.832
4.71348	56.844
4.7092	56.843
4.70493	56.7818
4.70066	56.7023
4.69641	56.6826
4.69216	56.6747
4.68791	56.6629
4.68368	56.6185
4.67945	56.6178
4.67523	56.6429
4.67102	56.6536
4.66682	56.6683
4.66262	56.7543
4.65843	56.7803
4.65425	56.7316
4.65007	56.8077
4.64591	56.8613
4.64175	56.8467
4.6376	56.8418
4.63345	56.8551
4.62932	56.8562
4.62519	56.8803
4.62106	56.8975
4.61695	56.8939
4.61284	56.8512
4.60874	56.8281
4.60465	56.8813
4.60056	56.9137
4.59648	56.8635
4.59241	56.8746
4.58835	56.8747
4.58429	56.88
4.58024	56.9148
4.5762	56.9201
4.57216	56.915
4.56814	56.8965
4.56411	56.914
4.5601	56.8934
4.55609	56.842
4.55209	56.7862
4.5481	56.7379
4.54411	56.6631
4.54013	56.6509
4.53616	56.702
4.5322	56.7136
4.52824	56.6394
4.52429	56.583
4.52034	56.5731
4.51641	56.5592
4.51247	56.4763
4.50855	56.4154
4.50463	56.4059
4.50072	56.3581
4.49682	56.2387
4.49292	56.2238
4.48903	56.2488
4.48515	56.2226
4.48127	56.1693
4.4774	56.2141
4.47354	56.2312
4.46968	56.1436
4.46584	56.1043
4.46199	56.1297
4.45815	56.1535
4.45432	56.1579
4.4505	56.1735
4.44668	56.1924
4.44287	56.1683
4.43907	56.1669
4.43527	56.1942
4.43148	56.1511
4.4277	56.2
4.42392	56.2367
4.42015	56.2129
4.41638	56.199
4.41262	56.1698
4.40887	56.1999
4.40513	56.2163
4.40139	56.2218
4.39765	56.2003
4.39393	56.2154
4.39021	56.2257
4.38649	56.202
4.38278	56.1941
4.37908	56.2912
4.37539	56.3525
4.3717	56.3026
4.36801	56.2749
4.36434	56.3258
4.36067	56.372
4.357	56.3261
4.35335	56.2581
4.34969	56.2435
4.34605	56.2018
4.34241	56.1308
4.33877	56.1127
4.33514	56.1065
4.33152	56.0349
4.32791	55.9892
4.3243	55.9319
4.32069	55.8173
4.3171	55.6775
4.31351	55.559
4.30992	55.3912
4.30634	55.2696
4.30277	55.1552
4.2992	55.1048
4.29564	54.986
4.29208	54.8218
4.28853	54.7395
4.28499	54.6832
4.28145	54.6627
4.27792	54.6047
4.27439	54.5613
4.27087	54.649
4.26735	54.8371
4.26384	55.0382
4.26034	55.2901
4.25684	55.4721
4.25335	55.3108
4.24986	54.888
4.24638	54.4855
4.24291	54.2132
4.23944	54.0371
4.23598	53.9424
4.23252	53.8953
4.22906	53.9794
4.22562	54.1777
4.22218	54.3925
4.21874	54.6038
4.21531	54.8202
4.21189	55.0183
4.20847	55.2194
4.20506	55.4168
4.20165	55.5752
4.19825	55.6145
4.19485	55.6243
4.19146	55.6502
4.18807	55.6428
4.18469	55.6105
4.18132	55.5851
4.17795	55.6036
4.17458	55.6389
4.17123	55.6062
4.16787	55.5189
4.16453	55.5001
4.16118	55.5229
4.15785	55.4519
4.15451	55.4375
4.15119	55.4681
4.14787	55.4136
4.14455	55.363
4.14124	55.3119
4.13794	55.2755
4.13464	55.3582
4.13134	55.414
4.12805	55.4217
4.12477	55.3635
4.12149	55.2952
4.11822	55.2689
4.11495	55.2677
4.11168	55.289
4.10843	55.2783
4.10517	55.2167
4.10192	55.1649
4.09868	55.1371
4.09545	55.1295
4.09221	55.0903
4.08899	55.0891
4.08576	55.1566
4.08255	55.2046
4.07933	55.1501
4.07613	55.0961
4.07292	55.0757
4.06973	55.0207
4.06654	55.004
4.06335	55.0116
4.06017	54.8964
4.05699	54.8235
4.05382	54.8579
4.05065	54.9117
4.04749	54.9087
4.04433	54.8636
4.04118	54.8624
4.03803	54.8395
4.03489	54.8355
4.03175	54.8021
4.02862	54.723
4.02549	54.7329
4.02237	54.8044
4.01925	54.8167
4.01614	54.7362
4.01303	54.6615
4.00993	54.6729
4.00683	54.6719
4.00373	54.5988
4.00064	54.593
3.99756	54.6302
3.99448	54.6371
3.9914	54.6054
3.98833	54.6005
3.98527	54.5788
3.98221	54.4752
3.97915	54.4456
3.9761	54.462
3.97305	54.4896
3.97001	54.4937
3.96697	54.4616
3.96394	54.4376
3.96091	54.4817
3.95789	54.4797
3.95487	54.4447
3.95186	54.4407
3.94885	54.4762
3.94584	54.487
3.94284	54.4351
3.93984	54.4149
3.93685	54.4492
3.93386	54.394
3.93088	54.3234
3.9279	54.3565
3.92493	54.3262
3.92196	54.2671
3.919	54.3055
3.91604	54.3086
3.91308	54.3405
3.91013	54.3028
3.90718	54.2722
3.90424	54.3021
3.9013	54.1807
3.89837	54.1663
3.89544	54.1836
3.89252	54.1449
3.8896	54.1981
3.88668	54.2086
3.88377	54.1099
3.88086	54.0378
3.87796	54.1042
3.87506	54.1231
3.87217	54.0054
3.86928	53.9963
3.86639	54.0658
3.86351	54.0323
3.86064	54.0127
3.85776	53.9808
3.8549	53.9157
3.85203	53.9067
3.84917	53.9257
3.84631	53.8551
3.84346	53.8467
3.84062	53.8865
3.83777	53.9137
3.83494	53.8818
3.8321	53.8323
3.82927	53.8309
3.82644	53.7913
3.82362	53.792
3.82081	53.7746
3.81799	53.7202
3.81518	53.7577
3.81238	53.7973
3.80958	53.6725
3.80678	53.5758
3.80399	53.5286
3.8012	53.5459
3.79841	53.6139
3.79563	53.5971
3.79286	53.4881
3.79008	53.5162
3.78731	53.572
3.78455	53.5217
3.78179	53.3983
3.77903	53.3358
3.77628	53.3709
3.77353	53.3886
3.77079	53.4146
3.76805	53.421
3.76531	53.3519
3.76258	53.2817
3.75985	53.2553
3.75713	53.2946
3.7544	53.3098
3.75169	53.3006
3.74898	53.2565
3.74627	53.2413
3.74356	53.2346
3.74086	53.1793
3.73816	53.0767
3.73547	53.0529
3.73278	53.0388
3.7301	53.0408
3.72741	53.1217
3.72474	53.0781
3.72206	52.9964
3.71939	52.9639
3.71673	52.9083
3.71406	52.882
3.71141	52.8686
3.70875	52.8669
3.7061	52.8293
3.70345	52.8026
3.70081	52.7557
3.69817	52.6759
3.69553	52.6403
3.6929	52.6846
3.69027	52.7497
3.68765	52.7404
3.68503	52.6067
3.68241	52.4804
3.6798	52.4766
3.67719	52.5678
3.67458	52.5651
3.67198	52.4326
3.66938	52.4005
3.66678	52.3847
3.66419	52.3644
3.66161	52.3099
3.65902	52.2696
3.65644	52.2531
3.65387	52.2489
3.65129	52.1698
3.64872	52.1546
3.64616	52.1804
3.64359	52.1087
3.64103	52.0359
3.63848	51.9929
3.63593	51.9572
3.63338	51.8671
3.63084	51.8183
3.6283	51.8834
3.62576	51.8694
3.62322	51.7936
3.62069	51.7941
3.61817	51.7617
3.61564	51.6076
3.61312	51.5654
3.61061	51.5738
3.6081	51.5372
3.60559	51.4728
3.60308	51.471
3.60058	51.4403
3.59808	51.4205
3.59558	51.3839
3.59309	51.333
3.59061	51.3524
3.58812	51.2677
3.58564	51.1524
3.58316	51.1512
3.58069	51.1549
3.57822	51.0955
3.57575	51.0335
3.57328	50.9755
3.57082	50.9226
3.56836	50.8161
3.56591	50.7786
3.56346	50.7323
3.56101	50.6903
3.55857	50.6874
3.55613	50.5497
3.55369	50.4962
3.55126	50.5235
3.54883	50.4189
3.5464	50.3802
3.54397	50.3213
3.54155	50.2517
3.53914	50.1951
3.53672	50.0888
3.53431	50.0624
3.5319	49.9629
3.5295	49.7486
3.5271	49.5582
3.5247	49.4109
3.52231	49.215
3.51991	48.9639
3.51753	48.7651
3.51514	48.5998
3.51276	48.3691
3.51038	48.2863
3.50801	48.2981
3.50563	48.2291
3.50327	48.2285
3.5009	48.3269
3.49854	48.4155
3.49618	48.4852
3.49382	48.5105
3.49147	48.5007
3.48912	48.4744
3.48677	48.4383
3.48443	48.4606
3.48209	48.4677
3.47975	48.4032
3.47742	48.4102
3.47509	48.3934
3.47276	48.2664
3.47044	48.1911
3.46812	48.2542
3.4658	48.2558
3.46348	48.2046
