Name: Quartzite
Type: Rock
Class: Metamorphic
Subclass:  Quartzite 
Particle Size: Solid surface
Sample No.: Ward93.txt
Owner: JPL
Wavelength range:  IR 
Origin: Ward's Collection of American Rocks.  Sample locality - Ableman, Sauk County, Wisconsin.  Collected by - JPL.
Collected by:  Ward's Natural Science
Description: A fine crystalline, purplish quartz rock.  
Geologic age - Pre-Cambrian




Measurement: Hemispherical reflectance
First Column: X
Second Column: Y
X Units: Wavelength (micrometers)
Y Units: Reflectance (percent)
First X Value: 15.3871
Last X Value: 1.9998
Number of X Values: 2257
Additional information: None

15.3871   4.73961
15.3416   4.65619
15.2964   4.74413
15.2514   4.72782
15.2066   4.39782
15.1622   4.20163
15.1180   4.40125
15.0740   4.46691
15.0303   4.34609
14.9869   4.02383
14.9437   3.79953
14.9008   3.80622
14.8581   3.95256
14.8156   4.05866
14.7734   3.97265
14.7314   4.01269
14.6897   4.32767
14.6482   4.32314
14.6069   4.05763
14.5659   4.23997
14.5251   4.37736
14.4845   4.48597
14.4442   4.53423
14.4041   4.29719
14.3642   3.78026
14.3245   3.13980
14.2850   2.78033
14.2458   2.89355
14.2068   3.36699
14.1679   3.60563
14.1293   3.48486
14.0909   3.66195
14.0528   4.02288
14.0148   4.03248
13.9770   3.96770
13.9394   4.20178
13.9021   4.41552
13.8649   4.30093
13.8279   4.30088
13.7911   4.39870
13.7546   4.37190
13.7182   4.60115
13.6820   4.92975
13.6460   4.83748
13.6101   4.70746
13.5745   4.79222
13.5391   4.84193
13.5038   4.82580
13.4687   5.04689
13.4339   5.43545
13.3991   5.50121
13.3646   5.49397
13.3302   5.46467
13.2961   5.56779
13.2621   5.59053
13.2282   5.71841
13.1946   6.12779
13.1611   6.31397
13.1278   6.39631
13.0946   6.74427
13.0616   7.13454
13.0288   7.24569
12.9962   7.41886
12.9637   7.77129
12.9313   8.34999
12.8992   8.85934
12.8672   9.64349
12.8353  10.34410
12.8036  10.64470
12.7721  10.55760
12.7407   9.96441
12.7095   9.19629
12.6784   8.30393
12.6475   7.93933
12.6167   8.13191
12.5861   8.51370
12.5556   9.11529
12.5253   9.61192
12.4951   9.56735
12.4651   9.21248
12.4352   8.55636
12.4054   7.42676
12.3758   5.90499
12.3463   4.49758
12.3170   3.62714
12.2878   3.32113
12.2588   3.15261
12.2299   3.37264
12.2011   3.76392
12.1725   3.88404
12.1439   3.95483
12.1156   4.19354
12.0873   4.37499
12.0592   4.58026
12.0312   4.82102
12.0034   4.83706
11.9757   4.63866
11.9481   4.42528
11.9206   4.25571
11.8933   4.16841
11.8661   4.26146
11.8390   4.49579
11.8120   4.73440
11.7852   4.87464
11.7584   4.90395
11.7318   4.97576
11.7053   4.94468
11.6790   4.85303
11.6527   4.88432
11.6266   5.05479
11.6006   5.25010
11.5747   5.36509
11.5489   5.37181
11.5233   5.50811
11.4977   5.73481
11.4723   5.83660
11.4469   5.93323
11.4217   6.03003
11.3966   6.06464
11.3716   6.27272
11.3468   6.51391
11.3220   6.56963
11.2973   6.69878
11.2728   6.75418
11.2483   6.76982
11.2240   6.76080
11.1997   6.75290
11.1756   7.01199
11.1515   7.36383
11.1276   7.55991
11.1038   7.58341
11.0801   7.57629
11.0564   7.61145
11.0329   7.68678
11.0095   7.76270
10.9862   7.79290
10.9629   7.96422
10.9398   7.98758
10.9168   8.00252
10.8938   8.17321
10.8710   8.21024
10.8483   8.31461
10.8256   8.56376
10.8031   8.63700
10.7806   8.67565
10.7582   8.73504
10.7360   8.83052
10.7138   8.99334
10.6917   9.16221
10.6697   9.30664
10.6478   9.46558
10.6260   9.74384
10.6042   9.99236
10.5826  10.33160
10.5610  10.68590
10.5396  10.95850
10.5182  11.23100
10.4969  11.39850
10.4757  11.38620
10.4546  11.03900
10.4335  10.51650
10.4126  10.05520
10.3917   9.61058
10.3709   9.29318
10.3502   9.04711
10.3296   8.83405
10.3091   8.81874
10.2886   9.06860
10.2683   9.29905
10.2480   9.51070
10.2277   9.72947
10.2076   9.96423
10.1876  10.03870
10.1676  10.16890
10.1477  10.41030
10.1279  10.66880
10.1081  10.77510
10.0885  10.85290
10.0689  11.14570
10.0494  11.43090
10.0299  11.60720
10.0106  11.78790
 9.9913  12.10960
 9.9720  12.29300
 9.9529  12.53900
 9.9338  12.79190
 9.9148  13.00640
 9.8959  13.18410
 9.8771  13.27410
 9.8583  13.50530
 9.8396  13.67400
 9.8210  13.85080
 9.8024  14.25900
 9.7839  14.62850
 9.7655  14.93420
 9.7471  15.36950
 9.7288  15.76720
 9.7106  15.96360
 9.6925  16.18290
 9.6744  16.52130
 9.6564  17.01700
 9.6384  17.49090
 9.6205  17.88910
 9.6027  18.38750
 9.5850  19.13130
 9.5673  20.03970
 9.5497  20.83760
 9.5321  21.60060
 9.5146  22.48350
 9.4972  23.42600
 9.4798  24.47910
 9.4625  25.69650
 9.4453  27.14460
 9.4281  28.61870
 9.4110  30.35540
 9.3940  32.24700
 9.3770  34.10370
 9.3600  35.98880
 9.3432  37.71770
 9.3264  39.01030
 9.3096  40.10740
 9.2930  41.00020
 9.2763  41.63130
 9.2598  42.00450
 9.2432  42.39440
 9.2268  42.69890
 9.2104  42.99410
 9.1941  43.11370
 9.1778  43.20150
 9.1616  43.35240
 9.1454  43.49130
 9.1293  43.39170
 9.1133  43.28850
 9.0973  43.27920
 9.0814  43.02290
 9.0655  42.23430
 9.0497  41.09440
 9.0339  39.45320
 9.0182  37.03470
 9.0025  34.77240
 8.9870  33.61050
 8.9714  33.46270
 8.9559  34.22570
 8.9405  35.76930
 8.9251  37.65000
 8.9097  39.41570
 8.8945  40.62640
 8.8792  41.36380
 8.8641  41.77840
 8.8489  41.92070
 8.8338  42.26300
 8.8188  42.54280
 8.8039  42.49110
 8.7889  42.32010
 8.7741  42.18520
 8.7592  42.03100
 8.7445  41.99050
 8.7297  41.86070
 8.7151  41.65460
 8.7005  41.10740
 8.6859  40.38950
 8.6714  39.32430
 8.6569  37.64810
 8.6425  35.63260
 8.6281  34.60770
 8.6137  35.44990
 8.5994  37.35780
 8.5852  39.07510
 8.5710  40.20160
 8.5569  40.84290
 8.5428  41.29950
 8.5287  41.55190
 8.5147  41.74090
 8.5008  41.64320
 8.4869  41.42800
 8.4730  41.34690
 8.4592  41.08560
 8.4454  40.70910
 8.4316  40.38230
 8.4180  40.03020
 8.4043  39.54830
 8.3907  39.04910
 8.3772  38.59900
 8.3637  38.19760
 8.3502  37.89630
 8.3368  37.56290
 8.3234  37.10430
 8.3100  36.77930
 8.2967  36.63710
 8.2835  36.25100
 8.2703  35.84670
 8.2571  35.51940
 8.2440  35.19700
 8.2309  34.73340
 8.2179  34.32630
 8.2049  33.88950
 8.1919  33.26480
 8.1790  32.24840
 8.1661  31.06970
 8.1532  29.69880
 8.1404  28.08250
 8.1277  26.30980
 8.1150  24.39540
 8.1023  22.62570
 8.0897  21.11020
 8.0770  19.57480
 8.0645  18.19010
 8.0520  16.84970
 8.0395  15.64140
 8.0270  14.69070
 8.0146  13.83100
 8.0023  12.92110
 7.9899  11.91440
 7.9776  10.98200
 7.9654  10.21780
 7.9532   9.50848
 7.9410   8.75250
 7.9288   7.98923
 7.9167   7.37252
 7.9047   6.81414
 7.8926   6.33727
 7.8807   5.96787
 7.8687   5.58197
 7.8568   5.22581
 7.8449   4.93519
 7.8330   4.63047
 7.8212   4.41154
 7.8094   4.24470
 7.7977   4.08007
 7.7860   3.88832
 7.7743   3.78565
 7.7627   3.69852
 7.7511   3.53882
 7.7395   3.35659
 7.7280   3.28695
 7.7165   3.20321
 7.7050   3.07114
 7.6936   2.90203
 7.6822   2.85917
 7.6708   2.79608
 7.6595   2.62351
 7.6482   2.54662
 7.6369   2.59485
 7.6257   2.41753
 7.6145   2.25623
 7.6033   2.27656
 7.5922   2.22631
 7.5811   2.22062
 7.5700   2.15374
 7.5590   2.04584
 7.5480   2.06196
 7.5370   2.12305
 7.5261   2.17238
 7.5152   2.17872
 7.5043   2.07414
 7.4935   2.11351
 7.4826   2.17188
 7.4718   2.12572
 7.4611   2.12885
 7.4504   2.10735
 7.4397   2.01784
 7.4290   1.91511
 7.4184   1.96380
 7.4078   2.11353
 7.3972   2.11322
 7.3867   2.03269
 7.3762   1.97291
 7.3657   2.10429
 7.3553   2.18538
 7.3449   2.07354
 7.3345   2.05548
 7.3241   2.14896
 7.3138   2.07750
 7.3035   2.07679
 7.2932   2.07748
 7.2830   2.07172
 7.2727   2.08727
 7.2626   2.08036
 7.2524   2.04681
 7.2423   1.99726
 7.2322   2.09223
 7.2221   2.25322
 7.2120   2.22956
 7.2020   2.24109
 7.1921   2.30207
 7.1821   2.17060
 7.1722   2.13256
 7.1623   2.15241
 7.1524   2.12123
 7.1425   2.16436
 7.1327   2.25588
 7.1229   2.25827
 7.1131   2.25437
 7.1034   2.33137
 7.0937   2.30868
 7.0840   2.18918
 7.0743   2.21021
 7.0647   2.24224
 7.0551   2.24672
 7.0455   2.29709
 7.0359   2.23583
 7.0264   2.17271
 7.0169   2.21839
 7.0074   2.21533
 6.9979   2.15887
 6.9885   2.31909
 6.9791   2.37287
 6.9697   2.30449
 6.9604   2.33495
 6.9510   2.41484
 6.9417   2.45337
 6.9324   2.42029
 6.9232   2.36764
 6.9140   2.31220
 6.9047   2.29175
 6.8956   2.23299
 6.8864   2.30682
 6.8773   2.39961
 6.8682   2.48606
 6.8591   2.43640
 6.8500   2.36308
 6.8410   2.43282
 6.8320   2.51930
 6.8230   2.46871
 6.8140   2.35148
 6.8051   2.33163
 6.7962   2.37972
 6.7873   2.41123
 6.7784   2.35311
 6.7695   2.30928
 6.7607   2.23671
 6.7519   2.23366
 6.7431   2.22409
 6.7344   2.27310
 6.7256   2.25930
 6.7169   2.24123
 6.7082   2.29345
 6.6996   2.28817
 6.6909   2.38498
 6.6823   2.43036
 6.6737   2.41166
 6.6651   2.39592
 6.6566   2.45062
 6.6480   2.48808
 6.6395   2.50364
 6.6310   2.48450
 6.6226   2.44735
 6.6141   2.44403
 6.6057   2.42439
 6.5973   2.40340
 6.5889   2.43587
 6.5805   2.46021
 6.5722   2.48644
 6.5639   2.55225
 6.5556   2.57684
 6.5473   2.53562
 6.5390   2.54612
 6.5308   2.54772
 6.5226   2.59740
 6.5144   2.62162
 6.5062   2.67165
 6.4981   2.83618
 6.4900   2.94519
 6.4818   3.02695
 6.4737   3.02152
 6.4657   3.00187
 6.4576   3.03415
 6.4496   3.06345
 6.4416   3.11579
 6.4336   3.24076
 6.4256   3.37412
 6.4177   3.36599
 6.4097   3.29297
 6.4018   3.18169
 6.3939   3.08091
 6.3860   2.99232
 6.3782   2.99706
 6.3704   3.05739
 6.3625   2.99586
 6.3547   2.78878
 6.3470   2.84650
 6.3392   2.96390
 6.3315   2.94593
 6.3237   2.86668
 6.3160   2.82364
 6.3083   2.76882
 6.3007   2.69531
 6.2930   2.67750
 6.2854   2.80058
 6.2778   2.86153
 6.2702   2.69896
 6.2626   2.63571
 6.2551   2.56652
 6.2476   2.46633
 6.2400   2.58883
 6.2325   2.73108
 6.2251   2.68427
 6.2176   2.55311
 6.2101   2.62523
 6.2027   2.67362
 6.1953   2.67562
 6.1879   2.75283
 6.1805   2.78585
 6.1732   2.77278
 6.1658   2.73320
 6.1585   2.80008
 6.1512   2.89471
 6.1439   2.91454
 6.1367   2.91608
 6.1294   2.95837
 6.1222   2.98822
 6.1149   3.12282
 6.1077   3.14150
 6.1006   3.06538
 6.0934   3.05402
 6.0862   3.14402
 6.0791   3.22297
 6.0720   3.28477
 6.0649   3.21953
 6.0578   3.12753
 6.0507   3.30757
 6.0437   3.50594
 6.0366   3.41473
 6.0296   3.32321
 6.0226   3.19925
 6.0156   3.19236
 6.0087   3.14285
 6.0017   3.08510
 5.9948   3.09973
 5.9878   3.09128
 5.9809   3.02423
 5.9740   2.94738
 5.9672   2.95615
 5.9603   2.97087
 5.9535   2.95000
 5.9466   2.96449
 5.9398   2.92752
 5.9330   2.99611
 5.9262   3.00678
 5.9195   2.90606
 5.9127   2.94672
 5.9060   3.01997
 5.8993   2.98929
 5.8926   3.04343
 5.8859   3.15826
 5.8792   3.17568
 5.8726   3.18815
 5.8659   3.29583
 5.8593   3.26378
 5.8527   3.30617
 5.8461   3.44994
 5.8395   3.54470
 5.8329   3.51241
 5.8264   3.49139
 5.8198   3.47581
 5.8133   3.43996
 5.8068   3.46782
 5.8003   3.38328
 5.7938   3.35380
 5.7874   3.55822
 5.7809   3.70996
 5.7745   3.72155
 5.7680   3.65698
 5.7616   3.65597
 5.7552   3.70079
 5.7489   3.80515
 5.7425   3.83554
 5.7361   3.84236
 5.7298   3.87178
 5.7235   3.92103
 5.7172   3.94061
 5.7109   3.90417
 5.7046   3.88471
 5.6983   3.93972
 5.6921   3.91096
 5.6858   3.87790
 5.6796   3.95873
 5.6734   3.89201
 5.6672   3.69775
 5.6610   3.66335
 5.6548   3.60808
 5.6487   3.56088
 5.6425   3.58678
 5.6364   3.53673
 5.6303   3.44219
 5.6242   3.45414
 5.6181   3.50164
 5.6120   3.41882
 5.6059   3.29061
 5.5999   3.20179
 5.5938   3.21359
 5.5878   3.36245
 5.5818   3.45911
 5.5758   3.44157
 5.5698   3.46548
 5.5638   3.45469
 5.5578   3.32536
 5.5519   3.32923
 5.5460   3.45968
 5.5400   3.48956
 5.5341   3.40723
 5.5282   3.45509
 5.5223   3.52176
 5.5164   3.57142
 5.5106   3.52122
 5.5047   3.51195
 5.4989   3.63109
 5.4931   3.66514
 5.4873   3.66029
 5.4815   3.70000
 5.4757   3.75095
 5.4699   3.85249
 5.4641   3.90603
 5.4584   3.88562
 5.4527   3.89624
 5.4469   3.90819
 5.4412   3.79950
 5.4355   3.79826
 5.4298   3.85686
 5.4241   3.70726
 5.4185   3.59571
 5.4128   3.54528
 5.4072   3.57678
 5.4015   3.56035
 5.3959   3.52118
 5.3903   3.43820
 5.3847   3.36235
 5.3791   3.33224
 5.3735   3.32040
 5.3680   3.25669
 5.3624   3.21314
 5.3569   3.27192
 5.3514   3.30711
 5.3458   3.21274
 5.3403   3.19825
 5.3348   3.23203
 5.3294   3.22257
 5.3239   3.20585
 5.3184   3.21840
 5.3130   3.13320
 5.3075   3.05104
 5.3021   3.08296
 5.2967   3.14069
 5.2913   3.20839
 5.2859   3.25806
 5.2805   3.22664
 5.2751   3.23471
 5.2698   3.32027
 5.2644   3.37942
 5.2591   3.42061
 5.2538   3.46955
 5.2485   3.48556
 5.2431   3.60478
 5.2378   3.77949
 5.2326   3.80385
 5.2273   3.75816
 5.2220   3.82951
 5.2168   3.89735
 5.2115   3.91784
 5.2063   3.98137
 5.2011   4.05133
 5.1959   4.02426
 5.1907   3.95561
 5.1855   3.95586
 5.1803   4.01891
 5.1751   4.06339
 5.1700   4.10346
 5.1648   4.15849
 5.1597   4.20037
 5.1545   4.18080
 5.1494   4.12599
 5.1443   4.15530
 5.1392   4.08595
 5.1341   4.09075
 5.1291   4.10053
 5.1240   4.08269
 5.1189   4.10577
 5.1139   4.08775
 5.1088   4.09428
 5.1038   4.08581
 5.0988   4.06464
 5.0938   4.15360
 5.0888   4.14138
 5.0838   4.10194
 5.0788   4.10194
 5.0738   4.02634
 5.0689   3.99077
 5.0639   3.97528
 5.0590   3.92763
 5.0541   3.95651
 5.0491   4.02261
 5.0442   3.99321
 5.0393   4.04065
 5.0344   4.07437
 5.0296   4.01936
 5.0247   3.96655
 5.0198   4.03683
 5.0150   4.16297
 5.0101   4.21126
 5.0053   4.13553
 5.0004   4.10123
 4.9956   4.15342
 4.9908   4.17689
 4.9860   4.20281
 4.9812   4.26838
 4.9765   4.34673
 4.9717   4.40440
 4.9669   4.45194
 4.9622   4.51431
 4.9574   4.50705
 4.9527   4.57484
 4.9480   4.67979
 4.9432   4.76037
 4.9385   4.86940
 4.9338   4.92348
 4.9291   4.92689
 4.9245   4.95016
 4.9198   5.09874
 4.9151   5.27011
 4.9105   5.35098
 4.9058   5.46150
 4.9012   5.64316
 4.8966   5.86186
 4.8919   6.11296
 4.8873   6.35909
 4.8827   6.56506
 4.8781   6.72149
 4.8736   6.90157
 4.8690   7.06506
 4.8644   7.24468
 4.8599   7.42834
 4.8553   7.68355
 4.8508   7.93311
 4.8462   8.11492
 4.8417   8.10093
 4.8372   8.15639
 4.8327   8.29532
 4.8282   8.41066
 4.8237   8.55498
 4.8192   8.60914
 4.8147   8.62411
 4.8103   8.75526
 4.8058   8.84461
 4.8014   8.80693
 4.7969   8.84139
 4.7925   8.95011
 4.7881   8.99871
 4.7836   9.00490
 4.7792   9.10006
 4.7748   9.25370
 4.7704   9.34094
 4.7660   9.38919
 4.7617   9.47517
 4.7573   9.55681
 4.7530   9.59497
 4.7486   9.69546
 4.7443   9.72243
 4.7399   9.72309
 4.7356   9.70540
 4.7313   9.77454
 4.7270   9.93004
 4.7226   9.92831
 4.7184   9.82474
 4.7141   9.81545
 4.7098   9.81691
 4.7055   9.70217
 4.7012   9.56775
 4.6970   9.41444
 4.6927   9.29548
 4.6885   9.23881
 4.6842   9.22515
 4.6800   9.19095
 4.6758   9.24345
 4.6716   9.39953
 4.6674   9.57789
 4.6632   9.74105
 4.6590   9.89317
 4.6548  10.08160
 4.6506  10.25470
 4.6465  10.37840
 4.6423  10.60080
 4.6382  10.77230
 4.6340  10.82040
 4.6299  10.96520
 4.6258  11.08390
 4.6216  11.14280
 4.6175  11.23170
 4.6134  11.31880
 4.6093  11.31530
 4.6052  11.30900
 4.6011  11.52420
 4.5971  11.63920
 4.5930  11.53430
 4.5889  11.50890
 4.5849  11.54670
 4.5808  11.44890
 4.5768  11.39180
 4.5727  11.40900
 4.5687  11.41990
 4.5647  11.37660
 4.5607  11.38980
 4.5567  11.34810
 4.5526  11.14280
 4.5487  11.07850
 4.5447  10.94950
 4.5407  10.82250
 4.5367  10.76910
 4.5328  10.69360
 4.5288  10.52120
 4.5248  10.33640
 4.5209  10.17020
 4.5170   9.95353
 4.5130   9.74711
 4.5091   9.60869
 4.5052   9.45345
 4.5013   9.27735
 4.4974   9.14759
 4.4935   9.07765
 4.4896   9.08452
 4.4857   9.09207
 4.4818   9.12556
 4.4779   9.01725
 4.4741   8.94086
 4.4702   8.96351
 4.4664   8.95404
 4.4625   8.99167
 4.4587   9.16993
 4.4549   9.27508
 4.4510   9.27290
 4.4472   9.34203
 4.4434   9.51007
 4.4396   9.61948
 4.4358   9.65208
 4.4320   9.55950
 4.4282   9.60249
 4.4245   9.74104
 4.4207   9.75122
 4.4169   9.78601
 4.4132   9.88732
 4.4094  10.02740
 4.4057  10.12040
 4.4019  10.15050
 4.3982  10.26610
 4.3945  10.44200
 4.3907  10.50360
 4.3870  10.65870
 4.3833  10.80270
 4.3796  10.83300
 4.3759  10.96260
 4.3722  11.10480
 4.3685  11.20710
 4.3649  11.38440
 4.3612  11.50550
 4.3575  11.51070
 4.3539  11.63470
 4.3502  11.67740
 4.3466  11.73120
 4.3429  11.88570
 4.3393  11.91770
 4.3357  11.90750
 4.3320  11.87030
 4.3284  11.84500
 4.3248  11.84220
 4.3212  11.88350
 4.3176  11.86970
 4.3140  11.72640
 4.3105  11.59700
 4.3069  11.56330
 4.3033  11.42710
 4.2997  11.31050
 4.2962  11.31760
 4.2926  11.24530
 4.2890  11.25090
 4.2855  11.26320
 4.2820  11.20900
 4.2784  11.24840
 4.2749  11.43130
 4.2714  11.52170
 4.2679  11.55840
 4.2644  11.73800
 4.2609  11.93140
 4.2574  12.09050
 4.2539  12.05900
 4.2504  11.83830
 4.2469  11.53800
 4.2434  11.29400
 4.2400  11.34250
 4.2365  11.43760
 4.2330  11.37520
 4.2296  11.34780
 4.2261  11.46590
 4.2227  11.60990
 4.2193  11.70540
 4.2158  11.86900
 4.2124  12.01670
 4.2090  12.12800
 4.2056  12.27900
 4.2022  12.47560
 4.1988  12.58180
 4.1954  12.59220
 4.1920  12.59840
 4.1886  12.50780
 4.1852  12.42650
 4.1818  12.62540
 4.1785  12.78800
 4.1751  12.79820
 4.1717  12.84140
 4.1684  12.83160
 4.1650  12.79080
 4.1617  12.79980
 4.1584  12.81830
 4.1550  12.77990
 4.1517  12.81020
 4.1484  12.95040
 4.1451  13.06110
 4.1418  13.05910
 4.1384  13.03340
 4.1351  13.13950
 4.1319  13.18750
 4.1286  13.22330
 4.1253  13.27220
 4.1220  13.30670
 4.1187  13.33680
 4.1155  13.34940
 4.1122  13.38570
 4.1089  13.42880
 4.1057  13.61470
 4.1024  13.76010
 4.0992  13.69540
 4.0959  13.67710
 4.0927  13.70520
 4.0895  13.71120
 4.0863  13.72520
 4.0830  13.78340
 4.0798  13.78760
 4.0766  13.89980
 4.0734  13.99200
 4.0702  13.95170
 4.0670  13.95350
 4.0639  13.98270
 4.0607  14.00380
 4.0575  13.99810
 4.0543  14.04610
 4.0511  13.97640
 4.0480  13.92380
 4.0448  14.09650
 4.0417  14.12040
 4.0385  13.93070
 4.0354  13.81160
 4.0323  13.85600
 4.0291  14.01820
 4.0260  14.04710
 4.0229  14.09200
 4.0197  14.13710
 4.0166  14.09160
 4.0135  14.03680
 4.0104  13.96200
 4.0073  13.89350
 4.0042  13.89380
 4.0011  13.98700
 3.9981  13.99620
 3.9950  13.99410
 3.9919  13.96960
 3.9888  14.07000
 3.9857  14.18970
 3.9827  14.08300
 3.9796  13.92480
 3.9766  14.05960
 3.9735  14.30970
 3.9705  14.38340
 3.9675  14.40870
 3.9644  14.36470
 3.9614  14.30900
 3.9584  14.27490
 3.9554  14.29860
 3.9523  14.42970
 3.9493  14.41990
 3.9463  14.35010
 3.9433  14.49060
 3.9403  14.54050
 3.9373  14.38870
 3.9343  14.45850
 3.9314  14.57920
 3.9284  14.53120
 3.9254  14.52940
 3.9224  14.53880
 3.9195  14.54660
 3.9165  14.65300
 3.9136  14.63810
 3.9106  14.47070
 3.9077  14.45660
 3.9047  14.47170
 3.9018  14.40290
 3.8988  14.46780
 3.8959  14.59720
 3.8930  14.52590
 3.8901  14.40760
 3.8872  14.32590
 3.8842  14.27100
 3.8813  14.26590
 3.8784  14.40590
 3.8755  14.48310
 3.8726  14.45190
 3.8697  14.43780
 3.8669  14.41250
 3.8640  14.37600
 3.8611  14.33850
 3.8582  14.32270
 3.8554  14.22990
 3.8525  14.09380
 3.8496  14.12510
 3.8468  14.24560
 3.8439  14.25810
 3.8411  14.26710
 3.8382  14.35990
 3.8354  14.27840
 3.8326  14.10550
