Name: Almandine Garnet Fe_3Al_2(SiO_4)_3
Type: Mineral
Class: Silicates
Subclass: Nesosilicates
Particle Size: 45-125um
Sample No.: NS-4A
Owner: JPL
Wavelength range: IR
Origin: USA, Arizona, Graham County, Stanley Butte
Collected by Burminco
Description: 





Measurement: Hemispherical reflectance
First Column: X
Second Column: Y
X Units:  Wavelength (micrometers)
Y Units:  Reflectance (percent)
First X Value: 15.3853
Last X Value: 2.00032
Number of X Values: 2256
Additional information: ns04aa.txt
 
15.3853	1.67375
15.3397	1.60539
15.2945	1.59193
15.2495	1.5007
15.2048	1.68635
15.1603	2.04961
15.1161	2.2327
15.0722	2.35966
15.0285	2.48875
14.9851	2.75607
14.9419	2.9756
14.8989	2.88545
14.8563	3.08449
14.8138	3.59639
14.7716	3.52692
14.7296	3.33269
14.6879	3.74019
14.6464	4.09593
14.6052	4.1236
14.5641	4.15664
14.5233	4.18842
14.4828	4.28407
14.4424	4.33045
14.4023	4.433
14.3624	4.50571
14.3227	4.6924
14.2833	4.66827
14.244	4.90908
14.205	5.16839
14.1662	5.16478
14.1276	5.09487
14.0892	5.14405
14.051	5.33709
14.0131	5.55429
13.9753	5.43326
13.9377	5.39654
13.9004	5.46166
13.8632	5.58277
13.8262	5.88157
13.7895	5.90016
13.7529	5.8395
13.7165	5.92877
13.6803	6.00104
13.6443	6.01789
13.6085	6.07421
13.5729	6.1973
13.5374	6.29362
13.5022	6.41337
13.4671	6.39122
13.4322	6.38789
13.3975	6.40028
13.363	6.23309
13.3286	6.31103
13.2944	6.40419
13.2604	6.52885
13.2266	6.6735
13.193	6.69927
13.1595	6.64174
13.1262	6.56991
13.093	6.71827
13.06	6.80147
13.0272	6.6948
12.9946	6.80897
12.9621	7.05219
12.9298	7.30722
12.8976	7.44678
12.8656	7.37435
12.8337	7.29161
12.8021	7.51215
12.7705	7.83547
12.7391	7.86904
12.7079	7.77513
12.6769	7.92342
12.6459	8.00705
12.6152	8.03333
12.5845	8.23595
12.5541	8.32254
12.5238	8.36925
12.4936	8.51912
12.4635	8.55245
12.4337	8.60109
12.4039	8.7173
12.3743	8.84158
12.3448	9.03365
12.3155	9.18637
12.2863	9.35571
12.2573	9.49047
12.2284	9.67131
12.1996	9.71216
12.171	10.0061
12.1425	10.3886
12.1141	10.5525
12.0859	10.7701
12.0578	11.0596
12.0298	11.3835
12.0019	11.7194
11.9742	12.1329
11.9466	12.6349
11.9192	13.1274
11.8918	13.5677
11.8646	13.9696
11.8375	14.3344
11.8106	14.8597
11.7837	15.5371
11.757	16.2053
11.7304	16.9826
11.7039	17.7505
11.6776	18.6448
11.6513	19.6271
11.6252	20.7344
11.5992	22.0098
11.5733	23.3081
11.5475	24.5013
11.5219	25.7821
11.4963	26.9661
11.4709	27.6827
11.4455	27.8721
11.4203	27.5219
11.3952	26.6516
11.3702	25.2087
11.3454	23.2975
11.3206	21.5761
11.2959	20.1204
11.2714	19.3647
11.2469	19.7676
11.2226	21.1712
11.1983	23.286
11.1742	25.5027
11.1502	27.461
11.1263	29.19
11.1024	30.6195
11.0787	31.5374
11.0551	31.8377
11.0316	31.5808
11.0081	31.0835
10.9848	30.3526
10.9616	29.4277
10.9385	28.1923
10.9154	26.6897
10.8925	24.9607
10.8697	22.8904
10.8469	20.5264
10.8243	17.7466
10.8017	14.8838
10.7793	12.1608
10.7569	9.52871
10.7346	7.47725
10.7125	6.11383
10.6904	5.21493
10.6684	4.84672
10.6465	4.95908
10.6247	5.38424
10.6029	6.01347
10.5813	6.9514
10.5597	8.33151
10.5383	9.95272
10.5169	11.6522
10.4956	13.6211
10.4744	15.8865
10.4533	18.6598
10.4323	21.8107
10.4113	25.0183
10.3904	28.072
10.3697	30.7207
10.349	32.9697
10.3284	34.8742
10.3078	36.3703
10.2874	37.5492
10.267	38.5292
10.2467	39.2448
10.2265	39.7143
10.2064	40.0893
10.1863	40.3985
10.1663	40.6123
10.1464	40.8158
10.1266	40.9567
10.1069	40.9678
10.0872	40.9389
10.0676	40.982
10.0481	40.9476
10.0287	40.814
10.0093	40.59
9.99005	40.423
9.97084	40.1709
9.95169	39.9106
9.93263	39.7287
9.91364	39.5042
9.89472	39.0754
9.87587	38.5953
9.8571	38.09
9.83839	37.4742
9.81976	36.8034
9.80119	36.0858
9.78271	35.2459
9.76428	34.3004
9.74592	33.2361
9.72764	32.0769
9.70943	30.7866
9.69128	29.3319
9.6732	27.6621
9.65518	25.8911
9.63724	24.0563
9.61935	22.1069
9.60155	20.049
9.5838	18.155
9.56611	16.5112
9.5485	14.9693
9.53094	13.5825
9.51345	12.2426
9.49604	10.9
9.47867	9.68497
9.46137	8.58907
9.44414	7.61662
9.42697	6.79746
9.40986	6.11474
9.39281	5.38793
9.37583	4.71855
9.35891	4.10586
9.34204	3.71611
9.32524	3.31781
9.3085	3.03715
9.29182	2.94244
9.27519	2.75756
9.25863	2.47304
9.24213	2.12808
9.22568	2.02311
9.2093	1.99815
9.19297	1.91724
9.17669	1.90703
9.16048	1.84612
9.14433	1.6823
9.12823	1.7337
9.11218	1.69767
9.0962	1.53645
9.08027	1.53223
9.06439	1.71451
9.04858	1.72845
9.03281	1.59197
9.0171	1.50723
9.00145	1.51772
8.98585	1.4921
8.9703	1.54237
8.9548	1.54619
8.93937	1.53701
8.92398	1.64712
8.90865	1.73112
8.89337	1.72965
8.87814	1.69635
8.86296	1.65605
8.84784	1.65016
8.83277	1.6505
8.81774	1.65215
8.80277	1.61382
8.78786	1.59176
8.77298	1.73323
8.75816	1.82523
8.7434	1.81565
8.72868	1.82301
8.714	1.91259
8.69938	1.97151
8.68481	1.83207
8.67029	1.75901
8.65581	1.90693
8.64139	1.99922
8.62701	2.09437
8.61268	2.17584
8.5984	2.09651
8.58416	2.01185
8.56997	2.05534
8.55583	2.21535
8.54174	2.3255
8.52769	2.40128
8.51368	2.43374
8.49973	2.46921
8.48582	2.40587
8.47195	2.36582
8.45813	2.48529
8.44436	2.54051
8.43062	2.57604
8.41693	2.73006
8.4033	2.87326
8.3897	2.86323
8.37614	2.84267
8.36264	2.85741
8.34917	2.93437
8.33574	3.00324
8.32236	3.17267
8.30903	3.31915
8.29573	3.24665
8.28248	3.39473
8.26927	3.54736
8.2561	3.64167
8.24298	3.754
8.2299	3.78944
8.21685	3.89345
8.20385	3.87378
8.19089	3.86693
8.17797	3.97118
8.16509	4.00372
8.15225	3.97367
8.13946	4.10755
8.1267	4.33687
8.11398	4.45089
8.10131	4.56928
8.08867	4.63201
8.07606	4.60669
8.0635	4.64239
8.05099	4.74461
8.0385	4.78451
8.02606	4.93892
8.01366	5.12424
8.00129	5.18931
7.98896	5.23251
7.97667	5.3695
7.96442	5.54417
7.9522	5.67422
7.94002	5.75076
7.92788	5.79375
7.91578	5.94137
7.90371	6.15156
7.89168	6.29617
7.87969	6.45622
7.86773	6.62317
7.85581	6.72199
7.84392	6.79201
7.83207	6.88379
7.82026	7.05278
7.80849	7.21369
7.79674	7.37579
7.78503	7.41323
7.77337	7.46172
7.76173	7.62769
7.75012	7.66159
7.73856	7.78612
7.72703	7.91473
7.71553	8.04756
7.70406	8.19271
7.69263	8.1786
7.68123	8.21379
7.66987	8.23885
7.65855	8.27795
7.64725	8.30776
7.63598	8.25422
7.62475	8.17781
7.61356	8.27332
7.60239	8.40979
7.59126	8.42042
7.58017	8.32053
7.5691	8.27585
7.55806	8.23471
7.54707	8.2285
7.5361	8.26038
7.52516	8.3239
7.51425	8.44611
7.50338	8.50433
7.49253	8.46476
7.48172	8.44752
7.47094	8.4795
7.46019	8.54331
7.44947	8.58673
7.43879	8.52754
7.42813	8.46938
7.4175	8.47061
7.4069	8.44636
7.39634	8.43814
7.3858	8.40532
7.37529	8.36388
7.36482	8.31741
7.35437	8.41969
7.34396	8.51085
7.33357	8.43758
7.32321	8.31128
7.31288	8.31516
7.30258	8.28576
7.29231	8.25712
7.28207	8.31546
7.27185	8.29101
7.26167	8.30114
7.25152	8.36293
7.24139	8.3631
7.23129	8.40966
7.22122	8.44954
7.21117	8.48888
7.20116	8.56751
7.19117	8.60011
7.18121	8.77852
7.17128	9.01865
7.16137	9.02543
7.1515	9.17488
7.14164	9.39073
7.13182	9.46627
7.12203	9.57619
7.11225	9.69983
7.10251	9.82588
7.0928	9.97314
7.08311	10.0972
7.07344	10.2779
7.06381	10.4748
7.0542	10.7496
7.04461	11.0198
7.03506	11.0327
7.02552	11.1596
7.01601	11.3239
7.00653	11.425
6.99708	11.6271
6.98765	11.7094
6.97824	11.7857
6.96886	11.8889
6.95951	12.046
6.95018	11.909
6.94087	11.8521
6.9316	11.8758
6.92234	11.8762
6.91311	11.7914
6.90391	11.8096
6.89473	11.819
6.88557	11.7334
6.87644	11.7581
6.86733	12.0948
6.85824	12.0372
6.84918	11.742
6.84015	11.615
6.83114	11.6368
6.82215	11.6767
6.81319	11.559
6.80424	11.6232
6.79532	11.8888
6.78643	11.8465
6.77756	11.5982
6.76871	11.5206
6.75989	11.5628
6.75109	11.6719
6.74231	11.6747
6.73355	11.7165
6.72482	11.8879
6.71611	12.0711
6.70742	12.0823
6.69875	12.0399
6.69011	12.2508
6.68149	12.5107
6.67289	12.5388
6.66431	12.4909
6.65576	12.5387
6.64722	12.9929
6.63871	13.5901
6.63022	13.6169
6.62175	13.4131
6.61331	13.4602
6.60488	13.6324
6.59648	13.9892
6.5881	14.2744
6.57974	14.6158
6.5714	14.9542
6.56308	14.9031
6.55478	15.0687
6.54651	15.0986
6.53825	15.1049
6.53001	15.3928
6.5218	15.7984
6.51361	15.8777
6.50544	16.0513
6.49729	16.6839
6.48915	16.8364
6.48104	16.5946
6.47295	16.4091
6.46488	16.2966
6.45683	16.4945
6.4488	16.6883
6.44079	16.7419
6.4328	17.0427
6.42482	17.3959
6.41687	18.1026
6.40894	18.0729
6.40103	17.4889
6.39314	17.5322
6.38526	17.7692
6.37741	18.0982
6.36957	18.4278
6.36176	18.3784
6.35396	18.6548
6.34618	19.2148
6.33843	19.1966
6.33069	19.0777
6.32297	19.2411
6.31527	19.374
6.30758	19.4723
6.29992	19.5683
6.29227	19.7245
6.28465	19.9257
6.27704	20.1137
6.26945	20.3117
6.26188	20.478
6.25432	20.5278
6.24679	20.6342
6.23927	20.7571
6.23177	20.8374
6.22429	20.889
6.21683	20.8953
6.20938	20.8927
6.20195	20.8545
6.19454	21.0401
6.18715	21.5997
6.17978	21.4831
6.17242	21.1597
6.16508	21.284
6.15776	21.3982
6.15045	21.2697
6.14317	21.2095
6.1359	21.0692
6.12864	20.9438
6.12141	21.2919
6.11419	21.804
6.10699	21.5288
6.0998	21.1664
6.09263	21.1428
6.08549	21.1722
6.07835	21.4921
6.07123	21.5914
6.06413	21.2717
6.05705	21.5988
6.04998	22.6045
6.04293	22.0306
6.0359	21.2439
6.02888	21.0698
6.02187	21.1208
6.01489	21.2629
6.00792	21.1341
6.00096	21.0632
5.99403	21.2337
5.98711	21.2134
5.9802	20.9036
5.97331	20.9259
5.96644	20.9147
5.95958	20.5251
5.95274	20.368
5.94591	20.4402
5.9391	20.8679
5.9323	20.4453
5.92552	19.6576
5.91876	19.2956
5.91201	18.9761
5.90528	18.8598
5.89856	19.0403
5.89186	18.5004
5.88517	18.1589
5.8785	17.8431
5.87184	16.919
5.8652	16.4439
5.85857	15.9357
5.85196	15.414
5.84536	14.9331
5.83878	14.5788
5.83221	14.288
5.82566	14.061
5.81912	13.6345
5.81259	12.973
5.80608	12.54
5.79959	12.2129
5.79311	11.8773
5.78665	11.5824
5.78019	11.3288
5.77376	11.2356
5.76734	11.2532
5.76093	10.7695
5.75453	10.3633
5.74815	10.2664
5.74179	10.0578
5.73543	9.8383
5.7291	9.54214
5.72277	9.44071
5.71646	9.36411
5.71017	9.17906
5.70389	8.94599
5.69762	8.871
5.69136	8.83677
5.68513	8.66872
5.6789	8.66024
5.67268	8.60731
5.66648	8.49609
5.6603	8.48502
5.65413	8.45316
5.64797	8.4964
5.64182	8.57562
5.63569	8.4595
5.62957	8.37545
5.62347	8.36052
5.61737	8.36847
5.61129	8.34251
5.60522	8.3673
5.59917	8.49828
5.59313	8.61853
5.5871	8.65099
5.58109	8.66751
5.57509	8.73891
5.5691	8.69201
5.56312	8.68552
5.55716	8.74656
5.55121	8.7821
5.54528	8.75285
5.53935	8.74119
5.53344	8.76715
5.52754	8.81531
5.52166	8.84216
5.51578	8.91086
5.50992	8.97539
5.50407	9.06695
5.49823	9.09377
5.49241	9.185
5.4866	9.33644
5.4808	9.47403
5.47501	9.62864
5.46923	9.84623
5.46347	10.0293
5.45772	10.1527
5.45198	10.2226
5.44625	10.2893
5.44054	10.3789
5.43484	10.4799
5.42914	10.6418
5.42347	10.9301
5.4178	11.0485
5.41214	11.0604
5.4065	11.1419
5.40087	11.2694
5.39525	11.4568
5.38964	11.5855
5.38404	11.7401
5.37846	11.918
5.37288	12.1003
5.36732	12.261
5.36177	12.3238
5.35623	12.418
5.35071	12.5866
5.34519	12.5434
5.33968	12.3808
5.33419	12.3919
5.32871	12.5167
5.32324	12.5268
5.31778	12.516
5.31233	12.5602
5.30689	12.5927
5.30147	12.6449
5.29605	12.7122
5.29065	12.7351
5.28525	12.7126
5.27987	12.7808
5.2745	12.8149
5.26914	12.8609
5.26379	12.9639
5.25845	13.0296
5.25312	13.0973
5.24781	13.2676
5.2425	13.4643
5.23721	13.5633
5.23192	13.6298
5.22665	13.7171
5.22138	13.9103
5.21613	14.1641
5.21089	14.2934
5.20566	14.4094
5.20044	14.606
5.19522	14.7719
5.19002	14.9641
5.18483	15.0886
5.17965	15.1719
5.17448	15.3352
5.16933	15.5631
5.16418	15.7636
5.15904	16.0104
5.15391	16.2655
5.14879	16.5004
5.14368	16.7394
5.13859	16.9822
5.1335	17.2932
5.12842	17.5715
5.12335	17.7638
5.1183	18.0116
5.11325	18.3772
5.10821	18.6869
5.10318	19.0054
5.09817	19.3114
5.09316	19.6329
5.08816	20.0045
5.08317	20.3924
5.07819	20.7082
5.07322	20.9918
5.06826	21.3416
5.06331	21.6159
5.05837	21.9864
5.05344	22.3719
5.04852	22.7437
5.04361	23.0987
5.03871	23.3973
5.03382	23.6756
5.02894	23.9408
5.02406	24.2394
5.0192	24.5389
5.01435	24.8006
5.0095	24.9083
5.00467	24.9993
4.99984	25.208
4.99502	25.4538
4.99021	25.6401
4.98542	25.7252
4.98063	25.785
4.97585	25.8959
4.97108	26.0113
4.96632	26.2009
4.96156	26.41
4.95682	26.5438
4.95209	26.6197
4.94736	26.7158
4.94264	26.8619
4.93794	27.02
4.93324	27.2106
4.92855	27.3174
4.92387	27.3532
4.9192	27.3946
4.91453	27.4851
4.90988	27.6077
4.90524	27.7721
4.9006	27.893
4.89597	27.9087
4.89135	28.0353
4.88674	28.1793
4.88214	28.2225
4.87755	28.2447
4.87296	28.3425
4.86839	28.4307
4.86382	28.471
4.85926	28.452
4.85471	28.465
4.85017	28.5373
4.84564	28.5798
4.84111	28.657
4.8366	28.7893
4.83209	28.8994
4.82759	29.0113
4.8231	29.0424
4.81862	29.0207
4.81415	29.0619
4.80968	29.228
4.80522	29.3852
4.80077	29.474
4.79633	29.5272
4.7919	29.6219
4.78747	29.693
4.78306	29.8254
4.77865	29.9678
4.77425	30.0434
4.76986	30.0285
4.76547	30.0833
4.7611	30.241
4.75673	30.3972
4.75237	30.488
4.74802	30.5777
4.74367	30.6601
4.73934	30.6427
4.73501	30.745
4.73069	30.9037
4.72638	30.956
4.72207	30.9708
4.71777	31.0494
4.71348	31.0762
4.7092	31.1374
4.70493	31.2311
4.70066	31.3482
4.69641	31.4325
4.69216	31.4796
4.68791	31.515
4.68368	31.5434
4.67945	31.6191
4.67523	31.7162
4.67102	31.7562
4.66682	31.7412
4.66262	31.8273
4.65843	31.8736
4.65425	31.9789
4.65007	32.0842
4.64591	32.1508
4.64175	32.2152
4.6376	32.2817
4.63345	32.3768
4.62932	32.4109
4.62519	32.4408
4.62106	32.5334
4.61695	32.6066
4.61284	32.6964
4.60874	32.7575
4.60465	32.8345
4.60056	32.899
4.59648	32.9601
4.59241	33.0138
4.58835	33.0088
4.58429	33.0456
4.58024	33.2033
4.5762	33.2679
4.57216	33.3097
4.56814	33.367
4.56411	33.4539
4.5601	33.4915
4.55609	33.4968
4.55209	33.5504
4.5481	33.6904
4.54411	33.7449
4.54013	33.7472
4.53616	33.8164
4.5322	33.9122
4.52824	33.9047
4.52429	33.8786
4.52034	34.0071
4.51641	34.1917
4.51247	34.2358
4.50855	34.3173
4.50463	34.4176
4.50072	34.3948
4.49682	34.3939
4.49292	34.4806
4.48903	34.4748
4.48515	34.5003
4.48127	34.6307
4.4774	34.7292
4.47354	34.8171
4.46968	34.8505
4.46584	34.8376
4.46199	34.9089
4.45815	35.0391
4.45432	35.0593
4.4505	35.0074
4.44668	35.1339
4.44287	35.2762
4.43907	35.2971
4.43527	35.3631
4.43148	35.4116
4.4277	35.4613
4.42392	35.5381
4.42015	35.6248
4.41638	35.6429
4.41262	35.676
4.40887	35.716
4.40513	35.7704
4.40139	35.8444
4.39765	35.9268
4.39393	35.953
4.39021	35.9777
4.38649	36.0931
4.38278	36.182
4.37908	36.1995
4.37539	36.2788
4.3717	36.3898
4.36801	36.4715
4.36434	36.5178
4.36067	36.5751
4.357	36.636
4.35335	36.6976
4.34969	36.7648
4.34605	36.8986
4.34241	36.9292
4.33877	36.9203
4.33514	36.9891
4.33152	37.0207
4.32791	37.0764
4.3243	37.1642
4.32069	37.2676
4.3171	37.3606
4.31351	37.3462
4.30992	37.4037
4.30634	37.5129
4.30277	37.5645
4.2992	37.6268
4.29564	37.701
4.29208	37.7346
4.28853	37.8197
4.28499	37.9035
4.28145	37.9597
4.27792	38.0338
4.27439	38.0622
4.27087	38.0642
4.26735	38.1135
4.26384	38.245
4.26034	38.3232
4.25684	38.4193
4.25335	38.5221
4.24986	38.5581
4.24638	38.5415
4.24291	38.6336
4.23944	38.774
4.23598	38.8224
4.23252	38.8049
4.22906	38.8815
4.22562	38.9396
4.22218	38.905
4.21874	38.9714
4.21531	39.073
4.21189	39.1252
4.20847	39.1203
4.20506	39.1405
4.20165	39.2186
4.19825	39.278
4.19485	39.3711
4.19146	39.4024
4.18807	39.4593
4.18469	39.5182
4.18132	39.5438
4.17795	39.5928
4.17458	39.7033
4.17123	39.8115
4.16787	39.8789
4.16453	39.9324
4.16118	40.0323
4.15785	40.1171
4.15451	40.1421
4.15119	40.0731
4.14787	40.1514
4.14455	40.2773
4.14124	40.3699
4.13794	40.4138
4.13464	40.469
4.13134	40.5337
4.12805	40.62
4.12477	40.6536
4.12149	40.6883
4.11822	40.7719
4.11495	40.8133
4.11168	40.8054
4.10843	40.8516
4.10517	40.9384
4.10192	41.0145
4.09868	41.0971
4.09545	41.1213
4.09221	41.1747
4.08899	41.2609
4.08576	41.327
4.08255	41.383
4.07933	41.4012
4.07613	41.4431
4.07292	41.5265
4.06973	41.6162
4.06654	41.6642
4.06335	41.691
4.06017	41.783
4.05699	41.8755
4.05382	41.8808
4.05065	41.9171
4.04749	41.9399
4.04433	41.9217
4.04118	41.9564
4.03803	42.1084
4.03489	42.1717
4.03175	42.1357
4.02862	42.1992
4.02549	42.3239
4.02237	42.3132
4.01925	42.2968
4.01614	42.3144
4.01303	42.3501
4.00993	42.4306
4.00683	42.5071
4.00373	42.4881
4.00064	42.4846
3.99756	42.5212
3.99448	42.6049
3.9914	42.5975
3.98833	42.5643
3.98527	42.6563
3.98221	42.6915
3.97915	42.627
3.9761	42.6286
3.97305	42.6884
3.97001	42.7064
3.96697	42.702
3.96394	42.7885
3.96091	42.8383
3.95789	42.8449
3.95487	42.8661
3.95186	42.9518
3.94885	42.9935
3.94584	43.0641
3.94284	43.2141
3.93984	43.2859
3.93685	43.2682
3.93386	43.272
3.93088	43.2766
3.9279	43.3245
3.92493	43.3709
3.92196	43.4133
3.919	43.4678
3.91604	43.5108
3.91308	43.528
3.91013	43.5473
3.90718	43.5992
3.90424	43.6566
3.9013	43.6996
3.89837	43.7252
3.89544	43.7026
3.89252	43.7846
3.8896	43.8496
3.88668	43.8873
3.88377	43.9368
3.88086	43.9507
3.87796	43.8632
3.87506	43.8735
3.87217	43.9493
3.86928	44.0044
3.86639	44.0232
3.86351	44.0333
3.86064	44.0456
3.85776	44.0515
3.8549	44.1233
3.85203	44.1742
3.84917	44.1747
3.84631	44.1299
3.84346	44.1354
3.84062	44.2945
3.83777	44.3821
3.83494	44.3432
3.8321	44.2729
3.82927	44.2556
3.82644	44.3244
3.82362	44.373
3.82081	44.3803
3.81799	44.3493
3.81518	44.3151
3.81238	44.3431
3.80958	44.3666
3.80678	44.4072
3.80399	44.4445
3.8012	44.4847
3.79841	44.5781
3.79563	44.6548
3.79286	44.661
3.79008	44.7182
3.78731	44.8201
3.78455	44.9037
3.78179	44.9675
3.77903	45.0097
3.77628	45.0572
3.77353	45.1432
3.77079	45.198
3.76805	45.2592
3.76531	45.2853
3.76258	45.2834
3.75985	45.397
3.75713	45.4737
3.7544	45.5399
3.75169	45.6394
3.74898	45.6026
3.74627	45.5841
3.74356	45.6288
3.74086	45.7295
3.73816	45.8157
3.73547	45.8536
3.73278	45.8806
3.7301	45.8539
3.72741	45.906
3.72474	45.9863
3.72206	46.0355
3.71939	46.1008
3.71673	46.1314
3.71406	46.2194
3.71141	46.2444
3.70875	46.3417
3.7061	46.4643
3.70345	46.5163
3.70081	46.5204
3.69817	46.5851
3.69553	46.5685
3.6929	46.6158
3.69027	46.7186
3.68765	46.7108
3.68503	46.7497
3.68241	46.782
3.6798	46.8412
3.67719	46.9098
3.67458	46.9002
3.67198	46.989
3.66938	47.0956
3.66678	47.1732
3.66419	47.1764
3.66161	47.1349
3.65902	47.1781
3.65644	47.2888
3.65387	47.3817
3.65129	47.4216
3.64872	47.3727
3.64616	47.377
3.64359	47.4473
3.64103	47.5663
3.63848	47.6248
3.63593	47.584
3.63338	47.5701
3.63084	47.6254
3.6283	47.6711
3.62576	47.7241
3.62322	47.7513
3.62069	47.7557
3.61817	47.7411
3.61564	47.7624
3.61312	47.7908
3.61061	47.827
3.6081	47.9164
3.60559	47.9983
3.60308	48.0233
3.60058	48.0864
3.59808	48.17
3.59558	48.1508
3.59309	48.1382
3.59061	48.1461
3.58812	48.1862
3.58564	48.2746
3.58316	48.2622
3.58069	48.233
3.57822	48.2423
3.57575	48.354
3.57328	48.4562
3.57082	48.3969
3.56836	48.3898
3.56591	48.4495
3.56346	48.4681
3.56101	48.4979
3.55857	48.5407
3.55613	48.5862
3.55369	48.6025
3.55126	48.6352
3.54883	48.6294
3.5464	48.5573
3.54397	48.59
3.54155	48.6822
3.53914	48.7542
3.53672	48.8122
3.53431	48.8212
3.5319	48.7805
3.5295	48.7545
3.5271	48.7385
3.5247	48.7335
3.52231	48.7952
3.51991	48.9451
3.51753	48.955
3.51514	48.8236
3.51276	48.8286
3.51038	48.8401
3.50801	48.8216
3.50563	48.8112
3.50327	48.7879
3.5009	48.7897
3.49854	48.78
3.49618	48.774
3.49382	48.7712
3.49147	48.8124
3.48912	48.8604
3.48677	48.8256
3.48443	48.7579
3.48209	48.7339
3.47975	48.7204
3.47742	48.7744
3.47509	48.8997
3.47276	48.9752
3.47044	48.9571
3.46812	48.9348
3.4658	48.8992
