Name: Strontianite SrCO_3
Type: Mineral
Class: Carbonates
Subclass: 
Particle Size: 45-125um
Sample No.: C-1A
Owner: JPL
Wavelength range: VNIR-SWIR
Origin: Germany, Westphalia, Hamm.
Collected by:  Ward's
Description: 





Measurement: Hemispherical reflectance
First Column: X
Second Column: Y
X Units: Wavelength (micrometers)
Y Units: Reflectance (percent)
First X Value: 2.500
Last X Value: 0.400
Number of X Values: 2101
Additional information: c01aa.txt

2.500  58.131860
2.499  58.061467
2.498  58.007458
2.497  58.389776
2.496  58.194759
2.495  58.640333
2.494  58.682350
2.493  58.653579
2.492  58.707276
2.491  58.869581
2.490  59.049263
2.489  59.309787
2.488  59.394282
2.487  59.659721
2.486  59.904588
2.485  60.134011
2.484  60.509525
2.483  60.664725
2.482  61.053398
2.481  61.378858
2.480  61.756607
2.479  61.989879
2.478  62.414180
2.477  62.855287
2.476  63.154770
2.475  63.491388
2.474  63.848527
2.473  64.265415
2.472  64.653717
2.471  65.142470
2.470  65.541653
2.469  65.865303
2.468  66.316168
2.467  66.568178
2.466  67.163335
2.465  67.706887
2.464  67.863852
2.463  68.302689
2.462  68.743029
2.461  69.015863
2.460  69.427364
2.459  69.807777
2.458  70.154971
2.457  70.523277
2.456  70.778631
2.455  71.122335
2.454  71.352601
2.453  71.852128
2.452  71.905681
2.451  72.139871
2.450  72.342195
2.449  72.646869
2.448  72.951581
2.447  73.242525
2.446  73.371253
2.445  73.586485
2.444  73.768297
2.443  74.009533
2.442  74.104046
2.441  74.291098
2.440  74.510787
2.439  74.649485
2.438  74.656997
2.437  74.814120
2.436  74.956086
2.435  75.080201
2.434  75.222015
2.433  75.304748
2.432  75.468357
2.431  75.521534
2.430  75.609433
2.429  75.669034
2.428  75.820523
2.427  75.974342
2.426  76.046003
2.425  76.145766
2.424  76.125635
2.423  76.155969
2.422  76.283357
2.421  76.402116
2.420  76.429435
2.419  76.542840
2.418  76.607718
2.417  76.659970
2.416  76.697642
2.415  76.747031
2.414  76.774340
2.413  76.860006
2.412  76.877848
2.411  76.948088
2.410  77.094676
2.409  77.101519
2.408  77.054471
2.407  77.086756
2.406  77.076223
2.405  77.093985
2.404  77.104261
2.403  77.052635
2.402  76.979928
2.401  76.975697
2.400  76.912737
2.399  76.858211
2.398  76.777798
2.397  76.604947
2.396  76.536515
2.395  76.476204
2.394  76.344961
2.393  76.180458
2.392  76.034393
2.391  75.849392
2.390  75.595847
2.389  75.308710
2.388  75.010463
2.387  74.721864
2.386  74.386783
2.385  74.086256
2.384  73.805053
2.383  73.448197
2.382  73.031438
2.381  72.609727
2.380  72.178929
2.379  71.672611
2.378  71.189669
2.377  70.707642
2.376  70.226547
2.375  69.703892
2.374  69.199723
2.373  68.692264
2.372  68.184950
2.371  67.624232
2.370  67.042706
2.369  66.553722
2.368  66.052260
2.367  65.533032
2.366  64.984643
2.365  64.497006
2.364  64.036536
2.363  63.576008
2.362  63.072452
2.361  62.606915
2.360  62.219905
2.359  61.828786
2.358  61.446937
2.357  61.077017
2.356  60.692092
2.355  60.323493
2.354  60.048347
2.353  59.751950
2.352  59.517622
2.351  59.271383
2.350  59.037035
2.349  58.885826
2.348  58.788310
2.347  58.647693
2.346  58.517841
2.345  58.478111
2.344  58.533525
2.343  58.587021
2.342  58.610284
2.341  58.713747
2.340  58.891157
2.339  59.013886
2.338  59.224187
2.337  59.525964
2.336  59.731090
2.335  60.036417
2.334  60.354542
2.333  60.619277
2.332  60.945486
2.331  61.206438
2.330  61.545744
2.329  61.852191
2.328  62.110144
2.327  62.475514
2.326  62.760067
2.325  63.038885
2.324  63.284998
2.323  63.548585
2.322  63.857760
2.321  64.141052
2.320  64.372425
2.319  64.536862
2.318  64.747268
2.317  64.998068
2.316  65.197737
2.315  65.345433
2.314  65.581860
2.313  65.806332
2.312  65.952173
2.311  66.157690
2.310  66.363912
2.309  66.517847
2.308  66.731007
2.307  66.930265
2.306  67.136485
2.305  67.319574
2.304  67.426568
2.303  67.561832
2.302  67.788343
2.301  68.006232
2.300  68.115544
2.299  68.233729
2.298  68.387188
2.297  68.535885
2.296  68.673459
2.295  68.842344
2.294  69.042986
2.293  69.121432
2.292  69.368933
2.291  69.531128
2.290  69.727309
2.289  69.846725
2.288  70.039386
2.287  70.174341
2.286  70.411236
2.285  70.491775
2.284  70.704598
2.283  70.914642
2.282  71.055263
2.281  71.227904
2.280  71.433740
2.279  71.660581
2.278  71.790175
2.277  71.946211
2.276  72.200955
2.275  72.403296
2.274  72.557146
2.273  72.792557
2.272  72.904460
2.271  73.120156
2.270  73.366719
2.269  73.515269
2.268  73.727138
2.267  73.939950
2.266  74.161411
2.265  74.323990
2.264  74.506803
2.263  74.725107
2.262  74.906661
2.261  75.062255
2.260  75.303418
2.259  75.418500
2.258  75.638230
2.257  75.785707
2.256  76.090327
2.255  76.243768
2.254  76.359096
2.253  76.536557
2.252  76.706051
2.251  76.876913
2.250  76.958208
2.249  77.227743
2.248  77.386592
2.247  77.581058
2.246  77.721743
2.245  77.814232
2.244  78.109923
2.243  78.152877
2.242  78.370429
2.241  78.487204
2.240  78.657784
2.239  78.748155
2.238  78.939665
2.237  79.080916
2.236  79.234749
2.235  79.333613
2.234  79.440002
2.233  79.667425
2.232  79.816589
2.231  79.839547
2.230  80.055733
2.229  80.237133
2.228  80.325175
2.227  80.442396
2.226  80.509167
2.225  80.652990
2.224  80.820542
2.223  80.925768
2.222  81.039320
2.221  81.121154
2.220  81.358010
2.219  81.418554
2.218  81.495247
2.217  81.604028
2.216  81.771761
2.215  81.858022
2.214  82.043938
2.213  82.079484
2.212  82.275164
2.211  82.271567
2.210  82.467711
2.209  82.474287
2.208  82.547454
2.207  82.608199
2.206  82.845289
2.205  82.851122
2.204  82.834431
2.203  82.915769
2.202  83.031837
2.201  83.031074
2.200  83.009898
2.199  83.020819
2.198  83.000272
2.197  82.946891
2.196  82.941403
2.195  82.808475
2.194  82.695832
2.193  82.742774
2.192  82.689115
2.191  82.535562
2.190  82.415151
2.189  82.376907
2.188  82.302446
2.187  82.232247
2.186  82.141525
2.185  82.000155
2.184  81.965223
2.183  81.885830
2.182  81.871142
2.181  81.769870
2.180  81.725716
2.179  81.706488
2.178  81.703571
2.177  81.667263
2.176  81.748228
2.175  81.742437
2.174  81.804244
2.173  81.870213
2.172  81.996861
2.171  82.083922
2.170  82.288908
2.169  82.414089
2.168  82.699115
2.167  82.784580
2.166  83.016892
2.165  83.278834
2.164  83.420853
2.163  83.655872
2.162  83.879864
2.161  84.026836
2.160  84.223018
2.159  84.407318
2.158  84.529798
2.157  84.734226
2.156  84.891656
2.155  84.980159
2.154  85.114374
2.153  85.187314
2.152  85.389422
2.151  85.494812
2.150  85.549452
2.149  85.638648
2.148  85.679902
2.147  85.783407
2.146  85.908559
2.145  85.942540
2.144  86.058426
2.143  86.027968
2.142  86.136737
2.141  86.165550
2.140  86.176939
2.139  86.302893
2.138  86.304475
2.137  86.304402
2.136  86.337728
2.135  86.324318
2.134  86.355247
2.133  86.417750
2.132  86.382662
2.131  86.409130
2.130  86.389291
2.129  86.409387
2.128  86.402448
2.127  86.359675
2.126  86.389816
2.125  86.413761
2.124  86.294667
2.123  86.296412
2.122  86.314224
2.121  86.268337
2.120  86.246448
2.119  86.320271
2.118  86.295139
2.117  86.237603
2.116  86.252470
2.115  86.272918
2.114  86.232740
2.113  86.206103
2.112  86.245301
2.111  86.243383
2.110  86.221441
2.109  86.222415
2.108  86.165424
2.107  86.171790
2.106  86.197069
2.105  86.184241
2.104  86.165316
2.103  86.186835
2.102  86.157485
2.101  86.090223
2.100  86.106379
2.099  86.119473
2.098  86.107789
2.097  86.108826
2.096  86.176757
2.095  86.269673
2.094  86.276954
2.093  86.277682
2.092  86.282720
2.091  86.317533
2.090  86.381033
2.089  86.439206
2.088  86.449026
2.087  86.370747
2.086  86.370962
2.085  86.468528
2.084  86.463799
2.083  86.484100
2.082  86.572602
2.081  86.553915
2.080  86.569269
2.079  86.608630
2.078  86.605857
2.077  86.619154
2.076  86.626529
2.075  86.608824
2.074  86.605673
2.073  86.648008
2.072  86.733993
2.071  86.712406
2.070  86.646552
2.069  86.660931
2.068  86.692426
2.067  86.683778
2.066  86.735597
2.065  86.786048
2.064  86.801833
2.063  86.744766
2.062  86.749526
2.061  86.775734
2.060  86.774349
2.059  86.801769
2.058  86.836894
2.057  86.797167
2.056  86.771465
2.055  86.784532
2.054  86.778894
2.053  86.816970
2.052  86.758506
2.051  86.731652
2.050  86.723256
2.049  86.717661
2.048  86.752543
2.047  86.721637
2.046  86.628064
2.045  86.573319
2.044  86.528760
2.043  86.498609
2.042  86.435005
2.041  86.372848
2.040  86.273438
2.039  86.157337
2.038  86.164999
2.037  86.028384
2.036  85.842768
2.035  85.764775
2.034  85.609310
2.033  85.464800
2.032  85.314872
2.031  85.143440
2.030  84.998907
2.029  84.816330
2.028  84.621714
2.027  84.414025
2.026  84.172834
2.025  84.009032
2.024  83.778968
2.023  83.542457
2.022  83.307805
2.021  83.075067
2.020  82.850595
2.019  82.709902
2.018  82.549031
2.017  82.512111
2.016  82.413751
2.015  82.339528
2.014  82.385499
2.013  82.450040
2.012  82.490646
2.011  82.621173
2.010  82.789107
2.009  82.900473
2.008  83.043650
2.007  83.155496
2.006  83.240470
2.005  83.415117
2.004  83.550667
2.003  83.697647
2.002  83.833260
2.001  83.977547
2.000  84.103168
1.999  84.157751
1.998  84.291674
1.997  84.378989
1.996  84.432627
1.995  84.533728
1.994  84.598234
1.993  84.657840
1.992  84.797860
1.991  84.724660
1.990  84.789708
1.989  84.769116
1.988  84.879584
1.987  84.908610
1.986  84.868710
1.985  84.935204
1.984  84.933926
1.983  84.937167
1.982  84.964805
1.981  84.901429
1.980  85.005354
1.979  85.056815
1.978  85.083299
1.977  85.037661
1.976  85.030053
1.975  84.976469
1.974  84.958182
1.973  84.936020
1.972  85.023355
1.971  85.065963
1.970  85.094497
1.969  85.095697
1.968  85.083158
1.967  85.154002
1.966  85.182551
1.965  85.226634
1.964  85.296557
1.963  85.312824
1.962  85.333466
1.961  85.435873
1.960  85.474272
1.959  85.531990
1.958  85.509118
1.957  85.585318
1.956  85.642005
1.955  85.589724
1.954  85.583127
1.953  85.664590
1.952  85.729046
1.951  85.645683
1.950  85.729037
1.949  85.718098
1.948  85.646944
1.947  85.706258
1.946  85.746340
1.945  85.729445
1.944  85.733002
1.943  85.725991
1.942  85.755867
1.941  85.794238
1.940  85.739980
1.939  85.721856
1.938  85.856047
1.937  85.810728
1.936  85.819058
1.935  85.835978
1.934  85.821778
1.933  85.811039
1.932  85.859549
1.931  85.857668
1.930  85.788086
1.929  85.893055
1.928  85.769523
1.927  85.903002
1.926  85.779898
1.925  85.887176
1.924  85.891751
1.923  85.936538
1.922  85.852096
1.921  85.873253
1.920  85.830348
1.919  85.932691
1.918  85.825702
1.917  85.964573
1.916  85.766887
1.915  85.857987
1.914  85.863968
1.913  85.881295
1.912  85.807172
1.911  85.761646
1.910  85.727026
1.909  85.643191
1.908  85.563782
1.907  85.532715
1.906  85.403321
1.905  85.403004
1.904  85.301060
1.903  85.214398
1.902  85.024089
1.901  85.019571
1.900  84.856186
1.899  84.750230
1.898  84.665828
1.897  84.580566
1.896  84.491867
1.895  84.448174
1.894  84.328547
1.893  84.244673
1.892  84.302199
1.891  84.234701
1.890  84.149135
1.889  84.136307
1.888  84.081715
1.887  84.105393
1.886  84.113261
1.885  84.140653
1.884  84.278194
1.883  84.292915
1.882  84.439756
1.881  84.565493
1.880  84.611474
1.879  84.752285
1.878  84.813733
1.877  84.971120
1.876  85.073592
1.875  85.248386
1.874  85.344289
1.873  85.474054
1.872  85.628373
1.871  85.760584
1.870  85.889289
1.869  86.097683
1.868  86.168749
1.867  86.187819
1.866  86.274910
1.865  86.395951
1.864  86.466007
1.863  86.660157
1.862  86.760898
1.861  86.774537
1.860  86.829054
1.859  86.832286
1.858  86.816760
1.857  86.830251
1.856  86.875070
1.855  86.967763
1.854  87.047942
1.853  87.057127
1.852  87.044504
1.851  87.190908
1.850  87.208383
1.849  87.214336
1.848  87.276903
1.847  87.350568
1.846  87.306254
1.845  87.328667
1.844  87.358256
1.843  87.418749
1.842  87.497048
1.841  87.532392
1.840  87.513855
1.839  87.495599
1.838  87.576011
1.837  87.611849
1.836  87.676672
1.835  87.729816
1.834  87.858892
1.833  87.894346
1.832  87.891398
1.831  87.963989
1.830  87.988809
1.829  88.021718
1.828  88.073337
1.827  88.101775
1.826  88.130396
1.825  88.150670
1.824  88.196210
1.823  88.244676
1.822  88.206052
1.821  88.230720
1.820  88.260414
1.819  88.355086
1.818  88.361624
1.817  88.343650
1.816  88.421343
1.815  88.422528
1.814  88.391671
1.813  88.453209
1.812  88.501180
1.811  88.564063
1.810  88.564020
1.809  88.513181
1.808  88.529055
1.807  88.596770
1.806  88.585200
1.805  88.602602
1.804  88.661561
1.803  88.718499
1.802  88.757821
1.801  88.735169
1.800  88.702540
1.799  88.726744
1.798  88.780191
1.797  88.771356
1.796  88.725066
1.795  88.758049
1.794  88.758267
1.793  88.742715
1.792  88.738112
1.791  88.714290
1.790  88.675298
1.789  88.650522
1.788  88.646603
1.787  88.635581
1.786  88.599275
1.785  88.579685
1.784  88.595102
1.783  88.508601
1.782  88.402720
1.781  88.446830
1.780  88.467123
1.779  88.385592
1.778  88.354941
1.777  88.346488
1.776  88.303215
1.775  88.254048
1.774  88.244809
1.773  88.236730
1.772  88.227489
1.771  88.223294
1.770  88.203260
1.769  88.214909
1.768  88.169819
1.767  88.182304
1.766  88.226570
1.765  88.242666
1.764  88.279390
1.763  88.306083
1.762  88.277514
1.761  88.300477
1.760  88.331041
1.759  88.296825
1.758  88.255620
1.757  88.240343
1.756  88.263494
1.755  88.226894
1.754  88.239226
1.753  88.303180
1.752  88.275943
1.751  88.265348
1.750  88.273628
1.749  88.267056
1.748  88.235540
1.747  88.253892
1.746  88.293953
1.745  88.275997
1.744  88.281718
1.743  88.337975
1.742  88.319538
1.741  88.319763
1.740  88.369173
1.739  88.346282
1.738  88.338045
1.737  88.323352
1.736  88.374666
1.735  88.423619
1.734  88.346957
1.733  88.360317
1.732  88.437398
1.731  88.483472
1.730  88.473698
1.729  88.449423
1.728  88.499636
1.727  88.483989
1.726  88.433218
1.725  88.516407
1.724  88.529514
1.723  88.486631
1.722  88.554868
1.721  88.542793
1.720  88.508869
1.719  88.482017
1.718  88.537631
1.717  88.631837
1.716  88.637893
1.715  88.625550
1.714  88.639186
1.713  88.639645
1.712  88.683663
1.711  88.690093
1.710  88.564200
1.709  88.619306
1.708  88.689849
1.707  88.687885
1.706  88.703836
1.705  88.747005
1.704  88.673220
1.703  88.727222
1.702  88.756358
1.701  88.744646
1.700  88.744136
1.699  88.795017
1.698  88.792445
1.697  88.673899
1.696  88.758050
1.695  88.817568
1.694  88.826021
1.693  88.817927
1.692  88.715222
1.691  88.794978
1.690  88.802353
1.689  88.793849
1.688  88.912353
1.687  88.774043
1.686  88.756084
1.685  88.880087
1.684  88.850252
1.683  88.809280
1.682  88.839825
1.681  88.820834
1.680  88.781979
1.679  88.774922
1.678  88.815499
1.677  88.726430
1.676  88.752924
1.675  88.761643
1.674  88.834598
1.673  88.796070
1.672  88.776561
1.671  88.791903
1.670  88.851688
1.669  88.813277
1.668  88.809561
1.667  88.787799
1.666  88.732770
1.665  88.749219
1.664  88.810999
1.663  88.858563
1.662  88.789155
1.661  88.767842
1.660  88.915012
1.659  88.917788
1.658  88.888384
1.657  89.029686
1.656  88.905612
1.655  88.924709
1.654  88.817243
1.653  88.979956
1.652  88.996182
1.651  88.943924
1.650  88.985897
1.649  88.995414
1.648  88.917000
1.647  88.973650
1.646  88.939323
1.645  88.974119
1.644  89.061490
1.643  88.870790
1.642  88.953753
1.641  88.952354
1.640  88.932594
1.639  88.938587
1.638  88.966838
1.637  88.922545
1.636  88.948013
1.635  89.022045
1.634  88.893880
1.633  88.971468
1.632  88.985942
1.631  88.931811
1.630  88.924587
1.629  89.021589
1.628  89.000632
1.627  88.977859
1.626  88.966874
1.625  88.919753
1.624  88.978809
1.623  89.032136
1.622  89.014204
1.621  89.004089
1.620  89.013286
1.619  89.071515
1.618  89.012636
1.617  89.058432
1.616  89.056281
1.615  89.030658
1.614  89.067630
1.613  89.116545
1.612  89.014405
1.611  89.040479
1.610  88.944556
1.609  88.986793
1.608  89.056848
1.607  89.035501
1.606  88.966766
1.605  88.985905
1.604  89.061243
1.603  89.073717
1.602  89.094728
1.601  89.049227
1.600  89.091720
1.599  89.007574
1.598  88.990095
1.597  89.000545
1.596  88.991285
1.595  88.984120
1.594  89.025081
1.593  88.963381
1.592  88.914693
1.591  88.956703
1.590  88.996110
1.589  88.920398
1.588  88.901998
1.587  88.819033
1.586  88.854035
1.585  88.907694
1.584  88.843767
1.583  88.875202
1.582  88.860488
1.581  88.840747
1.580  88.800934
1.579  88.761880
1.578  88.825361
1.577  88.818619
1.576  88.786642
1.575  88.843553
1.574  88.794239
1.573  88.827652
1.572  88.822221
1.571  88.804407
1.570  88.822432
1.569  88.832621
1.568  88.834220
1.567  88.837314
1.566  88.841386
1.565  88.848170
1.564  88.903907
1.563  88.934564
1.562  88.909102
1.561  88.869728
1.560  88.907811
1.559  88.901537
1.558  88.908348
1.557  88.837020
1.556  88.869950
1.555  88.848594
1.554  88.866990
1.553  88.847453
1.552  88.856761
1.551  88.860318
1.550  88.850030
1.549  88.867844
1.548  88.825997
1.547  88.855700
1.546  88.850371
1.545  88.866939
1.544  88.890868
1.543  88.814086
1.542  88.800987
1.541  88.764939
1.540  88.813961
1.539  88.792584
1.538  88.806501
1.537  88.801728
1.536  88.793999
1.535  88.835814
1.534  88.799658
1.533  88.749631
1.532  88.797817
1.531  88.788392
1.530  88.792234
1.529  88.797189
1.528  88.828615
1.527  88.804965
1.526  88.827839
1.525  88.813509
1.524  88.762334
1.523  88.792393
1.522  88.820553
1.521  88.765883
1.520  88.751367
1.519  88.751498
1.518  88.722180
1.517  88.735953
1.516  88.766269
1.515  88.715203
1.514  88.725751
1.513  88.709977
1.512  88.724025
1.511  88.753301
1.510  88.694768
1.509  88.697059
1.508  88.728639
1.507  88.714641
1.506  88.693776
1.505  88.691391
1.504  88.678776
1.503  88.644242
1.502  88.650308
1.501  88.675655
1.500  88.690943
1.499  88.741597
1.498  88.710798
1.497  88.627620
1.496  88.581987
1.495  88.584731
1.494  88.603923
1.493  88.587604
1.492  88.578783
1.491  88.573194
1.490  88.577924
1.489  88.575057
1.488  88.609801
1.487  88.574742
1.486  88.534784
1.485  88.500735
1.484  88.531326
1.483  88.567216
1.482  88.541776
1.481  88.495529
1.480  88.483337
1.479  88.458908
1.478  88.468034
1.477  88.525544
1.476  88.514887
1.475  88.448517
1.474  88.456733
1.473  88.502251
1.472  88.504285
1.471  88.514870
1.470  88.490329
1.469  88.492820
1.468  88.511529
1.467  88.495976
1.466  88.444014
1.465  88.395091
1.464  88.441980
1.463  88.489879
1.462  88.475660
1.461  88.435855
1.460  88.444874
1.459  88.440790
1.458  88.472068
1.457  88.472568
1.456  88.474735
1.455  88.470921
1.454  88.456074
1.453  88.445810
1.452  88.451079
1.451  88.407592
1.450  88.363152
1.449  88.392135
1.448  88.440200
1.447  88.441229
1.446  88.422963
1.445  88.411703
1.444  88.401584
1.443  88.417491
1.442  88.372193
1.441  88.363192
1.440  88.429701
1.439  88.457852
1.438  88.457547
1.437  88.410229
1.436  88.413209
1.435  88.408068
1.434  88.370506
1.433  88.437362
1.432  88.441065
1.431  88.382818
1.430  88.321942
1.429  88.394041
1.428  88.434941
1.427  88.364378
1.426  88.328460
1.425  88.418422
1.424  88.431064
1.423  88.399390
1.422  88.394370
1.421  88.407949
1.420  88.295936
1.419  88.355719
1.418  88.334347
