Name: Travertine (Calcareous Tufa)
Type: Rock
Class: Sedimentary
Subclass:  Limestone 
Particle Size: Solid surface
Sample No.: Ward73.txt
Owner: JPL
Wavelength range:  VNIR SWIR IR 
Origin: Ward's Collection of American Rocks.  Sample locality - Mumford, Monroe County, New York.
Collected by:  Ward's Natural Science
Description: A buff porous carbonate rock.  Plant impressions a
occasionally present.
Geologic age - Pleistocene.



Measurement: Hemispherical reflectance
First Column: X
Second Column: Y
X Units: Wavelength (micrometers)
Y Units: Reflectance (percent)
First X Value: 2.500
Last X Value: 0.400
Number of X Values: 2101
Additional information: None

2.500  30.366718
2.499  30.138994
2.498  30.263350
2.497  30.612629
2.496  30.091062
2.495  30.623272
2.494  30.469418
2.493  30.681612
2.492  30.433014
2.491  30.814009
2.490  30.603551
2.489  31.019391
2.488  30.760967
2.487  30.908390
2.486  31.024922
2.485  31.124702
2.484  31.341449
2.483  31.425821
2.482  31.454303
2.481  31.638823
2.480  31.724523
2.479  31.706096
2.478  31.972506
2.477  32.095157
2.476  32.035137
2.475  32.393408
2.474  32.348794
2.473  32.462895
2.472  32.612882
2.471  33.041900
2.470  33.016824
2.469  33.171186
2.468  33.241891
2.467  33.547840
2.466  33.508342
2.465  33.785635
2.464  33.829243
2.463  34.138950
2.462  34.251675
2.461  34.538002
2.460  34.457573
2.459  34.647151
2.458  34.536047
2.457  35.011644
2.456  35.120186
2.455  35.340344
2.454  35.450090
2.453  35.486436
2.452  35.584072
2.451  35.859260
2.450  35.859756
2.449  35.945005
2.448  36.088262
2.447  36.284889
2.446  36.280229
2.445  36.559031
2.444  36.600329
2.443  36.795007
2.442  36.834474
2.441  37.009293
2.440  36.949566
2.439  37.088804
2.438  37.221098
2.437  37.356436
2.436  37.418639
2.435  37.626941
2.434  37.625753
2.433  37.753512
2.432  37.905554
2.431  37.940699
2.430  37.890905
2.429  38.034056
2.428  38.173568
2.427  38.313009
2.426  38.354602
2.425  38.515005
2.424  38.589500
2.423  38.761285
2.422  38.762090
2.421  38.887552
2.420  38.926567
2.419  39.120731
2.418  39.229345
2.417  39.324163
2.416  39.327676
2.415  39.395041
2.414  39.555980
2.413  39.652327
2.412  39.697037
2.411  39.777914
2.410  39.838769
2.409  39.907132
2.408  39.997205
2.407  40.094486
2.406  40.126501
2.405  40.303873
2.404  40.291158
2.403  40.404206
2.402  40.319982
2.401  40.398060
2.400  40.524087
2.399  40.604342
2.398  40.634594
2.397  40.710452
2.396  40.784400
2.395  40.894279
2.394  40.953005
2.393  41.001680
2.392  40.990891
2.391  41.068770
2.390  41.085925
2.389  41.113264
2.388  41.139323
2.387  41.271499
2.386  41.292991
2.385  41.286250
2.384  41.292817
2.383  41.314940
2.382  41.384336
2.381  41.364855
2.380  41.343585
2.379  41.371555
2.378  41.371919
2.377  41.385856
2.376  41.344879
2.375  41.271974
2.374  41.217548
2.373  41.185531
2.372  41.100310
2.371  40.992968
2.370  40.854285
2.369  40.788387
2.368  40.780423
2.367  40.656211
2.366  40.497630
2.365  40.407322
2.364  40.240739
2.363  40.079890
2.362  39.973609
2.361  39.754671
2.360  39.592979
2.359  39.458813
2.358  39.287416
2.357  39.119727
2.356  38.901862
2.355  38.714614
2.354  38.549709
2.353  38.369511
2.352  38.154848
2.351  37.958996
2.350  37.858092
2.349  37.713796
2.348  37.592292
2.347  37.493838
2.346  37.330481
2.345  37.228602
2.344  37.165042
2.343  37.055248
2.342  36.970876
2.341  36.934923
2.340  36.970735
2.339  36.963264
2.338  36.952463
2.337  36.949720
2.336  37.001185
2.335  37.051180
2.334  37.113532
2.333  37.171364
2.332  37.240185
2.331  37.317119
2.330  37.462446
2.329  37.524706
2.328  37.595914
2.327  37.767459
2.326  37.898993
2.325  37.964200
2.324  38.029511
2.323  38.085965
2.322  38.283563
2.321  38.468419
2.320  38.561762
2.319  38.592478
2.318  38.730328
2.317  38.809788
2.316  38.954208
2.315  39.002435
2.314  39.122930
2.313  39.199845
2.312  39.237329
2.311  39.281919
2.310  39.398965
2.309  39.504343
2.308  39.586866
2.307  39.598913
2.306  39.736587
2.305  39.802293
2.304  39.890090
2.303  39.910719
2.302  40.016774
2.301  40.051590
2.300  40.146446
2.299  40.161076
2.298  40.304363
2.297  40.375694
2.296  40.488389
2.295  40.507289
2.294  40.656119
2.293  40.681032
2.292  40.836168
2.291  40.877412
2.290  41.063729
2.289  41.148276
2.288  41.238355
2.287  41.275243
2.286  41.384485
2.285  41.580474
2.284  41.662105
2.283  41.746655
2.282  41.918876
2.281  42.003066
2.280  42.181640
2.279  42.221279
2.278  42.447861
2.277  42.485160
2.276  42.707347
2.275  42.774653
2.274  42.880862
2.273  42.983216
2.272  43.186941
2.271  43.260333
2.270  43.449029
2.269  43.516569
2.268  43.683290
2.267  43.775691
2.266  43.879566
2.265  43.883854
2.264  44.120526
2.263  44.182502
2.262  44.289389
2.261  44.391400
2.260  44.569165
2.259  44.544537
2.258  44.683003
2.257  44.724154
2.256  44.872295
2.255  44.880806
2.254  45.030867
2.253  45.101280
2.252  45.286186
2.251  45.320022
2.250  45.518247
2.249  45.531320
2.248  45.616898
2.247  45.649499
2.246  45.815989
2.245  45.842963
2.244  45.905152
2.243  45.886538
2.242  46.164931
2.241  46.141205
2.240  46.300722
2.239  46.238263
2.238  46.302412
2.237  46.326434
2.236  46.535857
2.235  46.453571
2.234  46.630139
2.233  46.645395
2.232  46.736348
2.231  46.710544
2.230  46.825657
2.229  46.909889
2.228  46.948528
2.227  46.848084
2.226  47.038708
2.225  46.959317
2.224  47.065872
2.223  46.938472
2.222  47.126708
2.221  47.079938
2.220  47.198847
2.219  47.129589
2.218  47.159192
2.217  47.182069
2.216  47.317548
2.215  47.241341
2.214  47.383636
2.213  47.338338
2.212  47.342789
2.211  47.209363
2.210  47.440086
2.209  47.309890
2.208  47.436747
2.207  47.389248
2.206  47.443078
2.205  47.415696
2.204  47.434335
2.203  47.460912
2.202  47.554281
2.201  47.484243
2.200  47.545544
2.199  47.395081
2.198  47.570795
2.197  47.483666
2.196  47.515817
2.195  47.462548
2.194  47.526530
2.193  47.507459
2.192  47.469531
2.191  47.422293
2.190  47.481953
2.189  47.401267
2.188  47.423818
2.187  47.384520
2.186  47.344360
2.185  47.392440
2.184  47.354603
2.183  47.306566
2.182  47.376602
2.181  47.318554
2.180  47.308378
2.179  47.260797
2.178  47.289462
2.177  47.207615
2.176  47.262305
2.175  47.138794
2.174  47.229828
2.173  47.186055
2.172  47.174137
2.171  47.131722
2.170  47.171889
2.169  47.082190
2.168  47.158983
2.167  47.024699
2.166  47.007084
2.165  47.039565
2.164  47.046779
2.163  47.000211
2.162  47.048329
2.161  47.005259
2.160  47.002682
2.159  46.971829
2.158  47.045919
2.157  47.014363
2.156  47.087181
2.155  46.979689
2.154  47.029435
2.153  47.066887
2.152  47.122566
2.151  47.030331
2.150  47.048702
2.149  47.031530
2.148  47.115004
2.147  47.071546
2.146  47.038392
2.145  47.031770
2.144  47.147636
2.143  47.126625
2.142  47.091330
2.141  47.140118
2.140  47.132408
2.139  47.083501
2.138  47.071678
2.137  47.054766
2.136  47.156766
2.135  47.109882
2.134  47.125030
2.133  47.079804
2.132  47.074214
2.131  47.070513
2.130  47.068669
2.129  46.976398
2.128  46.961990
2.127  46.889249
2.126  46.876194
2.125  46.875934
2.124  46.885870
2.123  46.800848
2.122  46.769205
2.121  46.881663
2.120  47.000977
2.119  46.663531
2.118  46.623660
2.117  46.528199
2.116  46.545580
2.115  46.467468
2.114  46.437205
2.113  46.373276
2.112  46.371347
2.111  46.313486
2.110  46.300513
2.109  46.277189
2.108  46.251332
2.107  46.108103
2.106  46.069736
2.105  46.045444
2.104  46.066070
2.103  46.002518
2.102  45.945275
2.101  45.934528
2.100  45.902240
2.099  45.859805
2.098  45.838394
2.097  45.831491
2.096  45.836790
2.095  45.780479
2.094  45.773195
2.093  45.756433
2.092  45.720000
2.091  45.755069
2.090  45.769500
2.089  45.774683
2.088  45.743827
2.087  45.688044
2.086  45.663436
2.085  45.646441
2.084  45.637431
2.083  45.609457
2.082  45.584171
2.081  45.555190
2.080  45.535605
2.079  45.526811
2.078  45.507934
2.077  45.501513
2.076  45.513917
2.075  45.455003
2.074  45.420175
2.073  45.360462
2.072  45.336458
2.071  45.400385
2.070  45.366095
2.069  45.340248
2.068  45.309484
2.067  45.277493
2.066  45.282890
2.065  45.258989
2.064  45.255187
2.063  45.217957
2.062  45.201689
2.061  45.149838
2.060  45.090310
2.059  45.116249
2.058  45.107037
2.057  45.092752
2.056  45.088597
2.055  45.025275
2.054  45.024609
2.053  44.981115
2.052  44.935297
2.051  44.954686
2.050  44.982991
2.049  44.966040
2.048  44.874605
2.047  44.835285
2.046  44.795446
2.045  44.810349
2.044  44.774262
2.043  44.750041
2.042  44.695791
2.041  44.708036
2.040  44.657498
2.039  44.722093
2.038  44.681303
2.037  44.635977
2.036  44.585653
2.035  44.588353
2.034  44.513947
2.033  44.490656
2.032  44.405999
2.031  44.383692
2.030  44.343246
2.029  44.366543
2.028  44.304687
2.027  44.242277
2.026  44.136536
2.025  44.157415
2.024  44.114301
2.023  44.090594
2.022  44.046208
2.021  43.974789
2.020  43.940854
2.019  43.871946
2.018  43.812465
2.017  43.770841
2.016  43.740034
2.015  43.720499
2.014  43.625538
2.013  43.551007
2.012  43.476951
2.011  43.484943
2.010  43.386372
2.009  43.317354
2.008  43.223190
2.007  43.196832
2.006  43.101637
2.005  43.070568
2.004  42.975663
2.003  42.885969
2.002  42.799967
2.001  42.714087
2.000  42.704121
1.999  42.683966
1.998  42.574525
1.997  42.475551
1.996  42.420061
1.995  42.375122
1.994  42.310622
1.993  42.307463
1.992  42.273236
1.991  42.186584
1.990  42.131039
1.989  42.081105
1.988  41.996935
1.987  42.069731
1.986  41.948270
1.985  41.908735
1.984  41.869054
1.983  41.874400
1.982  41.764453
1.981  41.808083
1.980  41.670626
1.979  41.642666
1.978  41.557554
1.977  41.551765
1.976  41.467826
1.975  41.441513
1.974  41.313631
1.973  41.404745
1.972  41.183120
1.971  41.252979
1.970  41.106735
1.969  41.134645
1.968  41.013311
1.967  41.041796
1.966  40.891798
1.965  40.874294
1.964  40.876858
1.963  40.838841
1.962  40.670727
1.961  40.733249
1.960  40.642469
1.959  40.647425
1.958  40.512185
1.957  40.457424
1.956  40.443754
1.955  40.338320
1.954  40.304136
1.953  40.326304
1.952  40.237345
1.951  40.287424
1.950  40.165349
1.949  40.121931
1.948  40.124211
1.947  40.146892
1.946  40.007225
1.945  39.960382
1.944  39.946341
1.943  40.055149
1.942  39.839503
1.941  39.990717
1.940  39.896840
1.939  39.925536
1.938  39.961898
1.937  39.999401
1.936  39.958715
1.935  39.981741
1.934  39.960348
1.933  40.113725
1.932  39.933558
1.931  40.162286
1.930  40.137084
1.929  40.222420
1.928  40.417883
1.927  40.438123
1.926  40.322349
1.925  40.649367
1.924  40.595893
1.923  40.781419
1.922  40.786335
1.921  41.096973
1.920  41.115259
1.919  41.362093
1.918  41.436374
1.917  41.647121
1.916  41.734672
1.915  41.844063
1.914  41.978954
1.913  42.323206
1.912  42.348851
1.911  42.582400
1.910  42.688179
1.909  43.012956
1.908  43.161750
1.907  43.382262
1.906  43.562013
1.905  43.962578
1.904  44.153144
1.903  44.525948
1.902  44.780972
1.901  45.117330
1.900  45.338019
1.899  45.769403
1.898  45.990439
1.897  46.248347
1.896  46.429816
1.895  46.659517
1.894  46.785042
1.893  47.018956
1.892  47.135813
1.891  47.397556
1.890  47.679451
1.889  47.931066
1.888  47.964193
1.887  48.194821
1.886  48.279077
1.885  48.386655
1.884  48.472767
1.883  48.734691
1.882  48.640258
1.881  48.899081
1.880  48.889780
1.879  49.012572
1.878  49.060516
1.877  49.174484
1.876  49.308002
1.875  49.461991
1.874  49.532262
1.873  49.676976
1.872  49.846105
1.871  50.136566
1.870  50.255611
1.869  50.489281
1.868  50.524314
1.867  50.660467
1.866  50.643884
1.865  50.697648
1.864  50.708007
1.863  50.729355
1.862  50.722335
1.861  50.785261
1.860  50.849433
1.859  50.985077
1.858  51.059870
1.857  51.112138
1.856  51.054187
1.855  51.139308
1.854  51.146225
1.853  51.174832
1.852  51.126163
1.851  51.184798
1.850  51.305789
1.849  51.277710
1.848  51.288509
1.847  51.338347
1.846  51.376421
1.845  51.428753
1.844  51.406415
1.843  51.377535
1.842  51.379646
1.841  51.419154
1.840  51.395237
1.839  51.495849
1.838  51.537860
1.837  51.539827
1.836  51.557776
1.835  51.601962
1.834  51.583307
1.833  51.502935
1.832  51.526837
1.831  51.584607
1.830  51.559176
1.829  51.557988
1.828  51.620049
1.827  51.662547
1.826  51.634520
1.825  51.543800
1.824  51.529873
1.823  51.557147
1.822  51.563826
1.821  51.627961
1.820  51.635245
1.819  51.604450
1.818  51.580240
1.817  51.639849
1.816  51.647018
1.815  51.619590
1.814  51.594394
1.813  51.619903
1.812  51.577182
1.811  51.647118
1.810  51.610392
1.809  51.597080
1.808  51.620836
1.807  51.603261
1.806  51.603785
1.805  51.620072
1.804  51.576072
1.803  51.594963
1.802  51.572725
1.801  51.547551
1.800  51.543891
1.799  51.562835
1.798  51.617350
1.797  51.626648
1.796  51.656976
1.795  51.662057
1.794  51.644093
1.793  51.620991
1.792  51.538259
1.791  51.502974
1.790  51.546483
1.789  51.600618
1.788  51.555677
1.787  51.544369
1.786  51.534191
1.785  51.538423
1.784  51.588332
1.783  51.587033
1.782  51.581749
1.781  51.583630
1.780  51.574603
1.779  51.564643
1.778  51.516114
1.777  51.529866
1.776  51.571393
1.775  51.541764
1.774  51.611996
1.773  51.609416
1.772  51.591917
1.771  51.557049
1.770  51.566693
1.769  51.557007
1.768  51.479501
1.767  51.494126
1.766  51.570358
1.765  51.563443
1.764  51.493419
1.763  51.457613
1.762  51.536006
1.761  51.568255
1.760  51.530311
1.759  51.479801
1.758  51.479043
1.757  51.465616
1.756  51.422694
1.755  51.431410
1.754  51.456521
1.753  51.528714
1.752  51.524647
1.751  51.530202
1.750  51.517627
1.749  51.505501
1.748  51.576107
1.747  51.561201
1.746  51.556370
1.745  51.568714
1.744  51.551869
1.743  51.535041
1.742  51.602608
1.741  51.524064
1.740  51.589241
1.739  51.614387
1.738  51.580176
1.737  51.579897
1.736  51.633075
1.735  51.624727
1.734  51.630123
1.733  51.567804
1.732  51.602167
1.731  51.619094
1.730  51.626630
1.729  51.638587
1.728  51.717906
1.727  51.666728
1.726  51.682908
1.725  51.670579
1.724  51.707604
1.723  51.731603
1.722  51.726918
1.721  51.786933
1.720  51.817976
1.719  51.784518
1.718  51.750013
1.717  51.759093
1.716  51.802765
1.715  51.739130
1.714  51.827101
1.713  51.851034
1.712  51.913482
1.711  51.866719
1.710  51.843048
1.709  51.810024
1.708  51.854220
1.707  51.816606
1.706  51.892796
1.705  51.893566
1.704  51.963304
1.703  51.905937
1.702  51.866097
1.701  51.876372
1.700  51.921520
1.699  51.887094
1.698  51.895231
1.697  51.918057
1.696  51.930641
1.695  51.887402
1.694  51.929891
1.693  51.972299
1.692  51.931275
1.691  51.971514
1.690  51.933458
1.689  51.899929
1.688  51.937082
1.687  51.936157
1.686  51.954981
1.685  51.935048
1.684  51.957316
1.683  51.906960
1.682  51.947558
1.681  51.893853
1.680  51.954342
1.679  51.972109
1.678  52.004741
1.677  51.952850
1.676  51.974124
1.675  51.827832
1.674  51.964573
1.673  52.008350
1.672  51.940823
1.671  51.974621
1.670  52.058794
1.669  52.014266
1.668  51.946084
1.667  51.985687
1.666  51.951671
1.665  51.931753
1.664  52.045316
1.663  51.941649
1.662  51.986666
1.661  51.945983
1.660  51.992584
1.659  52.003199
1.658  52.027988
1.657  51.881401
1.656  52.107043
1.655  51.907768
1.654  51.959148
1.653  51.945603
1.652  51.998619
1.651  52.051105
1.650  51.941132
1.649  51.829933
1.648  51.915452
1.647  51.958158
1.646  51.979808
1.645  51.996177
1.644  51.963626
1.643  51.872325
1.642  51.966514
1.641  51.748770
1.640  51.935871
1.639  51.816422
1.638  52.100179
1.637  51.910629
1.636  51.884399
1.635  51.818548
1.634  51.973629
1.633  51.865210
1.632  51.907626
1.631  51.884604
1.630  51.882933
1.629  51.861477
1.628  51.892667
1.627  51.782326
1.626  51.931376
1.625  51.795170
1.624  51.970312
1.623  51.820337
1.622  51.839932
1.621  51.804150
1.620  51.952706
1.619  51.829755
1.618  51.915430
1.617  51.751980
1.616  51.877300
1.615  51.810991
1.614  51.803320
1.613  51.782885
1.612  51.858147
1.611  51.813261
1.610  51.789575
1.609  51.767072
1.608  51.769044
1.607  51.787498
1.606  51.781603
1.605  51.673444
1.604  51.750809
1.603  51.713870
1.602  51.780670
1.601  51.729012
1.600  51.732174
1.599  51.684204
1.598  51.737871
1.597  51.633435
1.596  51.681996
1.595  51.620086
1.594  51.631817
1.593  51.574563
1.592  51.651656
1.591  51.581946
1.590  51.646928
1.589  51.498133
1.588  51.545620
1.587  51.525096
1.586  51.612160
1.585  51.550655
1.584  51.553813
1.583  51.597571
1.582  51.579317
1.581  51.465371
1.580  51.492394
1.579  51.432510
1.578  51.498996
1.577  51.412571
1.576  51.441956
1.575  51.375622
1.574  51.411050
1.573  51.362440
1.572  51.388273
1.571  51.358498
1.570  51.384803
1.569  51.319702
1.568  51.288421
1.567  51.321853
1.566  51.304007
1.565  51.260525
1.564  51.265291
1.563  51.241374
1.562  51.170512
1.561  51.178624
1.560  51.190330
1.559  51.201102
1.558  51.196318
1.557  51.158513
1.556  51.190891
1.555  51.132580
1.554  51.120472
1.553  51.106428
1.552  51.105414
1.551  51.074163
1.550  51.042763
1.549  51.018616
1.548  51.060076
1.547  51.008385
1.546  51.016819
1.545  50.908438
1.544  50.936203
1.543  50.922036
1.542  50.925924
1.541  50.888100
1.540  50.885813
1.539  50.843040
1.538  50.819096
1.537  50.846853
1.536  50.843287
1.535  50.820153
1.534  50.804915
1.533  50.724423
1.532  50.700612
1.531  50.694877
1.530  50.700642
1.529  50.620332
1.528  50.627401
1.527  50.604599
1.526  50.597833
1.525  50.552905
1.524  50.506366
1.523  50.511815
1.522  50.524225
1.521  50.477227
1.520  50.458006
1.519  50.469358
1.518  50.449909
1.517  50.388439
1.516  50.320398
1.515  50.287406
1.514  50.328319
1.513  50.310393
1.512  50.264329
1.511  50.228990
1.510  50.223673
1.509  50.194645
1.508  50.160240
1.507  50.168170
1.506  50.140592
1.505  50.076785
1.504  50.031758
1.503  50.017388
1.502  50.024030
1.501  49.955888
1.500  49.908358
1.499  49.933696
1.498  49.932698
1.497  49.866516
1.496  49.830415
1.495  49.859944
1.494  49.874094
1.493  49.794377
1.492  49.725764
1.491  49.769988
1.490  49.741893
1.489  49.661254
1.488  49.600672
1.487  49.635286
1.486  49.625372
1.485  49.586996
1.484  49.563028
1.483  49.581037
1.482  49.498355
1.481  49.491916
1.480  49.480764
1.479  49.419786
1.478  49.428524
1.477  49.408700
1.476  49.388670
1.475  49.375868
1.474  49.323550
1.473  49.337842
1.472  49.313639
1.471  49.323095
1.470  49.281206
1.469  49.293339
1.468  49.255966
1.467  49.269488
1.466  49.255880
1.465  49.234667
1.464  49.185950
1.463  49.209444
1.462  49.152830
1.461  49.161101
1.460  49.183442
1.459  49.228302
1.458  49.192763
1.457  49.145731
1.456  49.163254
1.455  49.158951
1.454  49.159503
1.453  49.194145
1.452  49.142634
1.451  49.129597
1.450  49.083957
1.449  49.131133
1.448  49.154693
1.447  49.173504
1.446  49.154696
1.445  49.179527
1.444  49.093166
1.443  49.127096
1.442  49.204353
1.441  49.218345
1.440  49.219739
1.439  49.267275
1.438  49.225983
1.437  49.297276
1.436  49.277769
1.435  49.261344
1.434  49.282826
1.433  49.348478
1.432  49.338034
1.431  49.409847
1.430  49.405139
1.429  49.475817
