Name: Grossular Garnet Ca_3Al_2(SiO_4)_3
Type: Mineral
Class: Silicates
Subclass: Nesosilicates
Particle Size: 125-500um
Sample No.: NS-3B
Owner: JPL
Wavelength range: VNIR-SWIR
Origin: Mexico, Lake Jaco.
Collected by:  David New
Description: 





Measurement: Hemispherical reflectance
First Column: X
Second Column: Y
X Units: Wavelength (micrometers)
Y Units: Reflectance (percent)
First X Value: 2.500
Last X Value: 0.400
Number of X Values: 2101
Additional information: ns03ba.txt

2.500  59.688165
2.499  59.584705
2.498  59.533560
2.497  59.605411
2.496  59.534868
2.495  59.715854
2.494  59.806987
2.493  59.771259
2.492  60.027103
2.491  59.818982
2.490  60.027163
2.489  59.985858
2.488  60.103132
2.487  60.031697
2.486  60.079639
2.485  60.235205
2.484  60.217275
2.483  60.183495
2.482  60.443309
2.481  60.348090
2.480  60.440895
2.479  60.416846
2.478  60.388177
2.477  60.460684
2.476  60.473945
2.475  60.403433
2.474  60.662583
2.473  60.557278
2.472  60.739838
2.471  60.665302
2.470  60.730022
2.469  60.778590
2.468  61.009495
2.467  60.889825
2.466  60.979738
2.465  61.028188
2.464  61.019233
2.463  61.062713
2.462  61.170946
2.461  61.150370
2.460  61.250001
2.459  61.150656
2.458  61.239765
2.457  61.307534
2.456  61.395623
2.455  61.294401
2.454  61.431082
2.453  61.438471
2.452  61.417665
2.451  61.512899
2.450  61.610934
2.449  61.613807
2.448  61.626345
2.447  61.648231
2.446  61.746932
2.445  61.769584
2.444  61.835815
2.443  61.892232
2.442  61.903525
2.441  61.912230
2.440  61.834819
2.439  61.887325
2.438  62.031966
2.437  61.938141
2.436  62.019279
2.435  62.014737
2.434  62.188454
2.433  62.160208
2.432  62.219525
2.431  62.205712
2.430  62.207931
2.429  62.203764
2.428  62.293461
2.427  62.329359
2.426  62.347519
2.425  62.347411
2.424  62.427843
2.423  62.489346
2.422  62.532906
2.421  62.509036
2.420  62.566951
2.419  62.552594
2.418  62.557405
2.417  62.655727
2.416  62.651261
2.415  62.625715
2.414  62.619499
2.413  62.662807
2.412  62.722551
2.411  62.722673
2.410  62.793794
2.409  62.784499
2.408  62.855388
2.407  62.905518
2.406  62.881812
2.405  62.878127
2.404  62.889742
2.403  62.878093
2.402  62.903787
2.401  63.008421
2.400  63.042380
2.399  63.038982
2.398  62.988685
2.397  63.030286
2.396  63.151128
2.395  63.074719
2.394  63.142397
2.393  63.135635
2.392  63.202321
2.391  63.255460
2.390  63.293782
2.389  63.318584
2.388  63.341485
2.387  63.326714
2.386  63.294640
2.385  63.312594
2.384  63.356485
2.383  63.395891
2.382  63.414511
2.381  63.429132
2.380  63.408133
2.379  63.407581
2.378  63.399123
2.377  63.419463
2.376  63.531920
2.375  63.537095
2.374  63.546517
2.373  63.556640
2.372  63.563105
2.371  63.610274
2.370  63.661727
2.369  63.664521
2.368  63.662943
2.367  63.674666
2.366  63.746865
2.365  63.761339
2.364  63.799476
2.363  63.852764
2.362  63.823586
2.361  63.826364
2.360  63.818579
2.359  63.905906
2.358  63.979199
2.357  63.956165
2.356  63.977560
2.355  64.047792
2.354  64.064973
2.353  64.071180
2.352  64.101383
2.351  64.127206
2.350  64.157861
2.349  64.209142
2.348  64.269204
2.347  64.319065
2.346  64.371514
2.345  64.398406
2.344  64.396052
2.343  64.428129
2.342  64.454986
2.341  64.477257
2.340  64.488557
2.339  64.567675
2.338  64.644533
2.337  64.669876
2.336  64.685820
2.335  64.714103
2.334  64.783568
2.333  64.810212
2.332  64.862500
2.331  64.931072
2.330  64.922059
2.329  64.956793
2.328  64.982788
2.327  65.013434
2.326  65.001128
2.325  65.061486
2.324  65.105627
2.323  65.157542
2.322  65.167167
2.321  65.223858
2.320  65.281636
2.319  65.337827
2.318  65.326105
2.317  65.341788
2.316  65.356573
2.315  65.442236
2.314  65.487972
2.313  65.494738
2.312  65.506177
2.311  65.561836
2.310  65.560313
2.309  65.643238
2.308  65.641355
2.307  65.662519
2.306  65.682408
2.305  65.702811
2.304  65.731349
2.303  65.802377
2.302  65.818906
2.301  65.850128
2.300  65.906286
2.299  65.943240
2.298  65.958879
2.297  66.007584
2.296  66.028198
2.295  66.042338
2.294  66.103544
2.293  66.119258
2.292  66.170211
2.291  66.229580
2.290  66.223316
2.289  66.248074
2.288  66.292122
2.287  66.316695
2.286  66.277645
2.285  66.307989
2.284  66.285101
2.283  66.406350
2.282  66.390508
2.281  66.389320
2.280  66.431876
2.279  66.485870
2.278  66.454932
2.277  66.506244
2.276  66.545595
2.275  66.617388
2.274  66.580926
2.273  66.654416
2.272  66.581313
2.271  66.693359
2.270  66.695044
2.269  66.642725
2.268  66.656330
2.267  66.726480
2.266  66.756208
2.265  66.792235
2.264  66.826038
2.263  66.914628
2.262  66.892010
2.261  66.917725
2.260  66.946303
2.259  67.014992
2.258  67.028031
2.257  67.114086
2.256  67.144437
2.255  67.095816
2.254  67.163123
2.253  67.232544
2.252  67.245635
2.251  67.319199
2.250  67.254502
2.249  67.301522
2.248  67.403324
2.247  67.414673
2.246  67.517886
2.245  67.495159
2.244  67.492601
2.243  67.592759
2.242  67.575630
2.241  67.623051
2.240  67.645267
2.239  67.736364
2.238  67.849898
2.237  67.861120
2.236  67.732677
2.235  67.822308
2.234  67.895570
2.233  67.956969
2.232  67.966800
2.231  68.037620
2.230  68.003801
2.229  68.114096
2.228  68.073792
2.227  68.090047
2.226  68.187193
2.225  68.290513
2.224  68.153488
2.223  68.308421
2.222  68.389745
2.221  68.392778
2.220  68.360016
2.219  68.434785
2.218  68.432861
2.217  68.517047
2.216  68.570414
2.215  68.592886
2.214  68.612204
2.213  68.714299
2.212  68.713524
2.211  68.698661
2.210  68.779923
2.209  68.833310
2.208  68.785359
2.207  68.914389
2.206  68.934486
2.205  68.967888
2.204  69.014976
2.203  69.109727
2.202  69.095996
2.201  69.260960
2.200  69.196519
2.199  69.334512
2.198  69.244307
2.197  69.377406
2.196  69.359976
2.195  69.518098
2.194  69.378242
2.193  69.502828
2.192  69.486026
2.191  69.580249
2.190  69.646856
2.189  69.674636
2.188  69.729003
2.187  69.810248
2.186  69.899267
2.185  69.885054
2.184  69.899971
2.183  70.051574
2.182  70.022590
2.181  70.148911
2.180  70.161417
2.179  70.298544
2.178  70.280763
2.177  70.329629
2.176  70.404192
2.175  70.425886
2.174  70.480232
2.173  70.567962
2.172  70.653820
2.171  70.719629
2.170  70.751348
2.169  70.822381
2.168  70.859636
2.167  70.957768
2.166  70.996893
2.165  71.130950
2.164  71.106045
2.163  71.265243
2.162  71.314445
2.161  71.376661
2.160  71.435609
2.159  71.512379
2.158  71.591292
2.157  71.663256
2.156  71.666633
2.155  71.736848
2.154  71.761323
2.153  71.827330
2.152  71.926913
2.151  71.977551
2.150  71.968429
2.149  72.062566
2.148  72.052436
2.147  72.123583
2.146  72.140486
2.145  72.182804
2.144  72.238759
2.143  72.285330
2.142  72.239638
2.141  72.221931
2.140  72.369153
2.139  72.354014
2.138  72.372405
2.137  72.489742
2.136  72.427658
2.135  72.413981
2.134  72.438516
2.133  72.532613
2.132  72.479502
2.131  72.495929
2.130  72.484075
2.129  72.493973
2.128  72.523565
2.127  72.527593
2.126  72.536078
2.125  72.499561
2.124  72.543513
2.123  72.507945
2.122  72.507973
2.121  72.519759
2.120  72.512297
2.119  72.492468
2.118  72.507774
2.117  72.530702
2.116  72.517452
2.115  72.480603
2.114  72.468747
2.113  72.491553
2.112  72.450163
2.111  72.420583
2.110  72.433055
2.109  72.436081
2.108  72.386568
2.107  72.360796
2.106  72.329468
2.105  72.348933
2.104  72.341200
2.103  72.376628
2.102  72.377307
2.101  72.351107
2.100  72.305888
2.099  72.357059
2.098  72.395523
2.097  72.468772
2.096  72.554123
2.095  72.567775
2.094  72.591177
2.093  72.595514
2.092  72.620117
2.091  72.676752
2.090  72.664382
2.089  72.745676
2.088  72.825074
2.087  72.769813
2.086  72.833685
2.085  72.926933
2.084  72.943861
2.083  72.910339
2.082  72.938137
2.081  72.996352
2.080  73.049141
2.079  73.096432
2.078  73.137840
2.077  73.185754
2.076  73.180669
2.075  73.232618
2.074  73.260484
2.073  73.271796
2.072  73.351621
2.071  73.371584
2.070  73.350991
2.069  73.427251
2.068  73.522950
2.067  73.545201
2.066  73.540942
2.065  73.571742
2.064  73.650773
2.063  73.660359
2.062  73.670505
2.061  73.678620
2.060  73.699773
2.059  73.773608
2.058  73.822908
2.057  73.837001
2.056  73.867450
2.055  73.927773
2.054  73.968289
2.053  73.939936
2.052  73.905521
2.051  73.945256
2.050  74.044212
2.049  74.077109
2.048  74.123811
2.047  74.132712
2.046  74.167013
2.045  74.188884
2.044  74.177195
2.043  74.201390
2.042  74.257808
2.041  74.267208
2.040  74.323597
2.039  74.328124
2.038  74.332080
2.037  74.358808
2.036  74.431288
2.035  74.444705
2.034  74.457891
2.033  74.464465
2.032  74.505883
2.031  74.482886
2.030  74.485381
2.029  74.512127
2.028  74.583605
2.027  74.564836
2.026  74.603466
2.025  74.673316
2.024  74.690211
2.023  74.653192
2.022  74.641784
2.021  74.677070
2.020  74.702265
2.019  74.623631
2.018  74.703474
2.017  74.705245
2.016  74.726623
2.015  74.750558
2.014  74.803613
2.013  74.799176
2.012  74.781482
2.011  74.687294
2.010  74.760324
2.009  74.787169
2.008  74.853736
2.007  74.837015
2.006  74.796349
2.005  74.854532
2.004  74.897556
2.003  74.854841
2.002  74.908011
2.001  74.949627
2.000  74.982727
1.999  74.967581
1.998  74.902865
1.997  74.956119
1.996  74.901105
1.995  74.887172
1.994  74.954769
1.993  74.962791
1.992  74.918227
1.991  74.896267
1.990  74.950905
1.989  74.904208
1.988  74.973785
1.987  74.893469
1.986  74.912837
1.985  74.914139
1.984  75.006966
1.983  74.998843
1.982  74.975225
1.981  75.001936
1.980  74.977566
1.979  74.866054
1.978  74.876473
1.977  74.920090
1.976  75.038331
1.975  74.974989
1.974  75.010193
1.973  74.940090
1.972  75.002575
1.971  75.025815
1.970  75.059194
1.969  75.063255
1.968  75.082077
1.967  75.055762
1.966  75.112562
1.965  75.013260
1.964  75.113600
1.963  75.113762
1.962  75.136437
1.961  75.037726
1.960  75.080193
1.959  75.153661
1.958  75.219063
1.957  75.122239
1.956  75.182076
1.955  75.169286
1.954  75.177015
1.953  75.190281
1.952  75.256150
1.951  75.266789
1.950  75.234091
1.949  75.291582
1.948  75.343097
1.947  75.336145
1.946  75.288488
1.945  75.312944
1.944  75.402965
1.943  75.365128
1.942  75.406877
1.941  75.294772
1.940  75.395791
1.939  75.355341
1.938  75.420176
1.937  75.405264
1.936  75.467811
1.935  75.425263
1.934  75.523888
1.933  75.488959
1.932  75.558446
1.931  75.550860
1.930  75.643110
1.929  75.480059
1.928  75.630460
1.927  75.570636
1.926  75.592404
1.925  75.524925
1.924  75.662716
1.923  75.534948
1.922  75.653500
1.921  75.690483
1.920  75.654209
1.919  75.630691
1.918  75.787173
1.917  75.704993
1.916  75.709247
1.915  75.755560
1.914  75.797007
1.913  75.843015
1.912  75.890086
1.911  75.903808
1.910  76.012805
1.909  76.065323
1.908  76.053358
1.907  76.139316
1.906  76.155986
1.905  76.255634
1.904  76.303781
1.903  76.367100
1.902  76.444981
1.901  76.500704
1.900  76.560325
1.899  76.682090
1.898  76.811034
1.897  76.838600
1.896  76.939097
1.895  77.054514
1.894  77.090102
1.893  77.110035
1.892  77.215128
1.891  77.232810
1.890  77.361598
1.889  77.409179
1.888  77.462353
1.887  77.465494
1.886  77.620693
1.885  77.639535
1.884  77.641125
1.883  77.657990
1.882  77.781913
1.881  77.787516
1.880  77.919772
1.879  77.912106
1.878  77.974493
1.877  77.944942
1.876  77.973610
1.875  78.046882
1.874  78.100068
1.873  78.098138
1.872  78.074230
1.871  78.104846
1.870  78.095272
1.869  78.140486
1.868  78.180828
1.867  78.175613
1.866  78.286987
1.865  78.379949
1.864  78.393452
1.863  78.369541
1.862  78.413699
1.861  78.388073
1.860  78.424345
1.859  78.466016
1.858  78.503149
1.857  78.536906
1.856  78.549505
1.855  78.562929
1.854  78.650125
1.853  78.628115
1.852  78.623223
1.851  78.664464
1.850  78.738773
1.849  78.809111
1.848  78.790076
1.847  78.756742
1.846  78.745150
1.845  78.789065
1.844  78.800937
1.843  78.871723
1.842  78.925928
1.841  78.905549
1.840  78.946238
1.839  78.961963
1.838  79.000430
1.837  79.016296
1.836  79.041243
1.835  78.999232
1.834  79.035107
1.833  79.085487
1.832  79.151238
1.831  79.153089
1.830  79.154165
1.829  79.177473
1.828  79.164650
1.827  79.147135
1.826  79.208361
1.825  79.260809
1.824  79.291113
1.823  79.324400
1.822  79.407564
1.821  79.335738
1.820  79.370808
1.819  79.340054
1.818  79.400207
1.817  79.486810
1.816  79.447945
1.815  79.445911
1.814  79.576951
1.813  79.544917
1.812  79.502487
1.811  79.549306
1.810  79.567924
1.809  79.613473
1.808  79.657099
1.807  79.665429
1.806  79.661900
1.805  79.670121
1.804  79.691135
1.803  79.725530
1.802  79.764449
1.801  79.785679
1.800  79.750000
1.799  79.759282
1.798  79.827334
1.797  79.804690
1.796  79.812008
1.795  79.838624
1.794  79.834528
1.793  79.854746
1.792  79.872924
1.791  79.915913
1.790  79.917665
1.789  79.890294
1.788  79.893029
1.787  79.927481
1.786  79.956896
1.785  79.920649
1.784  79.892800
1.783  79.978425
1.782  80.026024
1.781  79.982129
1.780  79.976173
1.779  80.003396
1.778  80.026527
1.777  80.005042
1.776  80.005704
1.775  80.001697
1.774  80.028713
1.773  80.123283
1.772  80.151477
1.771  80.118265
1.770  80.113552
1.769  80.133840
1.768  80.114706
1.767  80.159964
1.766  80.196827
1.765  80.195251
1.764  80.192356
1.763  80.207586
1.762  80.195773
1.761  80.197176
1.760  80.211051
1.759  80.206712
1.758  80.252074
1.757  80.330976
1.756  80.333978
1.755  80.332447
1.754  80.337223
1.753  80.327680
1.752  80.322524
1.751  80.374290
1.750  80.326179
1.749  80.374021
1.748  80.386904
1.747  80.435918
1.746  80.420487
1.745  80.447277
1.744  80.483329
1.743  80.529885
1.742  80.522657
1.741  80.549131
1.740  80.573480
1.739  80.619515
1.738  80.579678
1.737  80.508815
1.736  80.555042
1.735  80.642399
1.734  80.649916
1.733  80.628805
1.732  80.668741
1.731  80.740700
1.730  80.720531
1.729  80.727930
1.728  80.722658
1.727  80.735857
1.726  80.767429
1.725  80.740751
1.724  80.835453
1.723  80.858580
1.722  80.820761
1.721  80.836620
1.720  80.795984
1.719  80.866654
1.718  80.859487
1.717  80.862704
1.716  80.928925
1.715  80.934390
1.714  80.901896
1.713  80.979659
1.712  80.984966
1.711  80.946765
1.710  80.924260
1.709  80.966057
1.708  80.965636
1.707  80.990252
1.706  81.058917
1.705  81.045941
1.704  81.051472
1.703  81.059182
1.702  81.017657
1.701  80.951188
1.700  81.081236
1.699  81.089101
1.698  81.121695
1.697  81.182227
1.696  81.152551
1.695  81.116280
1.694  81.192670
1.693  81.188325
1.692  81.214296
1.691  81.196941
1.690  81.229808
1.689  81.215279
1.688  81.175391
1.687  81.266162
1.686  81.306422
1.685  81.222389
1.684  81.253052
1.683  81.291149
1.682  81.317788
1.681  81.344998
1.680  81.376055
1.679  81.330488
1.678  81.285051
1.677  81.424201
1.676  81.367569
1.675  81.359956
1.674  81.418203
1.673  81.405656
1.672  81.371215
1.671  81.331569
1.670  81.379223
1.669  81.492820
1.668  81.439857
1.667  81.510262
1.666  81.497197
1.665  81.503934
1.664  81.488090
1.663  81.581296
1.662  81.545319
1.661  81.569532
1.660  81.573556
1.659  81.587387
1.658  81.567330
1.657  81.659111
1.656  81.584138
1.655  81.655767
1.654  81.561131
1.653  81.647731
1.652  81.543171
1.651  81.669381
1.650  81.688747
1.649  81.740083
1.648  81.633918
1.647  81.633590
1.646  81.693671
1.645  81.641153
1.644  81.643328
1.643  81.663398
1.642  81.667183
1.641  81.731415
1.640  81.672109
1.639  81.703084
1.638  81.741864
1.637  81.702219
1.636  81.769472
1.635  81.798445
1.634  81.833902
1.633  81.773441
1.632  81.737635
1.631  81.807239
1.630  81.762431
1.629  81.733809
1.628  81.816981
1.627  81.857760
1.626  81.886585
1.625  81.873555
1.624  81.907867
1.623  81.883829
1.622  81.898113
1.621  81.891165
1.620  81.873294
1.619  81.842428
1.618  81.871253
1.617  81.892794
1.616  81.889731
1.615  81.962297
1.614  81.924395
1.613  81.912444
1.612  81.909880
1.611  82.015602
1.610  81.994944
1.609  82.044962
1.608  81.974648
1.607  81.985471
1.606  82.016808
1.605  81.983046
1.604  82.059946
1.603  82.053685
1.602  81.956772
1.601  82.028611
1.600  82.009085
1.599  82.056627
1.598  82.014283
1.597  81.999821
1.596  82.046479
1.595  82.050875
1.594  82.004515
1.593  81.982572
1.592  82.036685
1.591  82.054242
1.590  82.064744
1.589  82.009687
1.588  82.047629
1.587  82.027405
1.586  82.025455
1.585  82.128075
1.584  82.056389
1.583  82.042924
1.582  82.068019
1.581  82.086178
1.580  82.049659
1.579  82.045649
1.578  82.010102
1.577  82.045303
1.576  82.067050
1.575  82.070172
1.574  82.149255
1.573  82.130054
1.572  82.117042
1.571  82.072693
1.570  82.050675
1.569  82.115476
1.568  82.154892
1.567  82.105835
1.566  82.102809
1.565  82.202371
1.564  82.119869
1.563  82.113327
1.562  82.102944
1.561  82.122699
1.560  82.108961
1.559  82.075835
1.558  82.103470
1.557  82.104412
1.556  82.106022
1.555  82.136372
1.554  82.119250
1.553  82.191131
1.552  82.218868
1.551  82.151390
1.550  82.131335
1.549  82.107898
1.548  82.103913
1.547  82.080020
1.546  82.073026
1.545  82.109298
1.544  82.156191
1.543  82.141312
1.542  82.076855
1.541  82.149265
1.540  82.134661
1.539  82.108689
1.538  82.154701
1.537  82.161790
1.536  82.127620
1.535  82.137935
1.534  82.118071
1.533  82.052388
1.532  82.072779
1.531  82.071417
1.530  82.119320
1.529  82.148518
1.528  82.115311
1.527  82.140484
1.526  82.140432
1.525  82.165316
1.524  82.165931
1.523  82.173144
1.522  82.134126
1.521  82.091559
1.520  82.100621
1.519  82.144095
1.518  82.161564
1.517  82.137145
1.516  82.132153
1.515  82.140649
1.514  82.093932
1.513  82.128017
1.512  82.123435
1.511  82.098691
1.510  82.141453
1.509  82.146852
1.508  82.457153
1.507  82.502209
1.506  82.113306
1.505  82.101977
1.504  82.130116
1.503  82.123268
1.502  82.111227
1.501  82.138692
1.500  82.153112
1.499  82.166818
1.498  82.159369
1.497  82.131491
1.496  82.098013
1.495  82.100051
1.494  82.131305
1.493  82.124467
1.492  82.158630
1.491  82.184705
1.490  82.154815
1.489  82.163682
1.488  82.178212
1.487  82.085466
1.486  82.094167
1.485  82.139990
1.484  82.153478
1.483  82.137700
1.482  82.142991
1.481  82.133417
1.480  82.115241
1.479  82.079520
1.478  82.064020
1.477  82.090656
1.476  82.125569
1.475  82.115650
1.474  82.124100
1.473  82.147096
1.472  82.156276
1.471  82.145382
1.470  82.028209
1.469  82.032704
1.468  82.098233
1.467  82.148350
1.466  82.116925
1.465  82.051536
1.464  82.044634
1.463  82.005224
1.462  82.050548
1.461  82.063732
1.460  82.046652
1.459  82.064144
1.458  82.056533
1.457  81.980869
1.456  82.077103
1.455  82.102625
1.454  82.108680
1.453  82.099269
1.452  82.088758
1.451  82.093313
1.450  82.093527
1.449  82.063856
1.448  82.081857
1.447  82.041619
1.446  82.128513
1.445  82.117706
1.444  82.079059
1.443  82.000588
1.442  82.098370
1.441  82.103892
1.440  82.052173
1.439  82.057570
1.438  82.072301
1.437  82.058849
1.436  81.995361
1.435  81.984775
1.434  81.956862
1.433  81.909608
1.432  81.957136
1.431  81.918625
1.430  81.923860
1.429  81.954211
1.428  81.933808
1.427  81.883009
1.426  81.862627
1.425  81.852220
1.424  81.860717
1.423  81.839847
1.422  81.828193
1.421  81.801931
1.420  81.785633
1.419  81.677910
