Name: Quartz SiO_2
Type: Mineral
Class: Silicates
Subclass: Tectosilicates
Particle Size: 45-125um
Sample No.: TS-1E
Owner: JPL
Wavelength range: VNIR-SWIR
Origin: Unknown.
Collected by:  JPL
Description: Crysoprase





Measurement: Hemispherical reflectance
First Column: X
Second Column: Y
X Units: Wavelength (micrometers)
Y Units: Reflectance (percent)
First X Value: 2.500
Last X Value: 0.400
Number of X Values: 2101
Additional information: ts01ea.txt

2.500  59.984822
2.499  59.901863
2.498  59.969141
2.497  59.869239
2.496  59.647125
2.495  60.013021
2.494  60.083964
2.493  60.064654
2.492  60.073183
2.491  60.452667
2.490  60.457668
2.489  60.371348
2.488  60.564324
2.487  60.543317
2.486  60.664601
2.485  60.679467
2.484  60.753307
2.483  60.873751
2.482  60.945360
2.481  60.984483
2.480  61.117797
2.479  61.213672
2.478  61.347851
2.477  61.325310
2.476  61.392955
2.475  61.488923
2.474  61.428714
2.473  61.563732
2.472  61.737477
2.471  61.870615
2.470  61.845561
2.469  62.117486
2.468  62.055591
2.467  62.109156
2.466  62.249990
2.465  62.249431
2.464  62.418498
2.463  62.514995
2.462  62.664727
2.461  62.782549
2.460  62.920552
2.459  62.922699
2.458  63.118440
2.457  63.031535
2.456  63.249270
2.455  63.410225
2.454  63.635115
2.453  63.674336
2.452  63.774730
2.451  63.758479
2.450  63.945107
2.449  64.237502
2.448  64.275345
2.447  64.336639
2.446  64.525832
2.445  64.594039
2.444  64.765317
2.443  64.817677
2.442  64.955757
2.441  64.954499
2.440  65.121494
2.439  65.085848
2.438  65.291675
2.437  65.407603
2.436  65.490973
2.435  65.477320
2.434  65.777355
2.433  65.825931
2.432  65.877875
2.431  66.045319
2.430  66.072746
2.429  66.237404
2.428  66.153960
2.427  66.164245
2.426  66.259500
2.425  66.353991
2.424  66.353689
2.423  66.376784
2.422  66.547077
2.421  66.575188
2.420  66.709282
2.419  66.750739
2.418  66.885920
2.417  66.909327
2.416  67.010630
2.415  67.046422
2.414  67.155077
2.413  67.093566
2.412  67.314624
2.411  67.402083
2.410  67.432430
2.409  67.531648
2.408  67.603587
2.407  67.706317
2.406  67.747982
2.405  67.797766
2.404  67.831474
2.403  67.905438
2.402  67.986133
2.401  67.982133
2.400  68.090752
2.399  68.178431
2.398  68.280209
2.397  68.398415
2.396  68.533352
2.395  68.570654
2.394  68.623235
2.393  68.631556
2.392  68.725374
2.391  68.797834
2.390  68.858783
2.389  69.037972
2.388  69.091891
2.387  69.101886
2.386  69.170573
2.385  69.206060
2.384  69.257141
2.383  69.331187
2.382  69.371644
2.381  69.425619
2.380  69.488493
2.379  69.550582
2.378  69.603439
2.377  69.540217
2.376  69.595259
2.375  69.608663
2.374  69.687174
2.373  69.738804
2.372  69.706684
2.371  69.678318
2.370  69.762191
2.369  69.786085
2.368  69.786399
2.367  69.779755
2.366  69.788759
2.365  69.834237
2.364  69.854426
2.363  69.874258
2.362  69.855123
2.361  69.797519
2.360  69.840515
2.359  69.844999
2.358  69.782826
2.357  69.837110
2.356  69.795374
2.355  69.725240
2.354  69.767784
2.353  69.696569
2.352  69.648502
2.351  69.655937
2.350  69.580087
2.349  69.481705
2.348  69.513018
2.347  69.488158
2.346  69.395069
2.345  69.292616
2.344  69.262037
2.343  69.237308
2.342  69.171032
2.341  69.070215
2.340  68.928961
2.339  68.868255
2.338  68.765254
2.337  68.671261
2.336  68.623665
2.335  68.516122
2.334  68.385911
2.333  68.298713
2.332  68.142857
2.331  68.061714
2.330  67.951962
2.329  67.781046
2.328  67.562845
2.327  67.492309
2.326  67.406426
2.325  67.330937
2.324  67.222181
2.323  67.157306
2.322  67.065549
2.321  66.967474
2.320  66.910744
2.319  66.771451
2.318  66.675656
2.317  66.664792
2.316  66.622023
2.315  66.567271
2.314  66.511582
2.313  66.468918
2.312  66.391733
2.311  66.338110
2.310  66.319585
2.309  66.371068
2.308  66.353120
2.307  66.293456
2.306  66.315062
2.305  66.361715
2.304  66.296289
2.303  66.334697
2.302  66.309763
2.301  66.262285
2.300  66.302737
2.299  66.366966
2.298  66.312187
2.297  66.412396
2.296  66.460594
2.295  66.486982
2.294  66.473537
2.293  66.549128
2.292  66.587818
2.291  66.647737
2.290  66.605021
2.289  66.695606
2.288  66.667432
2.287  66.811514
2.286  66.806692
2.285  66.873011
2.284  66.890870
2.283  66.960941
2.282  66.913862
2.281  66.933062
2.280  66.978243
2.279  67.034303
2.278  66.997663
2.277  67.044809
2.276  67.004103
2.275  66.985417
2.274  67.092964
2.273  67.054577
2.272  67.052704
2.271  67.061448
2.270  67.105900
2.269  67.101448
2.268  66.986815
2.267  67.082571
2.266  67.124339
2.265  67.064530
2.264  66.995963
2.263  67.020666
2.262  67.021926
2.261  67.010482
2.260  66.965802
2.259  66.915928
2.258  66.846027
2.257  66.908066
2.256  66.841175
2.255  66.893926
2.254  66.920385
2.253  66.874806
2.252  66.867207
2.251  66.901258
2.250  66.919202
2.249  66.957369
2.248  66.964806
2.247  66.974619
2.246  67.005089
2.245  66.983994
2.244  67.088024
2.243  67.094470
2.242  67.121846
2.241  67.111214
2.240  67.166800
2.239  67.133491
2.238  67.206350
2.237  67.321384
2.236  67.323280
2.235  67.368214
2.234  67.283065
2.233  67.357746
2.232  67.338033
2.231  67.345279
2.230  67.303126
2.229  67.438224
2.228  67.345771
2.227  67.430579
2.226  67.417392
2.225  67.420479
2.224  67.412540
2.223  67.469596
2.222  67.403141
2.221  67.441133
2.220  67.500194
2.219  67.469244
2.218  67.540222
2.217  67.540344
2.216  67.475243
2.215  67.617921
2.214  67.625986
2.213  67.644059
2.212  67.683172
2.211  67.729298
2.210  67.882543
2.209  67.924883
2.208  67.952452
2.207  68.203199
2.206  68.255239
2.205  68.444701
2.204  68.501748
2.203  68.730442
2.202  68.878360
2.201  69.002838
2.200  69.219076
2.199  69.416626
2.198  69.635693
2.197  69.787780
2.196  69.859747
2.195  70.064482
2.194  70.170543
2.193  70.318444
2.192  70.479551
2.191  70.618347
2.190  70.767750
2.189  70.935289
2.188  71.112932
2.187  71.308930
2.186  71.413160
2.185  71.637371
2.184  71.711845
2.183  71.953284
2.182  72.094081
2.181  72.295296
2.180  72.399481
2.179  72.565060
2.178  72.734757
2.177  72.817405
2.176  73.014898
2.175  73.150324
2.174  73.243093
2.173  73.346039
2.172  73.579134
2.171  73.699249
2.170  73.874941
2.169  73.989323
2.168  74.072224
2.167  74.183398
2.166  74.307380
2.165  74.406278
2.164  74.585799
2.163  74.671917
2.162  74.737353
2.161  74.944422
2.160  74.997996
2.159  75.055423
2.158  75.147798
2.157  75.249440
2.156  75.420030
2.155  75.434336
2.154  75.486241
2.153  75.582269
2.152  75.644003
2.151  75.676021
2.150  75.805152
2.149  75.896312
2.148  75.969200
2.147  75.957683
2.146  76.006766
2.145  76.036099
2.144  76.128042
2.143  76.149156
2.142  76.164381
2.141  76.302679
2.140  76.312192
2.139  76.319110
2.138  76.369854
2.137  76.381738
2.136  76.329308
2.135  76.456323
2.134  76.467678
2.133  76.455603
2.132  76.460147
2.131  76.397984
2.130  76.468911
2.129  76.496160
2.128  76.463643
2.127  76.405226
2.126  76.422624
2.125  76.461980
2.124  76.382697
2.123  76.363923
2.122  76.341374
2.121  76.298303
2.120  76.294401
2.119  76.276443
2.118  76.259777
2.117  76.207114
2.116  76.158905
2.115  76.093927
2.114  76.060235
2.113  76.055534
2.112  76.002447
2.111  75.989324
2.110  75.933496
2.109  75.890695
2.108  75.806404
2.107  75.786028
2.106  75.778261
2.105  75.799727
2.104  75.722535
2.103  75.689653
2.102  75.680189
2.101  75.663508
2.100  75.568040
2.099  75.573119
2.098  75.609509
2.097  75.667635
2.096  75.670310
2.095  75.668546
2.094  75.667065
2.093  75.677221
2.092  75.660080
2.091  75.715479
2.090  75.756402
2.089  75.783032
2.088  75.771552
2.087  75.773194
2.086  75.819596
2.085  75.901196
2.084  75.926729
2.083  75.897032
2.082  75.879214
2.081  75.885367
2.080  75.875889
2.079  75.887513
2.078  75.939519
2.077  75.868150
2.076  75.860499
2.075  75.837620
2.074  75.887895
2.073  75.948409
2.072  75.910127
2.071  75.887256
2.070  75.887857
2.069  75.894245
2.068  75.946303
2.067  76.008191
2.066  75.984928
2.065  75.963723
2.064  75.985855
2.063  75.996876
2.062  75.983095
2.061  75.979923
2.060  75.998793
2.059  76.007428
2.058  75.968206
2.057  75.991555
2.056  76.044023
2.055  75.987665
2.054  75.990575
2.053  76.004519
2.052  75.943577
2.051  75.882690
2.050  75.865877
2.049  75.937755
2.048  76.010307
2.047  75.965461
2.046  75.901541
2.045  75.867722
2.044  75.897061
2.043  75.889338
2.042  75.911804
2.041  75.895475
2.040  75.820030
2.039  75.787251
2.038  75.765409
2.037  75.728869
2.036  75.771296
2.035  75.750632
2.034  75.699012
2.033  75.702525
2.032  75.690876
2.031  75.623228
2.030  75.646481
2.029  75.575947
2.028  75.607673
2.027  75.531062
2.026  75.516150
2.025  75.453837
2.024  75.372085
2.023  75.314924
2.022  75.350366
2.021  75.367631
2.020  75.295519
2.019  75.152882
2.018  75.102473
2.017  75.070655
2.016  75.023016
2.015  75.004514
2.014  75.004059
2.013  74.942528
2.012  74.892096
2.011  74.846152
2.010  74.752582
2.009  74.668695
2.008  74.701742
2.007  74.665877
2.006  74.624965
2.005  74.494204
2.004  74.478096
2.003  74.466233
2.002  74.433979
2.001  74.310469
2.000  74.274684
1.999  74.226315
1.998  74.172626
1.997  74.069305
1.996  74.094041
1.995  73.989538
1.994  73.886784
1.993  73.803885
1.992  73.698124
1.991  73.655277
1.990  73.580269
1.989  73.538772
1.988  73.419056
1.987  73.286258
1.986  73.238639
1.985  73.155947
1.984  73.118181
1.983  73.019953
1.982  72.906134
1.981  72.903808
1.980  72.752596
1.979  72.684923
1.978  72.636626
1.977  72.546591
1.976  72.493566
1.975  72.413633
1.974  72.212065
1.973  72.219161
1.972  72.254741
1.971  72.106139
1.970  72.090868
1.969  71.936871
1.968  71.908838
1.967  71.809406
1.966  71.693056
1.965  71.629484
1.964  71.531533
1.963  71.527701
1.962  71.405818
1.961  71.321685
1.960  71.321435
1.959  71.128613
1.958  71.183519
1.957  71.053849
1.956  70.990193
1.955  70.808273
1.954  70.860753
1.953  70.801370
1.952  70.758526
1.951  70.694930
1.950  70.611931
1.949  70.526053
1.948  70.428594
1.947  70.488616
1.946  70.266200
1.945  70.251835
1.944  70.299053
1.943  70.202580
1.942  70.088599
1.941  70.068810
1.940  70.034791
1.939  69.984263
1.938  69.860085
1.937  69.845595
1.936  69.814464
1.935  69.724762
1.934  69.755951
1.933  69.670608
1.932  69.501977
1.931  69.539226
1.930  69.501039
1.929  69.513447
1.928  69.465898
1.927  69.305474
1.926  69.225951
1.925  69.242976
1.924  69.184838
1.923  69.196856
1.922  69.113322
1.921  69.159405
1.920  69.101831
1.919  68.927342
1.918  69.000276
1.917  68.927127
1.916  69.017127
1.915  68.897476
1.914  68.803949
1.913  68.895124
1.912  68.881724
1.911  68.891284
1.910  68.992445
1.909  69.109305
1.908  69.145354
1.907  69.288214
1.906  69.351421
1.905  69.503158
1.904  69.773953
1.903  69.928799
1.902  70.184836
1.901  70.574250
1.900  70.833361
1.899  71.179509
1.898  71.473741
1.897  71.819469
1.896  72.276445
1.895  72.608360
1.894  72.959991
1.893  73.382694
1.892  73.812940
1.891  74.148961
1.890  74.557503
1.889  74.882569
1.888  75.199147
1.887  75.489245
1.886  75.918683
1.885  76.013629
1.884  76.423403
1.883  76.600299
1.882  76.813955
1.881  76.946430
1.880  77.190569
1.879  77.284898
1.878  77.476868
1.877  77.603704
1.876  77.746929
1.875  77.861649
1.874  78.012011
1.873  78.140836
1.872  78.354014
1.871  78.376331
1.870  78.511794
1.869  78.510522
1.868  78.614739
1.867  78.687162
1.866  78.772911
1.865  78.829623
1.864  78.926137
1.863  79.014137
1.862  79.041995
1.861  79.042703
1.860  79.125669
1.859  79.077437
1.858  79.151197
1.857  79.145518
1.856  79.166646
1.855  79.232789
1.854  79.295402
1.853  79.309573
1.852  79.330209
1.851  79.337006
1.850  79.307484
1.849  79.370734
1.848  79.333053
1.847  79.381855
1.846  79.378080
1.845  79.436549
1.844  79.450844
1.843  79.483011
1.842  79.431449
1.841  79.430696
1.840  79.506457
1.839  79.511626
1.838  79.453282
1.837  79.450255
1.836  79.419895
1.835  79.509479
1.834  79.568505
1.833  79.492165
1.832  79.479602
1.831  79.470671
1.830  79.476649
1.829  79.506959
1.828  79.616666
1.827  79.569776
1.826  79.576663
1.825  79.559394
1.824  79.493989
1.823  79.561317
1.822  79.533933
1.821  79.561016
1.820  79.613831
1.819  79.521910
1.818  79.533932
1.817  79.600608
1.816  79.585483
1.815  79.534178
1.814  79.575970
1.813  79.660794
1.812  79.604109
1.811  79.573840
1.810  79.602898
1.809  79.643154
1.808  79.620354
1.807  79.555368
1.806  79.644257
1.805  79.688161
1.804  79.706050
1.803  79.683556
1.802  79.713039
1.801  79.682285
1.800  79.634989
1.799  79.676623
1.798  79.677228
1.797  79.656090
1.796  79.742535
1.795  79.715948
1.794  79.661774
1.793  79.717383
1.792  79.683128
1.791  79.641464
1.790  79.669111
1.789  79.678720
1.788  79.627733
1.787  79.628583
1.786  79.688942
1.785  79.724086
1.784  79.676485
1.783  79.638939
1.782  79.633985
1.781  79.629716
1.780  79.669106
1.779  79.678960
1.778  79.723384
1.777  79.680953
1.776  79.663771
1.775  79.731615
1.774  79.714228
1.773  79.669861
1.772  79.671213
1.771  79.696546
1.770  79.679068
1.769  79.652388
1.768  79.731000
1.767  79.735598
1.766  79.696181
1.765  79.712228
1.764  79.724765
1.763  79.746837
1.762  79.735008
1.761  79.697305
1.760  79.741097
1.759  79.786331
1.758  79.831232
1.757  79.839533
1.756  79.805286
1.755  79.776151
1.754  79.785929
1.753  79.831272
1.752  79.877474
1.751  79.899804
1.750  79.888146
1.749  79.891533
1.748  79.882456
1.747  79.841095
1.746  79.826864
1.745  79.830899
1.744  79.847809
1.743  79.875168
1.742  79.822434
1.741  79.946428
1.740  79.986643
1.739  79.904045
1.738  79.952226
1.737  79.941044
1.736  79.915911
1.735  79.919194
1.734  79.973762
1.733  79.940143
1.732  79.984589
1.731  79.978598
1.730  79.997727
1.729  79.993964
1.728  79.997819
1.727  80.040245
1.726  80.018908
1.725  80.043576
1.724  80.020153
1.723  79.982062
1.722  79.988376
1.721  80.011988
1.720  80.016131
1.719  79.984381
1.718  79.936331
1.717  79.971856
1.716  79.978758
1.715  80.051012
1.714  80.050215
1.713  80.051323
1.712  80.036839
1.711  79.967614
1.710  80.020116
1.709  80.049213
1.708  80.014622
1.707  80.051461
1.706  80.033848
1.705  80.076342
1.704  80.028928
1.703  79.953623
1.702  80.073384
1.701  80.044595
1.700  79.967477
1.699  80.053795
1.698  80.020826
1.697  80.043064
1.696  80.064671
1.695  80.014926
1.694  79.991504
1.693  79.915752
1.692  80.034854
1.691  80.025848
1.690  79.956169
1.689  79.893998
1.688  79.925423
1.687  79.969309
1.686  79.914726
1.685  80.024420
1.684  79.993548
1.683  80.036794
1.682  79.916474
1.681  79.970853
1.680  80.030098
1.679  79.968086
1.678  80.015216
1.677  79.989887
1.676  79.982805
1.675  80.044054
1.674  79.990700
1.673  79.966795
1.672  79.976246
1.671  79.962547
1.670  79.942335
1.669  80.040857
1.668  80.054829
1.667  80.019712
1.666  79.984243
1.665  80.029962
1.664  80.027526
1.663  79.984239
1.662  80.069765
1.661  80.021351
1.660  79.941327
1.659  79.976615
1.658  79.951855
1.657  80.005315
1.656  79.945108
1.655  79.989832
1.654  79.986340
1.653  79.960238
1.652  80.038702
1.651  80.021272
1.650  79.966205
1.649  79.956881
1.648  79.940475
1.647  79.981779
1.646  80.114578
1.645  79.960374
1.644  79.975992
1.643  80.053707
1.642  80.002630
1.641  80.095883
1.640  79.973808
1.639  79.961392
1.638  79.909511
1.637  80.101499
1.636  80.036961
1.635  80.045162
1.634  79.927553
1.633  79.946472
1.632  79.933948
1.631  80.030934
1.630  79.966036
1.629  79.932258
1.628  79.936710
1.627  79.877495
1.626  79.907061
1.625  80.075632
1.624  80.020742
1.623  80.013252
1.622  79.948136
1.621  79.956445
1.620  79.939567
1.619  79.917505
1.618  79.967479
1.617  79.999078
1.616  79.962386
1.615  79.903206
1.614  79.912992
1.613  79.876488
1.612  79.958834
1.611  79.956191
1.610  79.937671
1.609  79.932908
1.608  79.891523
1.607  79.918939
1.606  79.915436
1.605  79.934381
1.604  79.904430
1.603  79.945106
1.602  79.931545
1.601  79.804183
1.600  79.847698
1.599  79.939519
1.598  79.928737
1.597  79.919508
1.596  79.827346
1.595  79.812920
1.594  79.834741
1.593  79.887227
1.592  79.833501
1.591  79.835510
1.590  79.826946
1.589  79.763679
1.588  79.760780
1.587  79.760064
1.586  79.814398
1.585  79.830453
1.584  79.717640
1.583  79.736291
1.582  79.712456
1.581  79.786740
1.580  79.714033
1.579  79.707465
1.578  79.681981
1.577  79.738441
1.576  79.654314
1.575  79.630463
1.574  79.677221
1.573  79.708944
1.572  79.606207
1.571  79.642832
1.570  79.671368
1.569  79.642865
1.568  79.660899
1.567  79.639713
1.566  79.610838
1.565  79.609552
1.564  79.578156
1.563  79.541761
1.562  79.509357
1.561  79.529454
1.560  79.562424
1.559  79.523688
1.558  79.451138
1.557  79.512154
1.556  79.436235
1.555  79.386577
1.554  79.449718
1.553  79.446588
1.552  79.436368
1.551  79.406969
1.550  79.407994
1.549  79.420016
1.548  79.362326
1.547  79.342223
1.546  79.371335
1.545  79.329642
1.544  79.268582
1.543  79.337314
1.542  79.236911
1.541  79.197037
1.540  79.215425
1.539  79.246987
1.538  79.241631
1.537  79.235015
1.536  79.221637
1.535  79.196189
1.534  79.101580
1.533  79.131735
1.532  79.079792
1.531  79.054339
1.530  79.097690
1.529  79.116598
1.528  79.046874
1.527  78.977548
1.526  78.948646
1.525  78.903439
1.524  78.901636
1.523  78.917771
1.522  78.896993
1.521  78.891772
1.520  78.872249
1.519  78.847388
1.518  78.839347
1.517  78.860999
1.516  78.773006
1.515  78.715794
1.514  78.764711
1.513  78.728685
1.512  78.686116
1.511  78.710343
1.510  78.674103
1.509  78.597646
1.508  78.565850
1.507  78.561024
1.506  78.551778
1.505  78.583234
1.504  78.596306
1.503  78.516715
1.502  78.450356
1.501  78.483738
1.500  78.435241
1.499  78.401737
1.498  78.404763
1.497  78.352918
1.496  78.326247
1.495  78.340247
1.494  78.279664
1.493  78.191694
1.492  78.168869
1.491  78.150787
1.490  78.109866
1.489  78.143538
1.488  78.143050
1.487  78.063627
1.486  78.031888
1.485  77.992351
1.484  77.944521
1.483  77.923557
1.482  77.883881
1.481  77.865941
1.480  77.790999
1.479  77.792134
1.478  77.796702
1.477  77.763076
1.476  77.776461
1.475  77.694807
1.474  77.716490
1.473  77.683118
1.472  77.602072
1.471  77.462481
1.470  77.483237
1.469  77.513854
1.468  77.455426
1.467  77.438481
1.466  77.444475
1.465  77.404840
1.464  77.280812
1.463  77.301565
1.462  77.323715
1.461  77.279709
1.460  77.282944
1.459  77.285198
1.458  77.299019
1.457  77.205649
1.456  77.141532
1.455  77.212675
1.454  77.192944
1.453  77.137784
1.452  77.062698
1.451  77.126629
1.450  77.095919
1.449  77.029414
1.448  77.042049
1.447  76.940300
1.446  76.932704
1.445  76.829805
1.444  76.873520
1.443  76.866577
1.442  76.789301
1.441  76.648686
1.440  76.680946
1.439  76.589332
1.438  76.524934
1.437  76.521349
1.436  76.466183
1.435  76.416157
1.434  76.327560
1.433  76.230541
1.432  76.183705
1.431  76.096634
1.430  75.997524
1.429  75.924482
1.428  75.914276
1.427  75.912777
1.426  75.868828
1.425  75.788804
1.424  75.759775
1.423  75.716540
1.422  75.624277
1.421  75.640320
1.420  75.632870
1.419  75.490257
1.418  75.373725
1.417  75.091065
