Name: Howlite Ca_2B_5SiO_9(OH)_5
Type: Mineral
Class: Borates
Subclass: 
Particle Size: 125-500um
Sample No.: B-5A
Owner: JPL
Wavelength range: IR
Origin: USA, California, San Gabriel Mountains, Tick Canyon
Collected by Burminco
Description: 





Measurement: Hemispherical reflectance
First Column: X
Second Column: Y
X Units:  Wavelength (micrometers)
Y Units:  Reflectance (percent)
First X Value: 15.3853
Last X Value: 2.00032
Number of X Values: 2256
Additional information: b05aa.txt
 
15.3853	3.13286
15.3397	3.3694
15.2945	3.40978
15.2495	3.41133
15.2048	3.54435
15.1603	3.62118
15.1161	3.56836
15.0722	3.6298
15.0285	3.87986
14.9851	3.88984
14.9419	3.94345
14.8989	4.34001
14.8563	4.54535
14.8138	4.31247
14.7716	4.30042
14.7296	4.39195
14.6879	4.5812
14.6464	4.72405
14.6052	4.53282
14.5641	4.26401
14.5233	3.79029
14.4828	2.97887
14.4424	2.1963
14.4023	1.70342
14.3624	1.69178
14.3227	1.81927
14.2833	1.9909
14.244	2.19179
14.205	2.40597
14.1662	2.46445
14.1276	2.14451
14.0892	1.84933
14.051	1.88888
14.0131	1.9792
13.9753	2.06683
13.9377	2.27535
13.9004	2.28004
13.8632	2.46304
13.8262	2.75204
13.7895	2.69215
13.7529	2.54661
13.7165	2.57677
13.6803	2.79466
13.6443	2.76806
13.6085	2.68889
13.5729	2.7462
13.5374	2.85338
13.5022	2.94084
13.4671	3.18002
13.4322	3.38282
13.3975	3.37144
13.363	3.3683
13.3286	3.1922
13.2944	2.99919
13.2604	2.98199
13.2266	2.9697
13.193	3.07218
13.1595	3.2876
13.1262	3.36551
13.093	3.38009
13.06	3.50553
13.0272	3.61792
12.9946	3.59799
12.9621	3.68763
12.9298	3.83589
12.8976	3.67666
12.8656	3.47996
12.8337	3.51644
12.8021	3.6494
12.7705	3.64741
12.7391	3.66656
12.7079	3.75504
12.6769	3.86288
12.6459	4.0925
12.6152	4.20489
12.5845	4.2266
12.5541	4.38075
12.5238	4.48146
12.4936	4.58075
12.4635	4.60694
12.4337	4.60303
12.4039	4.5973
12.3743	4.72628
12.3448	4.97849
12.3155	5.18421
12.2863	5.2431
12.2573	5.32951
12.2284	5.54448
12.1996	5.70013
12.171	6.07145
12.1425	6.31878
12.1141	6.36072
12.0859	6.52633
12.0578	6.7368
12.0298	6.80873
12.0019	6.69381
11.9742	6.17996
11.9466	5.54005
11.9192	5.29378
11.8918	5.227
11.8646	5.12813
11.8375	5.1591
11.8106	5.2987
11.7837	5.45581
11.757	5.76419
11.7304	6.07914
11.7039	6.27393
11.6776	6.25405
11.6513	6.45413
11.6252	6.70992
11.5992	6.59338
11.5733	6.39353
11.5475	6.39155
11.5219	6.35843
11.4963	6.214
11.4709	6.07916
11.4455	5.94476
11.4203	5.92577
11.3952	5.86372
11.3702	5.66108
11.3454	5.40372
11.3206	5.1507
11.2959	4.98834
11.2714	4.80979
11.2469	4.74428
11.2226	4.85772
11.1983	5.08169
11.1742	5.37489
11.1502	5.66851
11.1263	5.97193
11.1024	6.21783
11.0787	6.39436
11.0551	6.58756
11.0316	6.66732
11.0081	6.66185
10.9848	6.4618
10.9616	6.28785
10.9385	6.23021
10.9154	5.88789
10.8925	5.54158
10.8697	5.33898
10.8469	5.22015
10.8243	5.01232
10.8017	4.96076
10.7793	5.18048
10.7569	5.44391
10.7346	5.90206
10.7125	6.33179
10.6904	6.73551
10.6684	7.22195
10.6465	7.73074
10.6247	8.35795
10.6029	8.89495
10.5813	9.41717
10.5597	9.97678
10.5383	10.4821
10.5169	11.0917
10.4956	11.6337
10.4744	12.0268
10.4533	12.4043
10.4323	12.5736
10.4113	12.6514
10.3904	12.5343
10.3697	12.2319
10.349	11.8684
10.3284	11.4538
10.3078	11.0808
10.2874	10.6344
10.267	10.153
10.2467	9.57722
10.2265	8.9606
10.2064	8.32574
10.1863	7.81637
10.1663	7.63445
10.1464	7.61557
10.1266	7.86766
10.1069	8.5345
10.0872	9.13305
10.0676	9.67238
10.0481	10.0811
10.0287	10.4548
10.0093	10.9733
9.99005	11.4093
9.97084	11.7404
9.95169	11.9971
9.93263	12.1354
9.91364	12.3605
9.89472	12.565
9.87587	12.7689
9.8571	13.07
9.83839	13.2537
9.81976	13.3698
9.80119	13.4578
9.78271	13.4479
9.76428	13.2943
9.74592	12.9988
9.72764	12.7234
9.70943	12.4902
9.69128	12.3001
9.6732	12.1678
9.65518	12.0911
9.63724	12.0631
9.61935	12.26
9.60155	12.489
9.5838	12.5332
9.56611	12.5738
9.5485	12.5334
9.53094	12.4268
9.51345	12.4584
9.49604	12.3343
9.47867	12.0447
9.46137	11.7656
9.44414	11.7057
9.42697	11.8196
9.40986	11.9398
9.39281	12.1401
9.37583	12.3269
9.35891	12.3227
9.34204	12.1452
9.32524	11.9731
9.3085	11.8659
9.29182	11.8403
9.27519	11.7818
9.25863	11.5203
9.24213	11.0413
9.22568	10.5387
9.2093	10.1038
9.19297	9.72817
9.17669	9.37213
9.16048	9.02005
9.14433	8.86557
9.12823	8.73113
9.11218	8.60423
9.0962	8.387
9.08027	8.14432
9.06439	7.85974
9.04858	7.54108
9.03281	7.13573
9.0171	6.81657
9.00145	6.57844
8.98585	6.25606
8.9703	5.92401
8.9548	5.68404
8.93937	5.42957
8.92398	5.15383
8.90865	5.05537
8.89337	5.05362
8.87814	4.99974
8.86296	5.02558
8.84784	5.12251
8.83277	5.14897
8.81774	5.2032
8.80277	5.28225
8.78786	5.35694
8.77298	5.32422
8.75816	5.20797
8.7434	5.13147
8.72868	4.98266
8.714	4.69315
8.69938	4.54463
8.68481	4.4904
8.67029	4.22032
8.65581	3.89826
8.64139	3.55559
8.62701	3.23397
8.61268	2.98074
8.5984	2.77914
8.58416	2.62397
8.56997	2.49653
8.55583	2.22157
8.54174	1.91985
8.52769	1.67448
8.51368	1.52245
8.49973	1.46417
8.48582	1.56109
8.47195	1.3924
8.45813	1.25499
8.44436	1.34592
8.43062	1.29429
8.41693	1.18492
8.4033	1.25917
8.3897	1.32146
8.37614	1.42345
8.36264	1.51231
8.34917	1.46127
8.33574	1.44622
8.32236	1.42018
8.30903	1.31161
8.29573	1.41265
8.28248	1.56726
8.26927	1.55249
8.2561	1.44223
8.24298	1.44773
8.2299	1.50343
8.21685	1.53866
8.20385	1.63435
8.19089	1.7145
8.17797	1.83588
8.16509	1.86011
8.15225	1.88717
8.13946	1.96881
8.1267	1.92595
8.11398	1.7786
8.10131	1.73444
8.08867	1.70851
8.07606	1.64007
8.0635	1.48546
8.05099	1.33579
8.0385	1.2275
8.02606	1.1443
8.01366	1.05961
8.00129	1.00498
7.98896	0.988338
7.97667	0.846579
7.96442	0.668248
7.9522	0.62661
7.94002	0.60646
7.92788	0.58384
7.91578	0.504578
7.90371	0.513626
7.89168	0.536227
7.87969	0.468563
7.86773	0.467247
7.85581	0.570246
7.84392	0.696933
7.83207	0.657455
7.82026	0.667118
7.80849	0.721927
7.79674	0.77965
7.78503	0.895171
7.77337	0.943774
7.76173	0.85879
7.75012	0.846579
7.73856	0.89915
7.72703	1.05486
7.71553	1.12973
7.70406	1.08598
7.69263	1.18401
7.68123	1.2749
7.66987	1.29037
7.65855	1.4294
7.64725	1.50531
7.63598	1.55917
7.62475	1.7396
7.61356	1.98087
7.60239	2.20472
7.59126	2.45453
7.58017	2.91119
7.5691	3.41336
7.55806	3.7827
7.54707	4.12225
7.5361	4.42796
7.52516	4.72869
7.51425	5.02227
7.50338	5.25479
7.49253	5.3766
7.48172	5.51635
7.47094	5.60777
7.46019	5.67445
7.44947	5.71896
7.43879	5.67986
7.42813	5.62382
7.4175	5.40741
7.4069	5.11956
7.39634	4.82441
7.3858	4.52498
7.37529	4.26048
7.36482	3.94611
7.35437	3.46295
7.34396	2.98058
7.33357	2.58159
7.32321	2.23201
7.31288	1.97138
7.30258	1.74682
7.29231	1.53018
7.28207	1.35193
7.27185	1.23463
7.26167	1.22195
7.25152	1.1722
7.24139	1.10082
7.23129	1.00628
7.22122	1.01389
7.21117	1.07905
7.20116	0.979123
7.19117	0.910862
7.18121	0.97153
7.17128	0.956845
7.16137	0.963265
7.1515	1.00089
7.14164	1.02145
7.13182	1.08765
7.12203	1.26334
7.11225	1.40966
7.10251	1.53818
7.0928	1.71397
7.08311	1.94617
7.07344	2.20192
7.06381	2.28671
7.0542	2.2965
7.04461	2.30547
7.03506	2.13237
7.02552	1.82297
7.01601	1.50084
7.00653	1.20053
6.99708	0.937919
6.98765	0.838484
6.97824	0.786882
6.96886	0.790747
6.95951	0.947388
6.95018	0.955328
6.94087	0.814967
6.9316	0.703549
6.92234	0.629871
6.91311	0.552828
6.90391	0.594322
6.89473	0.742669
6.88557	0.869007
6.87644	0.955567
6.86733	0.928156
6.85824	0.85891
6.84918	0.820701
6.84015	0.82617
6.83114	0.792567
6.82215	0.674405
6.81319	0.522871
6.80424	0.452877
6.79532	0.443481
6.78643	0.384378
6.77756	0.273482
6.76871	0.20008
6.75989	0.249938
6.75109	0.345805
6.74231	0.298923
6.73355	0.354972
6.72482	0.391666
6.71611	0.288024
6.70742	0.279005
6.69875	0.30324
6.69011	0.34239
6.68149	0.396705
6.67289	0.368447
6.66431	0.385494
6.65576	0.390897
6.64722	0.354122
6.63871	0.4609
6.63022	0.526501
6.62175	0.486662
6.61331	0.362195
6.60488	0.326428
6.59648	0.356864
6.5881	0.407237
6.57974	0.424793
6.5714	0.354055
6.56308	0.441653
6.55478	0.559232
6.54651	0.575523
6.53825	0.469267
6.53001	0.433703
6.5218	0.540074
6.51361	0.597029
6.50544	0.604759
6.49729	0.630451
6.48915	0.678162
6.48104	0.702284
6.47295	0.616279
6.46488	0.55219
6.45683	0.494797
6.4488	0.4689
6.44079	0.502482
6.4328	0.602294
6.42482	0.626819
6.41687	0.638059
6.40894	0.722292
6.40103	0.68638
6.39314	0.734232
6.38526	0.750943
6.37741	0.773743
6.36957	0.828886
6.36176	0.701216
6.35396	0.683461
6.34618	0.799286
6.33843	0.870099
6.33069	0.843253
6.32297	0.753699
6.31527	0.70707
6.30758	0.797923
6.29992	0.804243
6.29227	0.717989
6.28465	0.819914
6.27704	0.920834
6.26945	0.819786
6.26188	0.765623
6.25432	0.849689
6.24679	0.90968
6.23927	0.875742
6.23177	0.800201
6.22429	0.914154
6.21683	0.940254
6.20938	0.841822
6.20195	0.821193
6.19454	0.917816
6.18715	0.979407
6.17978	0.942703
6.17242	0.915029
6.16508	0.924075
6.15776	0.895217
6.15045	0.907678
6.14317	0.961108
6.1359	0.94805
6.12864	0.909085
6.12141	0.926916
6.11419	1.01936
6.10699	1.02818
6.0998	0.96224
6.09263	0.983895
6.08549	1.06224
6.07835	1.06942
6.07123	0.996922
6.06413	0.940592
6.05705	0.953247
6.04998	1.11961
6.04293	1.14427
6.0359	1.07411
6.02888	1.05654
6.02187	1.08594
6.01489	1.11594
6.00792	1.1073
6.00096	1.15196
5.99403	1.23221
5.98711	1.20897
5.9802	1.16264
5.97331	1.18726
5.96644	1.18429
5.95958	1.16525
5.95274	1.15598
5.94591	1.22948
5.9391	1.33396
5.9323	1.29858
5.92552	1.2694
5.91876	1.21373
5.91201	1.25816
5.90528	1.27808
5.89856	1.29296
5.89186	1.2546
5.88517	1.24562
5.8785	1.23245
5.87184	1.25208
5.8652	1.2893
5.85857	1.27606
5.85196	1.30556
5.84536	1.37125
5.83878	1.46854
5.83221	1.43888
5.82566	1.34801
5.81912	1.28346
5.81259	1.28795
5.80608	1.30517
5.79959	1.37091
5.79311	1.35884
5.78665	1.3485
5.78019	1.35807
5.77376	1.458
5.76734	1.50386
5.76093	1.35693
5.75453	1.28309
5.74815	1.35702
5.74179	1.38121
5.73543	1.37521
5.7291	1.39627
5.72277	1.37279
5.71646	1.41093
5.71017	1.44792
5.70389	1.40086
5.69762	1.3681
5.69136	1.40352
5.68513	1.34569
5.6789	1.41827
5.67268	1.53837
5.66648	1.48365
5.6603	1.42627
5.65413	1.46939
5.64797	1.57071
5.64182	1.556
5.63569	1.46103
5.62957	1.49156
5.62347	1.50818
5.61737	1.50439
5.61129	1.51186
5.60522	1.54736
5.59917	1.57345
5.59313	1.57619
5.5871	1.58521
5.58109	1.58278
5.57509	1.6018
5.5691	1.63659
5.56312	1.65081
5.55716	1.63333
5.55121	1.63237
5.54528	1.67104
5.53935	1.6865
5.53344	1.63151
5.52754	1.62058
5.52166	1.69489
5.51578	1.72333
5.50992	1.72278
5.50407	1.7208
5.49823	1.64766
5.49241	1.57871
5.4866	1.59286
5.4808	1.67756
5.47501	1.63718
5.46923	1.66494
5.46347	1.71861
5.45772	1.6188
5.45198	1.61426
5.44625	1.64823
5.44054	1.62677
5.43484	1.7127
5.42914	1.72004
5.42347	1.70807
5.4178	1.68887
5.41214	1.68207
5.4065	1.67865
5.40087	1.66671
5.39525	1.70252
5.38964	1.7041
5.38404	1.69894
5.37846	1.76355
5.37288	1.82522
5.36732	1.82697
5.36177	1.81398
5.35623	1.81444
5.35071	1.79481
5.34519	1.79643
5.33968	1.76308
5.33419	1.76272
5.32871	1.80762
5.32324	1.78609
5.31778	1.73317
5.31233	1.82043
5.30689	1.87832
5.30147	1.82347
5.29605	1.81455
5.29065	1.83701
5.28525	1.90266
5.27987	1.90805
5.2745	1.87335
5.26914	1.81866
5.26379	1.86375
5.25845	1.96271
5.25312	1.9135
5.24781	1.88758
5.2425	1.90386
5.23721	1.95673
5.23192	1.94433
5.22665	1.84806
5.22138	1.84582
5.21613	1.92584
5.21089	1.92905
5.20566	1.88159
5.20044	1.89514
5.19522	1.93917
5.19002	1.9292
5.18483	1.89855
5.17965	1.90923
5.17448	1.93513
5.16933	1.87414
5.16418	1.86193
5.15904	1.93374
5.15391	2.03515
5.14879	2.07654
5.14368	2.00166
5.13859	1.96919
5.1335	2.02564
5.12842	2.04155
5.12335	2.04379
5.1183	2.14778
5.11325	2.17612
5.10821	2.18638
5.10318	2.16953
5.09817	2.10233
5.09316	2.13226
5.08816	2.16238
5.08317	2.15922
5.07819	2.18751
5.07322	2.23141
5.06826	2.24615
5.06331	2.21365
5.05837	2.13921
5.05344	2.20386
5.04852	2.25273
5.04361	2.26555
5.03871	2.26186
5.03382	2.27366
5.02894	2.2872
5.02406	2.33026
5.0192	2.37822
5.01435	2.36481
5.0095	2.28418
5.00467	2.28718
4.99984	2.29283
4.99502	2.3192
4.99021	2.35606
4.98542	2.32379
4.98063	2.32201
4.97585	2.36026
4.97108	2.36484
4.96632	2.43015
4.96156	2.43606
4.95682	2.32158
4.95209	2.326
4.94736	2.35395
4.94264	2.37432
4.93794	2.47437
4.93324	2.47873
4.92855	2.46132
4.92387	2.40038
4.9192	2.38075
4.91453	2.39845
4.90988	2.38345
4.90524	2.42855
4.9006	2.53946
4.89597	2.46084
4.89135	2.39065
4.88674	2.43922
4.88214	2.45419
4.87755	2.44868
4.87296	2.51299
4.86839	2.51398
4.86382	2.50436
4.85926	2.45287
4.85471	2.41185
4.85017	2.45327
4.84564	2.44007
4.84111	2.40828
4.8366	2.50536
4.83209	2.50904
4.82759	2.52203
4.8231	2.58318
4.81862	2.56208
4.81415	2.55164
4.80968	2.54846
4.80522	2.59952
4.80077	2.68456
4.79633	2.67236
4.7919	2.60342
4.78747	2.61294
4.78306	2.63543
4.77865	2.66263
4.77425	2.65726
4.76986	2.62166
4.76547	2.59336
4.7611	2.50095
4.75673	2.51284
4.75237	2.64789
4.74802	2.68614
4.74367	2.69658
4.73934	2.7425
4.73501	2.7676
4.73069	2.70279
4.72638	2.66203
4.72207	2.72961
4.71777	2.73234
4.71348	2.70847
4.7092	2.76152
4.70493	2.85915
4.70066	2.86768
4.69641	2.82972
4.69216	2.81464
4.68791	2.80754
4.68368	2.83016
4.67945	2.85663
4.67523	2.86359
4.67102	2.8772
4.66682	2.82249
4.66262	2.80973
4.65843	2.85812
4.65425	2.92366
4.65007	2.91153
4.64591	2.87977
4.64175	2.83422
4.6376	2.92033
4.63345	2.94063
4.62932	2.91055
4.62519	2.90658
4.62106	2.93074
4.61695	2.9093
4.61284	2.83384
4.60874	2.86346
4.60465	2.95711
4.60056	3.01207
4.59648	3.04079
4.59241	3.02771
4.58835	3.09129
4.58429	3.18021
4.58024	3.17944
4.5762	3.10057
4.57216	3.12321
4.56814	3.06731
4.56411	3.05251
4.5601	3.13744
4.55609	3.13211
4.55209	3.05046
4.5481	3.00999
4.54411	2.95928
4.54013	2.97101
4.53616	3.02345
4.5322	3.12161
4.52824	3.17552
4.52429	3.13514
4.52034	3.06419
4.51641	3.05995
4.51247	3.09872
4.50855	3.12466
4.50463	3.13999
4.50072	3.11817
4.49682	3.1202
4.49292	3.04346
4.48903	2.98266
4.48515	2.96499
4.48127	2.91401
4.4774	3.01732
4.47354	3.0691
4.46968	3.0074
4.46584	3.0207
4.46199	3.0386
4.45815	3.03472
4.45432	3.01716
4.4505	2.99597
4.44668	3.09475
4.44287	3.21426
4.43907	3.17532
4.43527	3.11754
4.43148	3.07202
4.4277	3.06479
4.42392	3.08484
4.42015	3.07396
4.41638	3.07474
4.41262	3.0304
4.40887	3.04084
4.40513	3.10977
4.40139	3.11074
4.39765	3.13126
4.39393	3.20563
4.39021	3.16724
4.38649	3.09034
4.38278	3.03395
4.37908	3.08671
4.37539	3.18101
4.3717	3.16646
4.36801	3.13753
4.36434	3.1374
4.36067	3.15584
4.357	3.18335
4.35335	3.18248
4.34969	3.16538
4.34605	3.12963
4.34241	3.1402
4.33877	3.21627
4.33514	3.24757
4.33152	3.21488
4.32791	3.17938
4.3243	3.16667
4.32069	3.2689
4.3171	3.24298
4.31351	3.17175
4.30992	3.2222
4.30634	3.29022
4.30277	3.34968
4.2992	3.38242
4.29564	3.43805
4.29208	3.42597
4.28853	3.35181
4.28499	3.3637
4.28145	3.3713
4.27792	3.40475
4.27439	3.48198
4.27087	3.54032
4.26735	3.61496
4.26384	3.60854
4.26034	3.60869
4.25684	3.57079
4.25335	3.48119
4.24986	3.48829
4.24638	3.58731
4.24291	3.64982
4.23944	3.67373
4.23598	3.6698
4.23252	3.64595
4.22906	3.63964
4.22562	3.62247
4.22218	3.61107
4.21874	3.60726
4.21531	3.64797
4.21189	3.64461
4.20847	3.56749
4.20506	3.58432
4.20165	3.57264
4.19825	3.50825
4.19485	3.5082
4.19146	3.57235
4.18807	3.56781
4.18469	3.52427
4.18132	3.50238
4.17795	3.49051
4.17458	3.4123
4.17123	3.44059
4.16787	3.34963
4.16453	3.26427
4.16118	3.35342
4.15785	3.33497
4.15451	3.31302
4.15119	3.33385
4.14787	3.36884
4.14455	3.40933
4.14124	3.359
4.13794	3.29292
4.13464	3.36778
4.13134	3.43786
4.12805	3.4712
4.12477	3.49862
4.12149	3.52095
4.11822	3.42849
4.11495	3.42153
4.11168	3.46673
4.10843	3.52936
4.10517	3.61387
4.10192	3.62295
4.09868	3.67724
4.09545	3.76489
4.09221	3.73759
4.08899	3.73709
4.08576	3.93478
4.08255	4.03578
4.07933	3.9345
4.07613	3.95192
4.07292	3.98255
4.06973	4.08198
4.06654	4.20003
4.06335	4.26605
4.06017	4.32332
4.05699	4.43354
4.05382	4.49427
4.05065	4.53808
4.04749	4.63295
4.04433	4.77261
4.04118	4.88926
4.03803	4.96089
4.03489	5.0205
4.03175	5.09357
4.02862	5.20266
4.02549	5.3283
4.02237	5.42516
4.01925	5.51416
4.01614	5.66614
4.01303	5.76398
4.00993	5.80042
4.00683	5.87271
4.00373	5.91285
4.00064	6.01547
3.99756	6.10266
3.99448	6.22095
3.9914	6.35243
3.98833	6.42763
3.98527	6.45844
3.98221	6.46583
3.97915	6.64488
3.9761	6.87338
3.97305	6.9374
3.97001	6.94487
3.96697	6.98786
3.96394	6.89005
3.96091	6.88257
3.95789	6.98003
3.95487	7.04145
3.95186	7.09291
3.94885	7.21765
3.94584	7.33513
3.94284	7.37819
3.93984	7.4004
3.93685	7.49421
3.93386	7.57475
3.93088	7.53749
3.9279	7.54904
3.92493	7.58872
3.92196	7.61786
3.919	7.6217
3.91604	7.59726
3.91308	7.60993
3.91013	7.6199
3.90718	7.64641
3.90424	7.69773
3.9013	7.7699
3.89837	7.78968
3.89544	7.80787
3.89252	7.82412
3.8896	7.7615
3.88668	7.81033
3.88377	7.86823
3.88086	7.90331
3.87796	7.95089
3.87506	8.03883
3.87217	8.045
3.86928	7.96869
3.86639	7.88601
3.86351	7.91595
3.86064	8.03152
3.85776	8.07043
3.8549	8.08204
3.85203	8.2169
3.84917	8.33519
3.84631	8.34637
3.84346	8.39871
3.84062	8.41756
3.83777	8.40134
3.83494	8.35311
3.8321	8.3373
3.82927	8.33419
3.82644	8.30769
3.82362	8.37999
3.82081	8.50048
3.81799	8.49816
3.81518	8.47844
3.81238	8.47559
3.80958	8.45002
3.80678	8.39261
3.80399	8.32421
3.8012	8.36501
3.79841	8.44941
3.79563	8.37519
3.79286	8.27073
3.79008	8.23976
3.78731	8.23663
3.78455	8.17591
3.78179	8.20856
3.77903	8.36538
3.77628	8.3724
3.77353	8.28533
3.77079	8.18327
3.76805	8.23036
3.76531	8.339
3.76258	8.382
3.75985	8.34428
3.75713	8.3048
3.7544	8.35459
3.75169	8.36601
3.74898	8.35683
3.74627	8.35192
3.74356	8.37503
3.74086	8.29398
3.73816	8.15748
3.73547	8.04843
3.73278	8.03365
3.7301	7.99665
3.72741	7.96627
3.72474	7.93233
3.72206	7.74569
3.71939	7.67798
3.71673	7.75426
3.71406	7.7502
3.71141	7.6782
3.70875	7.61525
3.7061	7.57002
3.70345	7.47597
3.70081	7.42402
3.69817	7.45348
3.69553	7.34179
3.6929	7.21975
3.69027	7.09644
3.68765	6.96444
3.68503	6.90294
3.68241	6.83366
3.6798	6.74072
3.67719	6.72092
3.67458	6.72194
3.67198	6.65737
3.66938	6.51601
3.66678	6.43189
3.66419	6.35915
3.66161	6.28212
3.65902	6.21955
3.65644	6.1486
3.65387	6.0208
3.65129	5.98934
3.64872	5.93003
3.64616	5.891
3.64359	5.96214
3.64103	6.01659
3.63848	6.01112
3.63593	5.92126
3.63338	5.85278
3.63084	5.85591
3.6283	5.82021
3.62576	5.83403
3.62322	5.87099
3.62069	5.75228
3.61817	5.64253
3.61564	5.68259
3.61312	5.64957
3.61061	5.53638
3.6081	5.50558
3.60559	5.52182
3.60308	5.52492
3.60058	5.54038
3.59808	5.64083
3.59558	5.73908
3.59309	5.81018
3.59061	5.85644
3.58812	5.82124
3.58564	5.8823
3.58316	5.93185
3.58069	5.95886
3.57822	5.9888
3.57575	6.07623
3.57328	6.05647
3.57082	6.00214
3.56836	5.98635
3.56591	6.00074
3.56346	5.98092
3.56101	5.901
3.55857	5.84335
3.55613	5.78414
3.55369	5.75696
3.55126	5.72785
3.54883	5.66782
3.5464	5.63011
3.54397	5.6587
3.54155	5.691
3.53914	5.70639
3.53672	5.73144
3.53431	5.7607
3.5319	5.70935
3.5295	5.70921
3.5271	5.66599
3.5247	5.75121
3.52231	5.8087
3.51991	5.73424
3.51753	5.73546
3.51514	5.6992
3.51276	5.6409
3.51038	5.73454
3.50801	5.76815
3.50563	5.78431
3.50327	5.81074
3.5009	5.72728
3.49854	5.72027
3.49618	5.71271
3.49382	5.55368
3.49147	5.49768
3.48912	5.58478
3.48677	5.58574
3.48443	5.40099
3.48209	5.29133
