Name: Oil Shale (Kerogen Shale)
Type: Rock
Class: Sedimentary
Subclass:  Shale
Particle Size: Solid surface
Sample No.: Ward55.txt
Owner: JPL
Wavelength range:  IR
Origin: Ward's Collection of American Rocks.  Sample locality - Garfield County, Colorado.
Collected by:  Ward's Natural Science
Description: A blackish brown stratified shale.   It emits a strong
bituminous odor when struck with a hammer.
Geologic age - Tertiary (Eocene).



Measurement: Hemispherical reflectance
First Column: X
Second Column: Y
X Units: Wavelength (micrometers)
Y Units: Reflectance (percent)
First X Value: 15.3871
Last X Value: 1.9998
Number of X Values: 2257
Additional information: None

15.3871   3.80376
15.3416   3.79222
15.2964   3.82340
15.2514   3.75940
15.2066   3.61965
15.1622   3.60878
15.1180   3.53966
15.0740   3.40836
15.0303   3.17422
14.9869   3.06597
14.9437   3.25899
14.9008   3.37685
14.8581   3.33538
14.8156   3.49266
14.7734   3.68215
14.7314   3.63982
14.6897   3.59250
14.6482   3.52691
14.6069   3.41690
14.5659   3.55354
14.5251   3.79363
14.4845   3.81438
14.4442   3.68993
14.4041   3.51793
14.3642   3.24670
14.3245   3.55401
14.2850   3.86305
14.2458   3.94305
14.2068   3.87676
14.1679   3.58005
14.1293   3.58119
14.0909   3.73718
14.0528   3.87691
14.0148   3.66695
13.9770   3.49818
13.9394   3.54649
13.9021   3.49702
13.8649   3.48862
13.8279   3.74329
13.7911   3.99394
13.7546   3.85836
13.7182   3.61313
13.6820   3.26052
13.6460   3.06175
13.6101   3.20742
13.5745   3.37079
13.5391   3.54224
13.5038   3.50854
13.4687   3.50767
13.4339   3.64024
13.3991   3.77204
13.3646   3.74190
13.3302   3.70937
13.2961   3.78106
13.2621   3.83801
13.2282   3.96128
13.1946   4.23068
13.1611   4.19007
13.1278   3.93476
13.0946   3.93895
13.0616   4.00554
13.0288   3.86597
12.9962   3.90127
12.9637   4.20136
12.9313   4.20692
12.8992   4.04185
12.8672   4.00949
12.8353   4.27686
12.8036   4.39967
12.7721   4.17357
12.7407   3.92861
12.7095   3.88299
12.6784   3.93871
12.6475   3.94598
12.6167   3.90671
12.5861   3.98140
12.5556   4.08529
12.5253   4.04866
12.4951   3.87540
12.4651   3.48874
12.4352   3.20285
12.4054   3.35136
12.3758   3.73471
12.3463   3.85759
12.3170   3.69314
12.2878   3.63026
12.2588   3.68262
12.2299   3.67141
12.2011   3.73633
12.1725   3.79168
12.1439   3.95890
12.1156   4.03611
12.0873   4.22652
12.0592   4.34462
12.0312   4.10986
12.0034   3.96617
11.9757   4.05488
11.9481   4.22472
11.9206   4.49122
11.8933   4.66067
11.8661   4.59578
11.8390   4.54300
11.8120   4.40166
11.7852   4.14671
11.7584   4.22841
11.7318   4.53586
11.7053   4.60289
11.6790   4.72979
11.6527   4.97074
11.6266   5.21176
11.6006   5.42555
11.5747   5.62721
11.5489   5.77809
11.5233   5.78437
11.4977   5.70836
11.4723   5.67226
11.4469   5.72932
11.4217   5.78476
11.3966   5.83714
11.3716   5.93411
11.3468   6.14570
11.3220   6.45249
11.2973   6.74730
11.2728   6.97036
11.2483   7.24032
11.2240   7.35568
11.1997   7.36050
11.1756   7.23556
11.1515   7.04342
11.1276   6.79131
11.1038   6.54734
11.0801   6.32836
11.0564   6.16531
11.0329   6.13548
11.0095   6.05475
10.9862   6.08606
10.9629   5.96292
10.9398   5.85680
10.9168   5.83790
10.8938   5.88285
10.8710   5.97237
10.8483   6.00226
10.8256   6.03946
10.8031   6.05342
10.7806   6.10576
10.7582   6.11716
10.7360   6.09738
10.7138   6.08487
10.6917   6.08898
10.6697   6.15020
10.6478   6.14148
10.6260   6.18883
10.6042   6.37941
10.5826   6.38135
10.5610   6.18949
10.5396   6.20429
10.5182   6.29409
10.4969   6.41502
10.4757   6.53400
10.4546   6.50854
10.4335   6.50034
10.4126   6.41913
10.3917   6.47287
10.3709   6.71796
10.3502   6.73234
10.3296   6.60934
10.3091   6.63886
10.2886   6.79005
10.2683   7.01760
10.2480   7.14618
10.2277   7.25428
10.2076   7.37830
10.1876   7.38936
10.1676   7.50472
10.1477   7.61978
10.1279   7.67313
10.1081   7.79220
10.0885   7.83852
10.0689   7.85426
10.0494   7.81055
10.0299   7.90105
10.0106   7.98910
 9.9913   7.98352
 9.9720   8.07606
 9.9529   8.24754
 9.9338   8.24905
 9.9148   8.27495
 9.8959   8.34438
 9.8771   8.35665
 9.8583   8.31464
 9.8396   8.30873
 9.8210   8.23393
 9.8024   8.21662
 9.7839   8.28550
 9.7655   8.27653
 9.7471   8.17268
 9.7288   8.34130
 9.7106   8.53284
 9.6925   8.53847
 9.6744   8.56257
 9.6564   8.75948
 9.6384   8.87777
 9.6205   8.78094
 9.6027   8.57907
 9.5850   8.48557
 9.5673   8.51777
 9.5497   8.47899
 9.5321   8.39832
 9.5146   8.33956
 9.4972   8.33969
 9.4798   8.33244
 9.4625   8.31833
 9.4453   8.11537
 9.4281   8.09078
 9.4110   8.17097
 9.3940   8.32036
 9.3770   8.46126
 9.3600   8.51382
 9.3432   8.48097
 9.3264   8.60736
 9.3096   8.52900
 9.2930   8.44005
 9.2763   8.43542
 9.2598   8.25060
 9.2432   8.24893
 9.2268   8.35968
 9.2104   8.31762
 9.1941   8.10288
 9.1778   7.97278
 9.1616   8.00482
 9.1454   7.94017
 9.1293   7.78738
 9.1133   7.66022
 9.0973   7.61170
 9.0814   7.45253
 9.0655   7.41037
 9.0497   7.33496
 9.0339   7.24206
 9.0182   7.26636
 9.0025   7.27499
 8.9870   7.31165
 8.9714   7.24843
 8.9559   7.17422
 8.9405   7.21405
 8.9251   7.12767
 8.9097   6.98540
 8.8945   7.08859
 8.8792   7.20114
 8.8641   7.23661
 8.8489   7.28060
 8.8338   7.44391
 8.8188   7.34214
 8.8039   7.21537
 8.7889   7.33159
 8.7741   7.38830
 8.7592   7.40188
 8.7445   7.43930
 8.7297   7.37257
 8.7151   7.31445
 8.7005   7.42388
 8.6859   7.44123
 8.6714   7.30389
 8.6569   7.26465
 8.6425   7.30468
 8.6281   7.32116
 8.6137   7.36720
 8.5994   7.38294
 8.5852   7.48228
 8.5710   7.59310
 8.5569   7.79570
 8.5428   7.97351
 8.5287   8.05020
 8.5147   7.99866
 8.5008   7.94225
 8.4869   7.91601
 8.4730   7.86498
 8.4592   8.02386
 8.4454   8.10774
 8.4316   8.17359
 8.4180   8.27581
 8.4043   8.36468
 8.3907   8.54462
 8.3772   8.59479
 8.3637   8.59156
 8.3502   8.64005
 8.3368   8.67649
 8.3234   8.71926
 8.3100   8.76994
 8.2967   8.90308
 8.2835   9.02701
 8.2703   9.16693
 8.2571   9.30778
 8.2440   9.46005
 8.2309   9.57945
 8.2179   9.72461
 8.2049   9.78371
 8.1919   9.91879
 8.1790  10.01910
 8.1661  10.00410
 8.1532   9.90171
 8.1404   9.83589
 8.1277   9.96241
 8.1150   9.95797
 8.1023   9.89683
 8.0897   9.91793
 8.0770   9.87711
 8.0645   9.83351
 8.0520  10.04780
 8.0395   9.98383
 8.0270   9.87677
 8.0146   9.93493
 8.0023  10.03770
 7.9899  10.07880
 7.9776  10.09480
 7.9654  10.08880
 7.9532   9.98992
 7.9410   9.98515
 7.9288  10.03930
 7.9167   9.99961
 7.9047   9.94827
 7.8926   9.92107
 7.8807   9.88034
 7.8687   9.84085
 7.8568   9.83625
 7.8449   9.85694
 7.8330   9.80898
 7.8212   9.70406
 7.8094   9.68607
 7.7977   9.63253
 7.7860   9.61867
 7.7743   9.72780
 7.7627   9.73097
 7.7511   9.72457
 7.7395   9.79257
 7.7280   9.69942
 7.7165   9.54186
 7.7050   9.60300
 7.6936   9.72942
 7.6822   9.67832
 7.6708   9.56054
 7.6595   9.52269
 7.6482   9.53967
 7.6369   9.57356
 7.6257   9.52307
 7.6145   9.47226
 7.6033   9.35056
 7.5922   9.20483
 7.5811   9.27009
 7.5700   9.26336
 7.5590   9.17055
 7.5480   9.14822
 7.5370   9.17719
 7.5261   9.13053
 7.5152   9.11355
 7.5043   9.03744
 7.4935   8.99404
 7.4826   9.11203
 7.4718   9.09260
 7.4611   8.93229
 7.4504   8.77990
 7.4397   8.73757
 7.4290   8.68897
 7.4184   8.57361
 7.4078   8.58734
 7.3972   8.57154
 7.3867   8.40574
 7.3762   8.31023
 7.3657   8.23275
 7.3553   8.06378
 7.3449   7.88374
 7.3345   7.68533
 7.3241   7.46758
 7.3138   7.32944
 7.3035   7.14360
 7.2932   6.96814
 7.2830   6.85221
 7.2727   6.74011
 7.2626   6.58408
 7.2524   6.47244
 7.2423   6.44746
 7.2322   6.39636
 7.2221   6.36393
 7.2120   6.45845
 7.2020   6.61369
 7.1921   6.61328
 7.1821   6.58689
 7.1722   6.67755
 7.1623   6.77504
 7.1524   6.82687
 7.1425   6.86161
 7.1327   7.08368
 7.1229   7.34420
 7.1131   7.59373
 7.1034   7.83491
 7.0937   7.94513
 7.0840   8.16802
 7.0743   8.40279
 7.0647   8.42850
 7.0551   8.43079
 7.0455   8.55889
 7.0359   8.57413
 7.0264   8.53511
 7.0169   8.52749
 7.0074   8.40169
 6.9979   8.29494
 6.9885   8.24419
 6.9791   8.16283
 6.9697   8.12765
 6.9604   8.16507
 6.9510   8.10755
 6.9417   7.98310
 6.9324   7.99529
 6.9232   8.01474
 6.9140   7.93631
 6.9047   7.90158
 6.8956   7.90088
 6.8864   7.85128
 6.8773   7.91621
 6.8682   7.99297
 6.8591   8.09140
 6.8500   8.13947
 6.8410   8.10767
 6.8320   8.23651
 6.8230   8.34062
 6.8140   8.38234
 6.8051   8.51169
 6.7962   8.68541
 6.7873   8.83723
 6.7784   8.92230
 6.7695   8.98320
 6.7607   9.05990
 6.7519   9.24025
 6.7431   9.49231
 6.7344   9.64859
 6.7256   9.75586
 6.7169   9.93744
 6.7082  10.19240
 6.6996  10.43270
 6.6909  10.68760
 6.6823  11.04090
 6.6737  11.35840
 6.6651  11.52410
 6.6566  11.69220
 6.6480  11.95670
 6.6395  12.24780
 6.6310  12.29900
 6.6226  12.30900
 6.6141  12.39910
 6.6057  12.46080
 6.5973  12.49570
 6.5889  12.57390
 6.5805  12.58300
 6.5722  12.51740
 6.5639  12.52240
 6.5556  12.54800
 6.5473  12.50090
 6.5390  12.33760
 6.5308  12.32320
 6.5226  12.42010
 6.5144  12.37850
 6.5062  12.38750
 6.4981  12.51710
 6.4900  12.48520
 6.4818  12.46710
 6.4737  12.49870
 6.4657  12.47870
 6.4576  12.54180
 6.4496  12.71390
 6.4416  12.80850
 6.4336  12.74090
 6.4256  12.67620
 6.4177  12.68980
 6.4097  12.52700
 6.4018  12.25380
 6.3939  12.18180
 6.3860  12.16250
 6.3782  12.04200
 6.3704  11.80850
 6.3625  11.50750
 6.3547  11.14720
 6.3470  10.79450
 6.3392  10.33950
 6.3315   9.80021
 6.3237   9.26427
 6.3160   8.78169
 6.3083   8.39114
 6.3007   7.97982
 6.2930   7.62035
 6.2854   7.39422
 6.2778   7.17415
 6.2702   6.82970
 6.2626   6.43040
 6.2551   6.16171
 6.2476   5.94727
 6.2400   5.81091
 6.2325   5.63181
 6.2251   5.41898
 6.2176   5.27439
 6.2101   5.17442
 6.2027   4.95667
 6.1953   4.74230
 6.1879   4.63415
 6.1805   4.59999
 6.1732   4.53767
 6.1658   4.37446
 6.1585   4.16289
 6.1512   4.05565
 6.1439   3.99419
 6.1367   3.94492
 6.1294   3.89214
 6.1222   3.88130
 6.1149   3.82641
 6.1077   3.69685
 6.1006   3.65821
 6.0934   3.60185
 6.0862   3.55429
 6.0791   3.51668
 6.0720   3.51565
 6.0649   3.42052
 6.0578   3.31698
 6.0507   3.30903
 6.0437   3.25285
 6.0366   3.23821
 6.0296   3.33202
 6.0226   3.41519
 6.0156   3.30643
 6.0087   3.22493
 6.0017   3.12672
 5.9948   3.05315
 5.9878   3.09312
 5.9809   3.11247
 5.9740   3.08760
 5.9672   2.95824
 5.9603   2.85251
 5.9535   2.86827
 5.9466   2.85388
 5.9398   2.82555
 5.9330   2.90214
 5.9262   2.96990
 5.9195   2.91707
 5.9127   2.81345
 5.9060   2.76413
 5.8993   2.79686
 5.8926   2.87069
 5.8859   2.93659
 5.8792   2.85907
 5.8726   2.72780
 5.8659   2.65181
 5.8593   2.59216
 5.8527   2.48864
 5.8461   2.46799
 5.8395   2.46030
 5.8329   2.51018
 5.8264   2.61162
 5.8198   2.60396
 5.8133   2.53047
 5.8068   2.65815
 5.8003   2.73598
 5.7938   2.75389
 5.7874   2.75987
 5.7809   2.76854
 5.7745   2.64908
 5.7680   2.55490
 5.7616   2.60887
 5.7552   2.73772
 5.7489   2.79720
 5.7425   2.89960
 5.7361   2.91799
 5.7298   2.91028
 5.7235   2.92906
 5.7172   2.95682
 5.7109   3.03326
 5.7046   3.08250
 5.6983   3.09471
 5.6921   3.09774
 5.6858   3.12885
 5.6796   3.15478
 5.6734   3.14170
 5.6672   3.12010
 5.6610   3.12767
 5.6548   3.06225
 5.6487   3.08230
 5.6425   3.18831
 5.6364   3.26492
 5.6303   3.24996
 5.6242   3.21371
 5.6181   3.15240
 5.6120   3.04043
 5.6059   2.94668
 5.5999   2.93457
 5.5938   2.88868
 5.5878   2.80238
 5.5818   2.80063
 5.5758   2.81414
 5.5698   2.75723
 5.5638   2.63564
 5.5578   2.68004
 5.5519   2.71752
 5.5460   2.74197
 5.5400   2.79415
 5.5341   2.75380
 5.5282   2.80872
 5.5223   2.87432
 5.5164   3.00021
 5.5106   3.01924
 5.5047   3.02237
 5.4989   3.05866
 5.4931   3.13487
 5.4873   3.15542
 5.4815   3.24391
 5.4757   3.44010
 5.4699   3.66008
 5.4641   3.75586
 5.4584   3.74056
 5.4527   3.85260
 5.4469   4.03175
 5.4412   4.07327
 5.4355   4.16190
 5.4298   4.28898
 5.4241   4.39558
 5.4185   4.37728
 5.4128   4.27572
 5.4072   4.25194
 5.4015   4.28551
 5.3959   4.28344
 5.3903   4.22263
 5.3847   4.19968
 5.3791   4.20828
 5.3735   4.19745
 5.3680   4.05725
 5.3624   4.01898
 5.3569   4.00518
 5.3514   3.99834
 5.3458   4.05495
 5.3403   4.11296
 5.3348   4.10099
 5.3294   4.12796
 5.3239   4.20446
 5.3184   4.21418
 5.3130   4.24387
 5.3075   4.24315
 5.3021   4.18030
 5.2967   4.25717
 5.2913   4.33533
 5.2859   4.42848
 5.2805   4.47398
 5.2751   4.50157
 5.2698   4.45959
 5.2644   4.43047
 5.2591   4.57431
 5.2538   4.73770
 5.2485   4.76392
 5.2431   4.73133
 5.2378   4.69464
 5.2326   4.78899
 5.2273   5.00928
 5.2220   5.09837
 5.2168   5.07518
 5.2115   5.10915
 5.2063   5.14208
 5.2011   5.24706
 5.1959   5.31103
 5.1907   5.29426
 5.1855   5.27733
 5.1803   5.20971
 5.1751   5.19950
 5.1700   5.19588
 5.1648   5.23944
 5.1597   5.25007
 5.1545   5.35848
 5.1494   5.42312
 5.1443   5.35846
 5.1392   5.33934
 5.1341   5.28911
 5.1291   5.24391
 5.1240   5.35310
 5.1189   5.45624
 5.1139   5.44266
 5.1088   5.37476
 5.1038   5.41917
 5.0988   5.46191
 5.0938   5.42626
 5.0888   5.35950
 5.0838   5.33079
 5.0788   5.40307
 5.0738   5.47207
 5.0689   5.44140
 5.0639   5.41804
 5.0590   5.46455
 5.0541   5.54899
 5.0491   5.54503
 5.0442   5.44646
 5.0393   5.45008
 5.0344   5.44598
 5.0296   5.48063
 5.0247   5.54827
 5.0198   5.61933
 5.0150   5.57033
 5.0101   5.48132
 5.0053   5.49833
 5.0004   5.58504
 4.9956   5.64540
 4.9908   5.64685
 4.9860   5.67698
 4.9812   5.75235
 4.9765   5.86115
 4.9717   5.88022
 4.9669   5.92261
 4.9622   6.04194
 4.9574   6.10067
 4.9527   6.04089
 4.9480   6.08438
 4.9432   6.13402
 4.9385   6.19079
 4.9338   6.31270
 4.9291   6.31768
 4.9245   6.21206
 4.9198   6.26649
 4.9151   6.33514
 4.9105   6.43895
 4.9058   6.61473
 4.9012   6.67717
 4.8966   6.58084
 4.8919   6.58094
 4.8873   6.69983
 4.8827   6.82085
 4.8781   6.93349
 4.8736   6.99106
 4.8690   6.94287
 4.8644   6.92167
 4.8599   6.97100
 4.8553   7.07073
 4.8508   7.04709
 4.8462   7.00956
 4.8417   7.08232
 4.8372   7.12839
 4.8327   7.17286
 4.8282   7.24224
 4.8237   7.29450
 4.8192   7.31274
 4.8147   7.38458
 4.8103   7.39135
 4.8058   7.30489
 4.8014   7.22519
 4.7969   7.30270
 4.7925   7.39071
 4.7881   7.33253
 4.7836   7.36594
 4.7792   7.36279
 4.7748   7.28922
 4.7704   7.29552
 4.7660   7.36744
 4.7617   7.48987
 4.7573   7.50331
 4.7530   7.40106
 4.7486   7.41909
 4.7443   7.48171
 4.7399   7.48423
 4.7356   7.47888
 4.7313   7.52285
 4.7270   7.48121
 4.7226   7.44588
 4.7184   7.40744
 4.7141   7.33310
 4.7098   7.29796
 4.7055   7.28111
 4.7012   7.28354
 4.6970   7.25629
 4.6927   7.16509
 4.6885   7.13077
 4.6842   7.03300
 4.6800   6.95061
 4.6758   6.88435
 4.6716   6.90171
 4.6674   6.97745
 4.6632   6.96545
 4.6590   6.91057
 4.6548   6.95525
 4.6506   6.93687
 4.6465   6.92410
 4.6423   7.06384
 4.6382   7.14427
 4.6340   7.10091
 4.6299   7.09656
 4.6258   7.09194
 4.6216   7.18308
 4.6175   7.23815
 4.6134   7.34029
 4.6093   7.46124
 4.6052   7.52025
 4.6011   7.60131
 4.5971   7.65797
 4.5930   7.61435
 4.5889   7.57762
 4.5849   7.59705
 4.5808   7.67584
 4.5768   7.75830
 4.5727   7.76547
 4.5687   7.81200
 4.5647   7.91288
 4.5607   7.98139
 4.5567   7.97705
 4.5526   7.95137
 4.5487   8.01291
 4.5447   8.10053
 4.5407   8.15638
 4.5367   8.24171
 4.5328   8.28626
 4.5288   8.26415
 4.5248   8.20662
 4.5209   8.22632
 4.5170   8.32079
 4.5130   8.31719
 4.5091   8.31188
 4.5052   8.31119
 4.5013   8.28211
 4.4974   8.25751
 4.4935   8.18185
 4.4896   8.23121
 4.4857   8.38050
 4.4818   8.36156
 4.4779   8.33678
 4.4741   8.27670
 4.4702   8.35828
 4.4664   8.46367
 4.4625   8.39704
 4.4587   8.34424
 4.4549   8.34158
 4.4510   8.37974
 4.4472   8.41774
 4.4434   8.49401
 4.4396   8.50287
 4.4358   8.43451
 4.4320   8.53068
 4.4282   8.64128
 4.4245   8.61999
 4.4207   8.57711
 4.4169   8.55182
 4.4132   8.61074
 4.4094   8.67450
 4.4057   8.75917
 4.4019   8.82079
 4.3982   8.79666
 4.3945   8.77393
 4.3907   8.82618
 4.3870   8.91235
 4.3833   8.94266
 4.3796   8.93584
 4.3759   8.89323
 4.3722   8.78700
 4.3685   8.81055
 4.3649   8.90650
 4.3612   8.92950
 4.3575   8.93619
 4.3539   8.99504
 4.3502   8.98324
 4.3466   8.86741
 4.3429   8.78820
 4.3393   8.78059
 4.3357   8.85500
 4.3320   8.78909
 4.3284   8.72433
 4.3248   8.74237
 4.3212   8.74325
 4.3176   8.72427
 4.3140   8.76195
 4.3105   8.74919
 4.3069   8.68490
 4.3033   8.65586
 4.2997   8.66100
 4.2962   8.68185
 4.2926   8.60203
 4.2890   8.45411
 4.2855   8.35707
 4.2820   8.34527
 4.2784   8.32699
 4.2749   8.29108
 4.2714   8.35066
 4.2679   8.38236
 4.2644   8.46537
 4.2609   8.49302
 4.2574   8.49263
 4.2539   8.65775
 4.2504   8.67875
 4.2469   8.65108
 4.2434   8.53485
 4.2400   8.44144
 4.2365   8.40442
 4.2330   8.42669
 4.2296   8.51737
 4.2261   8.53577
 4.2227   8.49289
 4.2193   8.58567
 4.2158   8.58029
 4.2124   8.54347
 4.2090   8.63560
 4.2056   8.76973
 4.2022   8.77599
 4.1988   8.66055
 4.1954   8.62449
 4.1920   8.56873
 4.1886   8.60376
 4.1852   8.68667
 4.1818   8.63533
 4.1785   8.49069
 4.1751   8.45385
 4.1717   8.58231
 4.1684   8.60270
 4.1650   8.48619
 4.1617   8.55745
 4.1584   8.56682
 4.1550   8.44234
 4.1517   8.31986
 4.1484   8.38708
 4.1451   8.50720
 4.1418   8.50352
 4.1384   8.40473
 4.1351   8.30804
 4.1319   8.25547
 4.1286   8.19304
 4.1253   8.24619
 4.1220   8.19866
 4.1187   8.11059
 4.1155   8.12961
 4.1122   8.06225
 4.1089   7.95536
 4.1057   8.06006
 4.1024   8.06104
 4.0992   7.85654
 4.0959   7.75340
 4.0927   7.83251
 4.0895   7.89546
 4.0863   7.87157
 4.0830   7.75087
 4.0798   7.70482
 4.0766   7.70809
 4.0734   7.60443
 4.0702   7.45970
 4.0670   7.51937
 4.0639   7.49524
 4.0607   7.38585
 4.0575   7.24436
 4.0543   7.19104
 4.0511   7.01514
 4.0480   6.82308
 4.0448   6.81733
 4.0417   6.79194
 4.0385   6.58151
 4.0354   6.41901
 4.0323   6.38358
 4.0291   6.20154
 4.0260   5.91773
 4.0229   5.77665
 4.0197   5.75403
 4.0166   5.57581
 4.0135   5.46212
 4.0104   5.25389
 4.0073   5.04104
 4.0042   4.89636
 4.0011   4.64135
 3.9981   4.51049
 3.9950   4.34790
 3.9919   4.29240
 3.9888   4.22779
 3.9857   4.12704
 3.9827   4.14080
 3.9796   4.01778
 3.9766   3.91958
 3.9735   3.93174
 3.9705   3.95760
 3.9675   3.92453
 3.9644   4.05126
 3.9614   4.13846
 3.9584   4.14602
 3.9554   4.22490
 3.9523   4.27061
 3.9493   4.25646
 3.9463   4.21039
 3.9433   4.39816
 3.9403   4.41917
 3.9373   4.31913
 3.9343   4.32043
 3.9314   4.37830
 3.9284   4.37042
 3.9254   4.41630
 3.9224   4.42467
 3.9195   4.47492
 3.9165   4.44832
 3.9136   4.53594
 3.9106   4.70534
 3.9077   4.77367
 3.9047   4.79473
 3.9018   4.78136
 3.8988   4.80306
 3.8959   4.83803
 3.8930   4.93635
 3.8901   4.96274
 3.8872   4.89822
 3.8842   5.00273
 3.8813   5.12478
 3.8784   5.01385
 3.8755   4.87180
 3.8726   4.99502
 3.8697   5.14529
 3.8669   5.30838
 3.8640   5.45271
 3.8611   5.39003
 3.8582   5.38631
 3.8554   5.56291
 3.8525   5.61420
 3.8496   5.56800
 3.8468   5.68175
 3.8439   5.70709
 3.8411   5.71524
 3.8382   5.65003
