Name: Diopside CaMg(SiO_3)_2
Type: Mineral
Class: Silicates
Subclass: Inosilicates
Particle Size: 125-500um
Sample No.: IN-9B
Owner: JPL
Wavelength range: IR
Origin: Canada, Quebec
Collected by Ward's
Description: 





Measurement: Hemispherical reflectance
First Column: X
Second Column: Y
X Units:  Wavelength (micrometers)
Y Units:  Reflectance (percent)
First X Value: 15.3853
Last X Value: 2.00032
Number of X Values: 2256
Additional information: in09ba.txt
 
15.3853	1.64689
15.3397	1.81295
15.2945	1.89617
15.2495	2.08134
15.2048	2.23758
15.1603	2.41776
15.1161	2.83685
15.0722	3.21849
15.0285	3.20192
14.9851	3.3064
14.9419	3.4384
14.8989	3.50216
14.8563	3.43393
14.8138	3.22995
14.7716	2.829
14.7296	2.37469
14.6879	2.05867
14.6464	1.88084
14.6052	2.08652
14.5641	2.15586
14.5233	2.13118
14.4828	1.99281
14.4424	1.89986
14.4023	1.89645
14.3624	1.96986
14.3227	2.10879
14.2833	2.15461
14.244	2.05705
14.205	1.94683
14.1662	2.17598
14.1276	2.29508
14.0892	2.35527
14.051	2.52528
14.0131	2.46792
13.9753	2.26258
13.9377	2.3918
13.9004	2.54044
13.8632	2.58566
13.8262	2.72015
13.7895	2.76839
13.7529	2.75354
13.7165	2.78601
13.6803	2.78337
13.6443	2.98913
13.6085	3.18503
13.5729	3.09701
13.5374	3.10808
13.5022	3.18459
13.4671	3.2799
13.4322	3.35376
13.3975	3.2758
13.363	3.26944
13.3286	3.53234
13.2944	3.57502
13.2604	3.31402
13.2266	3.45811
13.193	3.71637
13.1595	3.65519
13.1262	3.66475
13.093	3.78726
13.06	3.85878
13.0272	3.79322
12.9946	3.83872
12.9621	3.84222
12.9298	3.92573
12.8976	4.11379
12.8656	4.17557
12.8337	4.12627
12.8021	4.13641
12.7705	4.30305
12.7391	4.41344
12.7079	4.41308
12.6769	4.40466
12.6459	4.46786
12.6152	4.54853
12.5845	4.51617
12.5541	4.65591
12.5238	4.92006
12.4936	4.91497
12.4635	4.72902
12.4337	4.93532
12.4039	5.34194
12.3743	5.558
12.3448	5.55933
12.3155	5.50015
12.2863	5.63557
12.2573	5.78969
12.2284	5.84735
12.1996	6.00601
12.171	6.08402
12.1425	6.09928
12.1141	6.30104
12.0859	6.55349
12.0578	6.68233
12.0298	6.92542
12.0019	7.15874
11.9742	7.44718
11.9466	7.81339
11.9192	8.03069
11.8918	8.20481
11.8646	8.53936
11.8375	8.96023
11.8106	9.48707
11.7837	10.1631
11.757	10.809
11.7304	11.4393
11.7039	12.0194
11.6776	12.621
11.6513	13.1962
11.6252	13.5229
11.5992	13.8374
11.5733	14.0858
11.5475	14.2806
11.5219	14.536
11.4963	14.7817
11.4709	14.7999
11.4455	14.8315
11.4203	14.8524
11.3952	14.9526
11.3702	15.0818
11.3454	15.226
11.3206	15.2927
11.2959	15.3379
11.2714	15.4238
11.2469	15.4663
11.2226	15.532
11.1983	15.5148
11.1742	15.5099
11.1502	15.649
11.1263	15.7524
11.1024	15.685
11.0787	15.6575
11.0551	15.6282
11.0316	15.7563
11.0081	15.998
10.9848	16.0648
10.9616	15.943
10.9385	16.0443
10.9154	16.1744
10.8925	16.1487
10.8697	16.2426
10.8469	16.2968
10.8243	16.1142
10.8017	15.7421
10.7793	15.1452
10.7569	14.4139
10.7346	13.7243
10.7125	13.2953
10.6904	13.2782
10.6684	13.4589
10.6465	13.5935
10.6247	13.8407
10.6029	14.0807
10.5813	14.2776
10.5597	14.4829
10.5383	14.6981
10.5169	14.8916
10.4956	15.1432
10.4744	15.3756
10.4533	15.6156
10.4323	15.9906
10.4113	16.2831
10.3904	16.3772
10.3697	16.4529
10.349	16.3284
10.3284	15.9279
10.3078	15.4553
10.2874	14.9234
10.267	14.297
10.2467	13.5863
10.2265	12.9704
10.2064	12.4367
10.1863	11.8357
10.1663	11.2173
10.1464	10.4885
10.1266	9.75006
10.1069	9.11165
10.0872	8.61235
10.0676	8.46673
10.0481	8.79276
10.0287	9.22676
10.0093	9.69146
9.99005	10.2169
9.97084	10.647
9.95169	11.001
9.93263	11.3156
9.91364	11.5508
9.89472	11.8135
9.87587	12.0399
9.8571	12.2264
9.83839	12.2454
9.81976	12.097
9.80119	11.9975
9.78271	11.9698
9.76428	11.8264
9.74592	11.707
9.72764	11.5831
9.70943	11.4015
9.69128	11.3946
9.6732	11.3171
9.65518	11.1173
9.63724	11.133
9.61935	11.151
9.60155	10.993
9.5838	10.9583
9.56611	11.0391
9.5485	11.1394
9.53094	11.224
9.51345	11.3768
9.49604	11.5446
9.47867	11.9213
9.46137	12.3801
9.44414	13.0419
9.42697	13.8672
9.40986	14.5703
9.39281	15.2049
9.37583	15.8185
9.35891	16.3084
9.34204	16.5347
9.32524	16.8139
9.3085	17.0287
9.29182	17.1402
9.27519	17.2048
9.25863	17.2562
9.24213	17.1678
9.22568	17.1779
9.2093	17.2109
9.19297	17.099
9.17669	17.0793
9.16048	17.1172
9.14433	17.2044
9.12823	17.1782
9.11218	17.065
9.0962	17.0387
9.08027	16.9614
9.06439	16.8787
9.04858	16.8951
9.03281	16.9247
9.0171	16.8373
9.00145	16.8347
8.98585	16.9589
8.9703	16.9086
8.9548	16.7811
8.93937	16.6245
8.92398	16.3609
8.90865	15.8162
8.89337	15.1174
8.87814	14.4236
8.86296	13.602
8.84784	12.6854
8.83277	11.9327
8.81774	11.3127
8.80277	10.4837
8.78786	9.49869
8.77298	8.56385
8.75816	7.7052
8.7434	6.82371
8.72868	5.92824
8.714	5.24899
8.69938	4.65052
8.68481	4.12612
8.67029	3.63274
8.65581	3.19441
8.64139	2.89505
8.62701	2.45609
8.61268	2.18469
8.5984	2.14407
8.58416	1.94648
8.56997	1.71219
8.55583	1.53315
8.54174	1.4305
8.52769	1.38916
8.51368	1.35748
8.49973	1.40919
8.48582	1.37448
8.47195	1.22829
8.45813	1.25531
8.44436	1.30683
8.43062	1.30668
8.41693	1.31249
8.4033	1.28124
8.3897	1.12093
8.37614	1.01769
8.36264	1.00029
8.34917	0.996898
8.33574	1.13093
8.32236	1.20562
8.30903	1.17977
8.29573	1.04867
8.28248	1.072
8.26927	1.18964
8.2561	1.21116
8.24298	1.12115
8.2299	1.09507
8.21685	1.1694
8.20385	1.28752
8.19089	1.28003
8.17797	1.31422
8.16509	1.25953
8.15225	1.14944
8.13946	1.07341
8.1267	1.18677
8.11398	1.2584
8.10131	1.25321
8.08867	1.31809
8.07606	1.35244
8.0635	1.22747
8.05099	1.17788
8.0385	1.28106
8.02606	1.36712
8.01366	1.46665
8.00129	1.5031
7.98896	1.49591
7.97667	1.47201
7.96442	1.48629
7.9522	1.51326
7.94002	1.5804
7.92788	1.59286
7.91578	1.57174
7.90371	1.55484
7.89168	1.68993
7.87969	1.7581
7.86773	1.72985
7.85581	1.75003
7.84392	1.71787
7.83207	1.72883
7.82026	1.80185
7.80849	1.8268
7.79674	1.92255
7.78503	1.95945
7.77337	1.93405
7.76173	1.94125
7.75012	1.9469
7.73856	1.95576
7.72703	1.94438
7.71553	2.04063
7.70406	2.05036
7.69263	1.99009
7.68123	2.08565
7.66987	2.26348
7.65855	2.37977
7.64725	2.37084
7.63598	2.29309
7.62475	2.12946
7.61356	2.10327
7.60239	2.20481
7.59126	2.25332
7.58017	2.24113
7.5691	2.23536
7.55806	2.33951
7.54707	2.40417
7.5361	2.3991
7.52516	2.34798
7.51425	2.40971
7.50338	2.53706
7.49253	2.52568
7.48172	2.58668
7.47094	2.70724
7.46019	2.7497
7.44947	2.82304
7.43879	2.90242
7.42813	2.89612
7.4175	2.89563
7.4069	2.96
7.39634	2.98133
7.3858	2.98236
7.37529	2.99757
7.36482	2.96805
7.35437	2.99381
7.34396	3.08169
7.33357	3.06456
7.32321	3.08083
7.31288	3.08654
7.30258	3.09822
7.29231	3.17019
7.28207	3.1032
7.27185	3.03814
7.26167	3.04371
7.25152	3.0772
7.24139	3.02844
7.23129	2.98733
7.22122	3.05714
7.21117	3.14708
7.20116	3.15667
7.19117	3.09516
7.18121	3.09666
7.17128	3.1767
7.16137	3.18988
7.1515	3.25876
7.14164	3.30814
7.13182	3.31325
7.12203	3.36656
7.11225	3.41281
7.10251	3.49781
7.0928	3.7414
7.08311	3.86915
7.07344	3.80594
7.06381	3.81541
7.0542	3.84215
7.04461	3.88395
7.03506	3.88706
7.02552	3.96446
7.01601	4.05566
7.00653	4.13645
6.99708	4.11206
6.98765	4.13282
6.97824	4.17636
6.96886	4.26124
6.95951	4.33019
6.95018	4.30312
6.94087	4.30467
6.9316	4.3588
6.92234	4.41712
6.91311	4.32245
6.90391	4.27444
6.89473	4.30601
6.88557	4.33863
6.87644	4.42497
6.86733	4.43516
6.85824	4.42311
6.84918	4.36473
6.84015	4.27773
6.83114	4.28071
6.82215	4.26517
6.81319	4.19589
6.80424	4.1442
6.79532	4.13573
6.78643	4.12443
6.77756	4.13447
6.76871	4.18101
6.75989	4.19172
6.75109	4.14387
6.74231	4.0772
6.73355	4.09839
6.72482	4.10341
6.71611	4.02606
6.70742	3.90469
6.69875	3.81019
6.69011	3.79789
6.68149	3.74997
6.67289	3.67854
6.66431	3.6224
6.65576	3.75202
6.64722	3.84013
6.63871	3.76142
6.63022	3.76157
6.62175	3.79959
6.61331	3.84634
6.60488	3.84519
6.59648	3.78093
6.5881	3.76457
6.57974	3.75727
6.5714	3.6921
6.56308	3.61975
6.55478	3.52165
6.54651	3.44816
6.53825	3.35432
6.53001	3.24095
6.5218	3.2778
6.51361	3.31664
6.50544	3.27064
6.49729	3.26262
6.48915	3.27805
6.48104	3.23836
6.47295	3.21611
6.46488	3.14478
6.45683	3.12239
6.4488	3.22852
6.44079	3.29877
6.4328	3.25391
6.42482	3.2252
6.41687	3.25438
6.40894	3.37177
6.40103	3.42975
6.39314	3.38332
6.38526	3.364
6.37741	3.42087
6.36957	3.51927
6.36176	3.55507
6.35396	3.61324
6.34618	3.69752
6.33843	3.68847
6.33069	3.75617
6.32297	3.84472
6.31527	3.79411
6.30758	3.80409
6.29992	3.84856
6.29227	3.76193
6.28465	3.69805
6.27704	3.70258
6.26945	3.68363
6.26188	3.67481
6.25432	3.69992
6.24679	3.70264
6.23927	3.73527
6.23177	3.80344
6.22429	3.76675
6.21683	3.73188
6.20938	3.70469
6.20195	3.73387
6.19454	3.7974
6.18715	3.80864
6.17978	3.7233
6.17242	3.68508
6.16508	3.56592
6.15776	3.49141
6.15045	3.48231
6.14317	3.34192
6.1359	3.20427
6.12864	3.24143
6.12141	3.29352
6.11419	3.26632
6.10699	3.22246
6.0998	3.18696
6.09263	3.21351
6.08549	3.30471
6.07835	3.29114
6.07123	3.28812
6.06413	3.32074
6.05705	3.36848
6.04998	3.37829
6.04293	3.46412
6.0359	3.51243
6.02888	3.57068
6.02187	3.65626
6.01489	3.77631
6.00792	3.81609
6.00096	3.85488
5.99403	4.04429
5.98711	4.19107
5.9802	4.36189
5.97331	4.64319
5.96644	4.84127
5.95958	4.89716
5.95274	5.10752
5.94591	5.5126
5.9391	5.85867
5.9323	6.05986
5.92552	6.27876
5.91876	6.52987
5.91201	6.79151
5.90528	7.07598
5.89856	7.37803
5.89186	7.61043
5.88517	7.7653
5.8785	7.80219
5.87184	7.82266
5.8652	8.02771
5.85857	8.14397
5.85196	8.21887
5.84536	8.30848
5.83878	8.39176
5.83221	8.48406
5.82566	8.74018
5.81912	8.95261
5.81259	9.04039
5.80608	9.19889
5.79959	9.45562
5.79311	9.65101
5.78665	9.84101
5.78019	9.98338
5.77376	10.1389
5.76734	10.3721
5.76093	10.4891
5.75453	10.6065
5.74815	10.6993
5.74179	10.6607
5.73543	10.7302
5.7291	10.8389
5.72277	10.9946
5.71646	11.1351
5.71017	11.2548
5.70389	11.2838
5.69762	11.3431
5.69136	11.4449
5.68513	11.4533
5.6789	11.4812
5.67268	11.5746
5.66648	11.6237
5.6603	11.718
5.65413	11.7528
5.64797	11.7913
5.64182	11.844
5.63569	11.7771
5.62957	11.7592
5.62347	11.6998
5.61737	11.5571
5.61129	11.4969
5.60522	11.4116
5.59917	11.2369
5.59313	11.0925
5.5871	10.9382
5.58109	10.7082
5.57509	10.5584
5.5691	10.5035
5.56312	10.4649
5.55716	10.5525
5.55121	10.6974
5.54528	10.8425
5.53935	10.9469
5.53344	10.9578
5.52754	11.0398
5.52166	11.0973
5.51578	11.0368
5.50992	11.0113
5.50407	11.0419
5.49823	10.9895
5.49241	10.9652
5.4866	10.9801
5.4808	10.9479
5.47501	10.8736
5.46923	10.738
5.46347	10.5658
5.45772	10.4127
5.45198	10.195
5.44625	10.0385
5.44054	9.8734
5.43484	9.65899
5.42914	9.46984
5.42347	9.28529
5.4178	9.08677
5.41214	9.02422
5.4065	8.93187
5.40087	8.79867
5.39525	8.67861
5.38964	8.5765
5.38404	8.53961
5.37846	8.50292
5.37288	8.47
5.36732	8.37282
5.36177	8.3193
5.35623	8.30609
5.35071	8.17527
5.34519	8.1044
5.33968	8.08889
5.33419	8.10464
5.32871	8.1158
5.32324	8.14892
5.31778	8.11209
5.31233	7.99563
5.30689	7.92576
5.30147	7.92325
5.29605	7.84806
5.29065	7.72355
5.28525	7.66448
5.27987	7.6757
5.2745	7.72457
5.26914	7.67272
5.26379	7.62706
5.25845	7.67852
5.25312	7.77293
5.24781	7.84478
5.2425	7.91543
5.23721	7.90443
5.23192	7.87527
5.22665	7.98903
5.22138	8.12134
5.21613	8.12124
5.21089	8.03696
5.20566	7.93822
5.20044	7.92723
5.19522	7.9314
5.19002	7.86888
5.18483	7.8646
5.17965	7.79338
5.17448	7.73973
5.16933	7.63281
5.16418	7.41431
5.15904	7.35803
5.15391	7.25777
5.14879	7.12427
5.14368	7.20397
5.13859	7.22417
5.1335	7.05512
5.12842	6.90153
5.12335	6.82043
5.1183	6.73067
5.11325	6.59571
5.10821	6.47411
5.10318	6.3079
5.09817	6.1655
5.09316	6.0494
5.08816	5.94589
5.08317	5.938
5.07819	5.83092
5.07322	5.64297
5.06826	5.58988
5.06331	5.7046
5.05837	5.83338
5.05344	5.93252
5.04852	6.05381
5.04361	6.15691
5.03871	6.35823
5.03382	6.55189
5.02894	6.6798
5.02406	6.90997
5.0192	7.11632
5.01435	7.27429
5.0095	7.4329
5.00467	7.55863
4.99984	7.66316
4.99502	7.68723
4.99021	7.73319
4.98542	7.79315
4.98063	7.81882
4.97585	7.91938
4.97108	8.01072
4.96632	8.06507
4.96156	8.07631
4.95682	7.9993
4.95209	8.01506
4.94736	8.07131
4.94264	8.06938
4.93794	8.11707
4.93324	8.1553
4.92855	8.17636
4.92387	8.27274
4.9192	8.39157
4.91453	8.33941
4.90988	8.3464
4.90524	8.48053
4.9006	8.58914
4.89597	8.62629
4.89135	8.6041
4.88674	8.54352
4.88214	8.61323
4.87755	8.77999
4.87296	8.87309
4.86839	8.91133
4.86382	8.94494
4.85926	9.10463
4.85471	9.28449
4.85017	9.44659
4.84564	9.61076
4.84111	9.68647
4.8366	9.85236
4.83209	10.0997
4.82759	10.2756
4.8231	10.4288
4.81862	10.5196
4.81415	10.6638
4.80968	10.8869
4.80522	11.0095
4.80077	11.2033
4.79633	11.483
4.7919	11.6101
4.78747	11.6877
4.78306	11.878
4.77865	11.921
4.77425	11.9767
4.76986	12.0645
4.76547	12.0533
4.7611	12.1561
4.75673	12.2344
4.75237	12.197
4.74802	12.2595
4.74367	12.4081
4.73934	12.5937
4.73501	12.8332
4.73069	13.0537
4.72638	13.3924
4.72207	13.6836
4.71777	13.9774
4.71348	14.3633
4.7092	14.7123
4.70493	15.0029
4.70066	15.3591
4.69641	15.737
4.69216	15.9872
4.68791	16.2282
4.68368	16.5342
4.67945	16.7361
4.67523	16.8738
4.67102	17.1027
4.66682	17.3456
4.66262	17.5007
4.65843	17.6566
4.65425	17.826
4.65007	18.0482
4.64591	18.2606
4.64175	18.4907
4.6376	18.7774
4.63345	19.0734
4.62932	19.4163
4.62519	19.6648
4.62106	19.9444
4.61695	20.2132
4.61284	20.4529
4.60874	20.7589
4.60465	21.0048
4.60056	21.2492
4.59648	21.5171
4.59241	21.8428
4.58835	22.2625
4.58429	22.7325
4.58024	23.1118
4.5762	23.4487
4.57216	23.8161
4.56814	24.1807
4.56411	24.5056
4.5601	24.7695
4.55609	25.0562
4.55209	25.3538
4.5481	25.6037
4.54411	25.8904
4.54013	26.1909
4.53616	26.5873
4.5322	27.0751
4.52824	27.5346
4.52429	28.0482
4.52034	28.528
4.51641	28.9128
4.51247	29.2392
4.50855	29.5463
4.50463	29.8212
4.50072	30.0081
4.49682	30.1606
4.49292	30.3656
4.48903	30.5252
4.48515	30.648
4.48127	30.7888
4.4774	30.9206
4.47354	31.0043
4.46968	31.1209
4.46584	31.3087
4.46199	31.4699
4.45815	31.5607
4.45432	31.6344
4.4505	31.7167
4.44668	31.8214
4.44287	31.953
4.43907	32.0809
4.43527	32.14
4.43148	32.2045
4.4277	32.251
4.42392	32.3664
4.42015	32.5147
4.41638	32.6526
4.41262	32.7463
4.40887	32.816
4.40513	32.8331
4.40139	32.8801
4.39765	32.9817
4.39393	33.0961
4.39021	33.1778
4.38649	33.2402
4.38278	33.3094
4.37908	33.4006
4.37539	33.4371
4.3717	33.5398
4.36801	33.6497
4.36434	33.7195
4.36067	33.7625
4.357	33.8589
4.35335	33.8966
4.34969	33.9576
4.34605	34.0669
4.34241	34.1181
4.33877	34.1487
4.33514	34.2243
4.33152	34.3283
4.32791	34.3491
4.3243	34.4162
4.32069	34.4865
4.3171	34.6005
4.31351	34.6434
4.30992	34.6294
4.30634	34.7212
4.30277	34.8334
4.2992	34.9206
4.29564	35.0143
4.29208	35.0386
4.28853	35.0603
4.28499	35.0816
4.28145	35.1071
4.27792	35.1613
4.27439	35.2074
4.27087	35.3296
4.26735	35.4594
4.26384	35.5184
4.26034	35.6051
4.25684	35.6681
4.25335	35.7857
4.24986	35.85
4.24638	35.8013
4.24291	35.8692
4.23944	36.0177
4.23598	36.0993
4.23252	36.1446
4.22906	36.2878
4.22562	36.3495
4.22218	36.3414
4.21874	36.3248
4.21531	36.4077
4.21189	36.5418
4.20847	36.6316
4.20506	36.6837
4.20165	36.6891
4.19825	36.7245
4.19485	36.837
4.19146	36.8776
4.18807	36.8884
4.18469	36.8705
4.18132	36.8891
4.17795	36.9678
4.17458	37.0242
4.17123	37.1463
4.16787	37.2213
4.16453	37.1707
4.16118	37.1578
4.15785	37.2019
4.15451	37.2704
4.15119	37.2895
4.14787	37.316
4.14455	37.3153
4.14124	37.357
4.13794	37.44
4.13464	37.5644
4.13134	37.5417
4.12805	37.4945
4.12477	37.5427
4.12149	37.6434
4.11822	37.6886
4.11495	37.6709
4.11168	37.7335
4.10843	37.7041
4.10517	37.6236
4.10192	37.662
4.09868	37.7546
4.09545	37.8319
4.09221	37.8588
4.08899	37.8807
4.08576	37.8515
4.08255	37.8322
4.07933	37.9082
4.07613	37.9961
4.07292	37.9538
4.06973	37.9302
4.06654	37.9026
4.06335	37.8634
4.06017	37.8563
4.05699	37.8488
4.05382	37.7995
4.05065	37.7075
4.04749	37.6604
4.04433	37.5795
4.04118	37.4212
4.03803	37.2534
4.03489	37.1675
4.03175	37.0881
4.02862	36.9658
4.02549	36.8902
4.02237	36.7458
4.01925	36.5579
4.01614	36.2965
4.01303	35.969
4.00993	35.7297
4.00683	35.362
4.00373	34.9511
4.00064	34.5535
3.99756	34.1945
3.99448	33.8527
3.9914	33.4807
3.98833	33.0665
3.98527	32.8054
3.98221	32.7712
3.97915	32.8326
3.9761	32.8992
3.97305	32.9376
3.97001	33.0215
3.96697	33.1791
3.96394	33.3525
3.96091	33.5547
3.95789	33.8449
3.95487	34.2368
3.95186	34.6312
3.94885	35.0096
3.94584	35.3537
3.94284	35.676
3.93984	36.0817
3.93685	36.3121
3.93386	36.3222
3.93088	36.3624
3.9279	36.4512
3.92493	36.4958
3.92196	36.5538
3.919	36.7006
3.91604	36.7245
3.91308	36.742
3.91013	36.7843
3.90718	36.8315
3.90424	36.8689
3.9013	36.844
3.89837	36.8755
3.89544	36.9977
3.89252	36.9783
3.8896	36.9112
3.88668	36.9917
3.88377	37.0257
3.88086	37.029
3.87796	36.9993
3.87506	37.0084
3.87217	37.0755
3.86928	37.1874
3.86639	37.2265
3.86351	37.1649
3.86064	37.1455
3.85776	37.1258
3.8549	37.1312
3.85203	37.1212
3.84917	37.1715
3.84631	37.1775
3.84346	37.2094
3.84062	37.3754
3.83777	37.4713
3.83494	37.4581
3.8321	37.4788
3.82927	37.562
3.82644	37.6551
3.82362	37.7702
3.82081	37.8229
3.81799	37.8874
3.81518	37.9992
3.81238	38.0621
3.80958	38.147
3.80678	38.2265
3.80399	38.2727
3.8012	38.3084
3.79841	38.3434
3.79563	38.474
3.79286	38.599
3.79008	38.6898
3.78731	38.6884
3.78455	38.6655
3.78179	38.665
3.77903	38.6034
3.77628	38.6395
3.77353	38.6906
3.77079	38.7505
3.76805	38.7226
3.76531	38.6909
3.76258	38.7788
3.75985	38.7506
3.75713	38.6004
3.7544	38.4268
3.75169	38.4403
3.74898	38.5497
3.74627	38.4932
3.74356	38.415
3.74086	38.3983
3.73816	38.397
3.73547	38.4118
3.73278	38.3664
3.7301	38.3154
3.72741	38.3578
3.72474	38.3729
3.72206	38.3137
3.71939	38.2129
3.71673	38.1444
3.71406	38.1466
3.71141	38.1594
3.70875	38.1328
3.7061	38.0916
3.70345	37.9876
3.70081	37.8905
3.69817	37.8432
3.69553	37.8165
3.6929	37.823
3.69027	37.7932
3.68765	37.7735
3.68503	37.7373
3.68241	37.6871
3.6798	37.597
3.67719	37.5825
3.67458	37.5262
3.67198	37.4293
3.66938	37.3864
3.66678	37.4183
3.66419	37.3835
3.66161	37.2139
3.65902	37.1149
3.65644	37.0874
3.65387	37.0947
3.65129	37.0833
3.64872	37.0587
3.64616	36.9202
3.64359	36.8228
3.64103	36.7974
3.63848	36.8199
3.63593	36.8173
3.63338	36.7125
3.63084	36.5701
3.6283	36.5141
3.62576	36.4139
3.62322	36.3818
3.62069	36.3637
3.61817	36.3057
3.61564	36.1922
3.61312	36.12
3.61061	36.0607
3.6081	35.9113
3.60559	35.8702
3.60308	35.889
3.60058	35.8561
3.59808	35.7578
3.59558	35.6619
3.59309	35.6022
3.59061	35.53
3.58812	35.3872
3.58564	35.374
3.58316	35.3521
3.58069	35.2089
3.57822	35.1324
3.57575	35.0677
3.57328	34.9559
3.57082	34.8763
3.56836	34.807
3.56591	34.7503
3.56346	34.7067
3.56101	34.5988
3.55857	34.5277
3.55613	34.3683
3.55369	34.1583
3.55126	34.0789
3.54883	33.9827
3.5464	33.8619
3.54397	33.8503
3.54155	33.7776
3.53914	33.5865
3.53672	33.4395
3.53431	33.2847
3.5319	33.1989
3.5295	33.0357
3.5271	32.7818
3.5247	32.609
3.52231	32.3464
3.51991	32.0575
3.51753	31.7733
3.51514	31.4841
3.51276	31.3951
3.51038	31.2993
3.50801	31.0739
3.50563	30.8752
3.50327	30.7092
3.5009	30.5619
3.49854	30.4405
3.49618	30.3121
3.49382	30.1838
3.49147	30.0502
3.48912	29.8713
3.48677	29.6544
3.48443	29.4547
3.48209	29.3958
3.47975	29.3915
3.47742	29.3045
3.47509	29.1916
3.47276	29.2595
3.47044	29.3996
3.46812	29.5208
3.4658	29.5886
3.46348	29.597
3.46117	29.5607
