Name: Quartz SiO_2
Type: Mineral
Class: Silicates
Subclass: Tectosilicates
Particle Size: 125-500um
Sample No.: TS-1C
Owner: JPL
Wavelength range: VNIR-SWIR
Origin: USA, South Dakota, Custer County, Custer.
Collected by:  Ward's
Description: Rose quartz





Measurement: Hemispherical reflectance
First Column: X
Second Column: Y
X Units: Wavelength (micrometers)
Y Units: Reflectance (percent)
First X Value: 2.500
Last X Value: 0.400
Number of X Values: 2101
Additional information: ts01ca.txt

2.500  76.528086
2.499  76.440819
2.498  76.501342
2.497  76.603602
2.496  76.562011
2.495  76.629202
2.494  76.695008
2.493  76.555138
2.492  76.609056
2.491  76.729767
2.490  76.555478
2.489  76.655039
2.488  76.654248
2.487  76.564516
2.486  76.797222
2.485  76.734892
2.484  76.732441
2.483  76.867545
2.482  76.811366
2.481  76.952642
2.480  76.833002
2.479  76.941690
2.478  76.868384
2.477  76.966200
2.476  76.893836
2.475  76.881492
2.474  76.923558
2.473  76.983684
2.472  77.092864
2.471  77.233237
2.470  77.128274
2.469  77.208939
2.468  77.274237
2.467  77.010558
2.466  77.229785
2.465  77.206309
2.464  77.267167
2.463  77.213561
2.462  77.335068
2.461  77.471403
2.460  77.407346
2.459  77.197520
2.458  77.260706
2.457  77.219004
2.456  77.305618
2.455  77.333175
2.454  77.385673
2.453  77.406094
2.452  77.470835
2.451  77.529434
2.450  77.477332
2.449  77.419629
2.448  77.535679
2.447  77.421635
2.446  77.468169
2.445  77.411160
2.444  77.418055
2.443  77.483405
2.442  77.492241
2.441  77.488667
2.440  77.568479
2.439  77.515906
2.438  77.713419
2.437  77.632258
2.436  77.637525
2.435  77.646013
2.434  77.712765
2.433  77.651052
2.432  77.688897
2.431  77.688051
2.430  77.803759
2.429  77.748879
2.428  77.805963
2.427  77.783964
2.426  77.887646
2.425  77.926126
2.424  77.905925
2.423  78.048987
2.422  77.942678
2.421  77.906406
2.420  78.031258
2.419  77.999027
2.418  78.056815
2.417  78.043000
2.416  78.102789
2.415  78.128388
2.414  78.096433
2.413  78.160256
2.412  78.183037
2.411  78.167959
2.410  78.143930
2.409  78.155975
2.408  78.265473
2.407  78.246234
2.406  78.231069
2.405  78.284910
2.404  78.287671
2.403  78.319416
2.402  78.395724
2.401  78.359072
2.400  78.361609
2.399  78.404815
2.398  78.396826
2.397  78.386575
2.396  78.439025
2.395  78.445968
2.394  78.421036
2.393  78.434316
2.392  78.468460
2.391  78.528455
2.390  78.541781
2.389  78.540161
2.388  78.559752
2.387  78.582153
2.386  78.536604
2.385  78.520512
2.384  78.642868
2.383  78.695660
2.382  78.665044
2.381  78.627011
2.380  78.765236
2.379  78.755950
2.378  78.682250
2.377  78.741878
2.376  78.739184
2.375  78.746783
2.374  78.801602
2.373  78.820302
2.372  78.819944
2.371  78.868398
2.370  78.896852
2.369  78.833652
2.368  78.889848
2.367  78.930926
2.366  78.928988
2.365  78.934594
2.364  78.931234
2.363  78.894261
2.362  78.893359
2.361  78.985576
2.360  79.029779
2.359  79.056094
2.358  79.060477
2.357  79.023782
2.356  79.066361
2.355  79.143219
2.354  79.122653
2.353  79.080629
2.352  79.099257
2.351  79.151296
2.350  79.193053
2.349  79.151977
2.348  79.147465
2.347  79.223081
2.346  79.315163
2.345  79.301246
2.344  79.223444
2.343  79.212971
2.342  79.261376
2.341  79.316945
2.340  79.316299
2.339  79.357116
2.338  79.358350
2.337  79.308269
2.336  79.333170
2.335  79.354851
2.334  79.358753
2.333  79.368054
2.332  79.369257
2.331  79.364606
2.330  79.333124
2.329  79.356482
2.328  79.334462
2.327  79.383791
2.326  79.379472
2.325  79.339000
2.324  79.325325
2.323  79.330139
2.322  79.344613
2.321  79.418114
2.320  79.453756
2.319  79.437263
2.318  79.406362
2.317  79.346725
2.316  79.365180
2.315  79.450919
2.314  79.378105
2.313  79.351657
2.312  79.414141
2.311  79.436917
2.310  79.404707
2.309  79.418032
2.308  79.466213
2.307  79.479255
2.306  79.489288
2.305  79.524140
2.304  79.471863
2.303  79.442785
2.302  79.422872
2.301  79.444257
2.300  79.483470
2.299  79.518136
2.298  79.493373
2.297  79.458799
2.296  79.440086
2.295  79.528648
2.294  79.487565
2.293  79.509444
2.292  79.521829
2.291  79.501827
2.290  79.597268
2.289  79.565673
2.288  79.456883
2.287  79.500476
2.286  79.558682
2.285  79.513499
2.284  79.505655
2.283  79.558284
2.282  79.516619
2.281  79.520831
2.280  79.532668
2.279  79.513072
2.278  79.470763
2.277  79.471950
2.276  79.503467
2.275  79.491755
2.274  79.495319
2.273  79.461920
2.272  79.548521
2.271  79.548628
2.270  79.510962
2.269  79.477008
2.268  79.541709
2.267  79.485354
2.266  79.492931
2.265  79.473041
2.264  79.525977
2.263  79.493124
2.262  79.508579
2.261  79.516959
2.260  79.500520
2.259  79.502990
2.258  79.509880
2.257  79.496164
2.256  79.528132
2.255  79.524041
2.254  79.466714
2.253  79.530464
2.252  79.439828
2.251  79.448102
2.250  79.514139
2.249  79.516981
2.248  79.504933
2.247  79.480126
2.246  79.457440
2.245  79.458195
2.244  79.477959
2.243  79.422819
2.242  79.494401
2.241  79.518340
2.240  79.482487
2.239  79.515880
2.238  79.506138
2.237  79.500527
2.236  79.448814
2.235  79.469765
2.234  79.468795
2.233  79.500511
2.232  79.504361
2.231  79.465168
2.230  79.544122
2.229  79.475177
2.228  79.425094
2.227  79.464654
2.226  79.428035
2.225  79.416647
2.224  79.510531
2.223  79.488831
2.222  79.472515
2.221  79.452388
2.220  79.435465
2.219  79.528674
2.218  79.490673
2.217  79.540971
2.216  79.517222
2.215  79.502095
2.214  79.481780
2.213  79.532453
2.212  79.590015
2.211  79.544710
2.210  79.412752
2.209  79.583176
2.208  79.581716
2.207  79.576345
2.206  79.508250
2.205  79.591657
2.204  79.656758
2.203  79.609713
2.202  79.648510
2.201  79.617025
2.200  79.615075
2.199  79.834652
2.198  79.685106
2.197  79.720018
2.196  79.716556
2.195  79.703632
2.194  79.583868
2.193  79.794944
2.192  79.753722
2.191  79.657489
2.190  79.721192
2.189  79.877168
2.188  79.813208
2.187  79.880898
2.186  79.895666
2.185  79.847715
2.184  79.896922
2.183  79.917283
2.182  79.950391
2.181  79.957738
2.180  80.046819
2.179  80.030051
2.178  80.049451
2.177  80.109471
2.176  80.060882
2.175  80.086894
2.174  80.193855
2.173  80.224404
2.172  80.320332
2.171  80.310058
2.170  80.350488
2.169  80.362561
2.168  80.452406
2.167  80.506647
2.166  80.506134
2.165  80.538681
2.164  80.540021
2.163  80.541649
2.162  80.581279
2.161  80.615325
2.160  80.664059
2.159  80.649745
2.158  80.756489
2.157  80.742601
2.156  80.759300
2.155  80.840990
2.154  80.869786
2.153  80.846811
2.152  80.878272
2.151  80.886774
2.150  80.878701
2.149  80.967210
2.148  80.867760
2.147  80.877098
2.146  80.964596
2.145  80.985333
2.144  80.955945
2.143  81.004555
2.142  80.952363
2.141  80.965785
2.140  80.988199
2.139  80.934860
2.138  80.998118
2.137  80.989884
2.136  80.886531
2.135  80.881289
2.134  80.913253
2.133  80.893896
2.132  80.888419
2.131  80.863905
2.130  80.711474
2.129  80.682885
2.128  80.665169
2.127  80.666937
2.126  80.657107
2.125  80.655902
2.124  80.570365
2.123  80.509898
2.122  80.497577
2.121  80.401623
2.120  80.414030
2.119  80.399283
2.118  80.391849
2.117  80.313485
2.116  80.219458
2.115  80.202523
2.114  80.161313
2.113  80.096301
2.112  80.022051
2.111  79.928100
2.110  79.963133
2.109  79.878025
2.108  79.824563
2.107  79.789352
2.106  79.757579
2.105  79.697187
2.104  79.658910
2.103  79.659773
2.102  79.582004
2.101  79.562650
2.100  79.547456
2.099  79.511525
2.098  79.521812
2.097  79.564708
2.096  79.511440
2.095  79.503679
2.094  79.531501
2.093  79.608840
2.092  79.619872
2.091  79.618391
2.090  79.625235
2.089  79.628322
2.088  79.691702
2.087  79.641145
2.086  79.636580
2.085  79.701160
2.084  79.698062
2.083  79.647558
2.082  79.651140
2.081  79.704689
2.080  79.709677
2.079  79.649959
2.078  79.656828
2.077  79.685002
2.076  79.702636
2.075  79.742508
2.074  79.742555
2.073  79.754587
2.072  79.713135
2.071  79.685446
2.070  79.707653
2.069  79.801979
2.068  79.853242
2.067  79.764987
2.066  79.731660
2.065  79.711319
2.064  79.674383
2.063  79.738455
2.062  79.784541
2.061  79.798358
2.060  79.789252
2.059  79.748493
2.058  79.790374
2.057  79.800614
2.056  79.744688
2.055  79.793641
2.054  79.881764
2.053  79.857960
2.052  79.784080
2.051  79.782754
2.050  79.839358
2.049  79.835855
2.048  79.820641
2.047  79.798851
2.046  79.839085
2.045  79.841012
2.044  79.878245
2.043  79.850822
2.042  79.812122
2.041  79.795576
2.040  79.853114
2.039  79.862624
2.038  79.867501
2.037  79.850771
2.036  79.884722
2.035  79.843811
2.034  79.802944
2.033  79.775608
2.032  79.817460
2.031  79.839352
2.030  79.818210
2.029  79.744998
2.028  79.748484
2.027  79.789244
2.026  79.752588
2.025  79.762263
2.024  79.696948
2.023  79.662553
2.022  79.718636
2.021  79.647136
2.020  79.669093
2.019  79.683273
2.018  79.648905
2.017  79.631624
2.016  79.613032
2.015  79.650333
2.014  79.580852
2.013  79.590993
2.012  79.569469
2.011  79.601523
2.010  79.551745
2.009  79.509549
2.008  79.475287
2.007  79.515550
2.006  79.423906
2.005  79.442599
2.004  79.423379
2.003  79.409618
2.002  79.418371
2.001  79.531908
2.000  79.419983
1.999  79.431443
1.998  79.397084
1.997  79.375853
1.996  79.330886
1.995  79.350918
1.994  79.246197
1.993  79.279601
1.992  79.287717
1.991  79.246249
1.990  79.176049
1.989  79.159230
1.988  79.102542
1.987  79.034205
1.986  79.045842
1.985  79.045594
1.984  79.039501
1.983  78.965270
1.982  78.953839
1.981  78.913711
1.980  78.908320
1.979  78.903845
1.978  78.873419
1.977  78.779209
1.976  78.881315
1.975  78.802371
1.974  78.723438
1.973  78.731065
1.972  78.736963
1.971  78.642049
1.970  78.677758
1.969  78.686526
1.968  78.630992
1.967  78.581952
1.966  78.525221
1.965  78.476205
1.964  78.505613
1.963  78.546201
1.962  78.450989
1.961  78.445899
1.960  78.416569
1.959  78.433942
1.958  78.424147
1.957  78.379611
1.956  78.420201
1.955  78.373326
1.954  78.376272
1.953  78.402342
1.952  78.340504
1.951  78.285266
1.950  78.390635
1.949  78.311747
1.948  78.250876
1.947  78.330168
1.946  78.147847
1.945  78.207149
1.944  78.383623
1.943  78.229926
1.942  78.345585
1.941  78.282094
1.940  78.294939
1.939  78.259310
1.938  78.232836
1.937  78.184296
1.936  78.267514
1.935  78.269699
1.934  78.274347
1.933  78.231771
1.932  78.314806
1.931  78.227234
1.930  78.237978
1.929  78.265816
1.928  78.246588
1.927  78.375019
1.926  78.247152
1.925  78.279559
1.924  78.314469
1.923  78.257985
1.922  78.379933
1.921  78.350619
1.920  78.386469
1.919  78.368827
1.918  78.352286
1.917  78.436696
1.916  78.442729
1.915  78.437464
1.914  78.577643
1.913  78.512047
1.912  78.591362
1.911  78.649740
1.910  78.783065
1.909  78.738785
1.908  78.849425
1.907  78.759862
1.906  78.819158
1.905  78.850002
1.904  78.934235
1.903  79.022013
1.902  79.100173
1.901  79.066424
1.900  79.242745
1.899  79.248377
1.898  79.319832
1.897  79.346710
1.896  79.433426
1.895  79.588760
1.894  79.610387
1.893  79.628048
1.892  79.803067
1.891  79.894949
1.890  79.900716
1.889  79.973573
1.888  79.989792
1.887  80.029734
1.886  80.039034
1.885  80.055673
1.884  80.123886
1.883  80.197438
1.882  80.137777
1.881  80.249707
1.880  80.311427
1.879  80.344863
1.878  80.348871
1.877  80.351096
1.876  80.375109
1.875  80.422434
1.874  80.533251
1.873  80.520206
1.872  80.511209
1.871  80.516531
1.870  80.501018
1.869  80.574514
1.868  80.542080
1.867  80.568032
1.866  80.569001
1.865  80.564776
1.864  80.592549
1.863  80.564789
1.862  80.641046
1.861  80.691825
1.860  80.632035
1.859  80.662623
1.858  80.693175
1.857  80.736960
1.856  80.704555
1.855  80.637770
1.854  80.686366
1.853  80.677965
1.852  80.691415
1.851  80.673467
1.850  80.700285
1.849  80.719009
1.848  80.733873
1.847  80.668054
1.846  80.687698
1.845  80.759133
1.844  80.753391
1.843  80.767406
1.842  80.758275
1.841  80.751338
1.840  80.722646
1.839  80.729218
1.838  80.711367
1.837  80.671932
1.836  80.680657
1.835  80.732851
1.834  80.718432
1.833  80.719604
1.832  80.727818
1.831  80.689892
1.830  80.739412
1.829  80.774478
1.828  80.720937
1.827  80.741503
1.826  80.751720
1.825  80.755758
1.824  80.736673
1.823  80.761802
1.822  80.794732
1.821  80.801533
1.820  80.766547
1.819  80.731971
1.818  80.763958
1.817  80.799145
1.816  80.752662
1.815  80.779197
1.814  80.790522
1.813  80.763284
1.812  80.776839
1.811  80.723837
1.810  80.735767
1.809  80.747821
1.808  80.814097
1.807  80.808618
1.806  80.789233
1.805  80.851548
1.804  80.862402
1.803  80.865145
1.802  80.826285
1.801  80.796020
1.800  80.803828
1.799  80.845582
1.798  80.806729
1.797  80.763262
1.796  80.791425
1.795  80.786798
1.794  80.775229
1.793  80.788448
1.792  80.816894
1.791  80.789193
1.790  80.771783
1.789  80.795724
1.788  80.754097
1.787  80.749182
1.786  80.787479
1.785  80.789694
1.784  80.754366
1.783  80.774082
1.782  80.772950
1.781  80.776993
1.780  80.741630
1.779  80.682417
1.778  80.689198
1.777  80.733110
1.776  80.717045
1.775  80.730694
1.774  80.703382
1.773  80.683682
1.772  80.755672
1.771  80.747096
1.770  80.735702
1.769  80.726154
1.768  80.726702
1.767  80.729966
1.766  80.719772
1.765  80.817651
1.764  80.811729
1.763  80.724569
1.762  80.712502
1.761  80.747920
1.760  80.726333
1.759  80.732108
1.758  80.765436
1.757  80.789450
1.756  80.737791
1.755  80.718508
1.754  80.782375
1.753  80.790106
1.752  80.761338
1.751  80.766523
1.750  80.788229
1.749  80.798533
1.748  80.754323
1.747  80.754219
1.746  80.774951
1.745  80.830277
1.744  80.814804
1.743  80.802059
1.742  80.802066
1.741  80.800718
1.740  80.795975
1.739  80.800391
1.738  80.818784
1.737  80.790091
1.736  80.839177
1.735  80.834842
1.734  80.807322
1.733  80.849973
1.732  80.836530
1.731  80.817602
1.730  80.832952
1.729  80.844801
1.728  80.892108
1.727  80.882328
1.726  80.872363
1.725  80.836725
1.724  80.882305
1.723  80.822638
1.722  80.789735
1.721  80.832597
1.720  80.830712
1.719  80.842987
1.718  80.860501
1.717  80.877278
1.716  80.894927
1.715  80.914548
1.714  80.863340
1.713  80.847109
1.712  80.830951
1.711  80.873834
1.710  80.828773
1.709  80.811692
1.708  80.780296
1.707  80.762969
1.706  80.829646
1.705  80.844232
1.704  80.823822
1.703  80.770396
1.702  80.807079
1.701  80.869176
1.700  80.831430
1.699  80.831687
1.698  80.810151
1.697  80.846111
1.696  80.799845
1.695  80.769576
1.694  80.779732
1.693  80.778253
1.692  80.832680
1.691  80.871073
1.690  80.802044
1.689  80.791757
1.688  80.866666
1.687  80.778924
1.686  80.828255
1.685  80.759399
1.684  80.793708
1.683  80.831675
1.682  80.792704
1.681  80.841318
1.680  80.770533
1.679  80.806169
1.678  80.752610
1.677  80.863278
1.676  80.778111
1.675  80.767938
1.674  80.814779
1.673  80.776844
1.672  80.752060
1.671  80.794292
1.670  80.842123
1.669  80.692663
1.668  80.792885
1.667  80.873136
1.666  80.836128
1.665  80.779635
1.664  80.795725
1.663  80.766356
1.662  80.799973
1.661  80.773916
1.660  80.824713
1.659  80.847715
1.658  80.702134
1.657  80.766558
1.656  80.803248
1.655  80.834777
1.654  80.734555
1.653  80.788427
1.652  80.746295
1.651  80.696628
1.650  80.832516
1.649  80.683043
1.648  80.725756
1.647  80.749832
1.646  80.865357
1.645  80.731107
1.644  80.798085
1.643  80.722959
1.642  80.723247
1.641  80.772701
1.640  80.785741
1.639  80.744387
1.638  80.726691
1.637  80.820786
1.636  80.758712
1.635  80.774509
1.634  80.765871
1.633  80.789749
1.632  80.778858
1.631  80.752352
1.630  80.761552
1.629  80.712734
1.628  80.665558
1.627  80.797852
1.626  80.716288
1.625  80.767051
1.624  80.703076
1.623  80.792946
1.622  80.790570
1.621  80.751663
1.620  80.710525
1.619  80.710421
1.618  80.760645
1.617  80.748148
1.616  80.768772
1.615  80.735680
1.614  80.793766
1.613  80.830148
1.612  80.730872
1.611  80.812662
1.610  80.841172
1.609  80.780591
1.608  80.741082
1.607  80.787525
1.606  80.743312
1.605  80.742827
1.604  80.727643
1.603  80.718487
1.602  80.801878
1.601  80.783322
1.600  80.700850
1.599  80.687981
1.598  80.759993
1.597  80.745872
1.596  80.772387
1.595  80.763526
1.594  80.758156
1.593  80.751023
1.592  80.771800
1.591  80.754530
1.590  80.706183
1.589  80.731024
1.588  80.777170
1.587  80.716139
1.586  80.706948
1.585  80.721256
1.584  80.654093
1.583  80.718517
1.582  80.725618
1.581  80.725000
1.580  80.739272
1.579  80.722089
1.578  80.671576
1.577  80.697228
1.576  80.649773
1.575  80.657989
1.574  80.754885
1.573  80.642841
1.572  80.655866
1.571  80.679519
1.570  80.773563
1.569  80.700344
1.568  80.690387
1.567  80.690535
1.566  80.645348
1.565  80.620376
1.564  80.644509
1.563  80.697169
1.562  80.627562
1.561  80.666186
1.560  80.687273
1.559  80.655544
1.558  80.646733
1.557  80.699005
1.556  80.681578
1.555  80.669664
1.554  80.560318
1.553  80.631228
1.552  80.601544
1.551  80.635655
1.550  80.601396
1.549  80.579404
1.548  80.610715
1.547  80.599832
1.546  80.566918
1.545  80.592945
1.544  80.597264
1.543  80.590273
1.542  80.580122
1.541  80.595406
1.540  80.647263
1.539  80.638326
1.538  80.604992
1.537  80.613065
1.536  80.613295
1.535  80.587841
1.534  80.534399
1.533  80.574720
1.532  80.616051
1.531  80.575037
1.530  80.546243
1.529  80.563118
1.528  80.539405
1.527  80.517600
1.526  80.518735
1.525  80.527827
1.524  80.480003
1.523  80.491976
1.522  80.461602
1.521  80.491416
1.520  80.505481
1.519  80.444956
1.518  80.514860
1.517  80.504016
1.516  80.474453
1.515  80.452673
1.514  80.443411
1.513  80.490844
1.512  80.460461
1.511  80.486855
1.510  80.439975
1.509  80.412708
1.508  80.414928
1.507  80.369968
1.506  80.373590
1.505  80.382457
1.504  80.379687
1.503  80.399454
1.502  80.417945
1.501  80.371561
1.500  80.414145
1.499  80.427713
1.498  80.337273
1.497  80.361944
1.496  80.395862
1.495  80.365739
1.494  80.408707
1.493  80.355035
1.492  80.290474
1.491  80.355514
1.490  80.320196
1.489  80.288910
1.488  80.271689
1.487  80.267116
1.486  80.343479
1.485  80.309802
1.484  80.300586
1.483  80.266100
1.482  80.278776
1.481  80.299257
1.480  80.248645
1.479  80.275185
1.478  80.289770
1.477  80.299462
1.476  80.271612
1.475  80.213691
1.474  80.222749
1.473  80.250952
1.472  80.236936
1.471  80.225014
1.470  80.248332
1.469  80.211532
1.468  80.207740
1.467  80.229361
1.466  80.231070
1.465  80.205914
1.464  80.223224
1.463  80.209868
1.462  80.194543
1.461  80.177152
1.460  80.151104
1.459  80.152183
1.458  80.202980
1.457  80.227748
1.456  80.158234
1.455  80.136947
1.454  80.102617
1.453  80.169058
1.452  80.181612
1.451  80.176890
1.450  80.169096
1.449  80.159778
1.448  80.164981
1.447  80.138370
1.446  80.174195
1.445  80.143375
1.444  80.144107
1.443  80.182999
1.442  80.201086
1.441  80.107421
1.440  80.174980
1.439  80.164138
1.438  80.134888
1.437  80.172893
1.436  80.135754
1.435  80.110814
1.434  80.131464
1.433  80.098126
1.432  80.078101
1.431  80.140496
1.430  80.177815
1.429  80.213990
1.428  80.178718
1.427  80.113979
1.426  80.163935
1.425  80.194800
1.424  80.121977
1.423  80.122273
1.422  80.139194
1.421  80.134882
1.420  80.066004
1.419  80.087535
