Name: Illite (K,H_3O)(Al,Mg,Fe)_2(Si,Al)_4O_10((OH)_2,H_2O)
Type: Mineral
Class: Silicates
Subclass: Phyllosilicates
Particle Size: 0-45um
Sample No.: PS-11A
Owner: JPL
Wavelength range: IR
Origin: USA, Wisconsin, Marblehead
Collected by JPL
Description: 





Measurement: Hemispherical reflectance
First Column: X
Second Column: Y
X Units:  Wavelength (micrometers)
Y Units:  Reflectance (percent)
First X Value: 15.3853
Last X Value: 2.00032
Number of X Values: 2256
Additional information: ps11aa.txt
 
15.3853	0.896788
15.3397	0.593351
15.2945	0.478861
15.2495	0.765662
15.2048	1.05708
15.1603	1.02178
15.1161	0.89154
15.0722	0.755533
15.0285	0.88851
14.9851	1.09283
14.9419	0.851738
14.8989	0.835232
14.8563	1.03575
14.8138	0.835307
14.7716	0.735056
14.7296	1.04392
14.6879	1.16213
14.6464	1.19245
14.6052	1.22595
14.5641	1.17809
14.5233	1.06539
14.4828	0.87749
14.4424	0.998914
14.4023	0.979829
14.3624	0.941188
14.3227	1.03111
14.2833	1.14335
14.244	1.22655
14.205	1.27319
14.1662	1.30082
14.1276	1.31714
14.0892	1.41105
14.051	1.33958
14.0131	1.38135
13.9753	1.38104
13.9377	1.18302
13.9004	1.29371
13.8632	1.36456
13.8262	1.31229
13.7895	1.43454
13.7529	1.42008
13.7165	1.35572
13.6803	1.56772
13.6443	1.64347
13.6085	1.50783
13.5729	1.46497
13.5374	1.58221
13.5022	1.62853
13.4671	1.66185
13.4322	1.55928
13.3975	1.52817
13.363	1.59819
13.3286	1.58437
13.2944	1.56607
13.2604	1.47347
13.2266	1.59047
13.193	1.62628
13.1595	1.51776
13.1262	1.74547
13.093	2.05254
13.06	1.93994
13.0272	1.82491
12.9946	2.00863
12.9621	2.04774
12.9298	1.98462
12.8976	2.05338
12.8656	2.18237
12.8337	2.27845
12.8021	2.34361
12.7705	2.33194
12.7391	2.38032
12.7079	2.45092
12.6769	2.43729
12.6459	2.52905
12.6152	2.61043
12.5845	2.71278
12.5541	2.64646
12.5238	2.74271
12.4936	2.95713
12.4635	2.93591
12.4337	2.8237
12.4039	2.9572
12.3743	2.9887
12.3448	2.82364
12.3155	2.91634
12.2863	3.13154
12.2573	3.20987
12.2284	3.20379
12.1996	2.9669
12.171	2.76665
12.1425	2.69645
12.1141	2.69782
12.0859	2.58164
12.0578	2.42812
12.0298	2.37576
12.0019	2.32982
11.9742	2.29749
11.9466	2.33871
11.9192	2.31888
11.8918	2.33037
11.8646	2.40604
11.8375	2.58777
11.8106	2.7835
11.7837	2.86908
11.757	2.91511
11.7304	2.99522
11.7039	3.1627
11.6776	3.34477
11.6513	3.54224
11.6252	3.73698
11.5992	3.81488
11.5733	3.8806
11.5475	4.03771
11.5219	4.09803
11.4963	3.97436
11.4709	4.03009
11.4455	4.18366
11.4203	4.16312
11.3952	4.13073
11.3702	4.18371
11.3454	4.10849
11.3206	3.93484
11.2959	3.86222
11.2714	3.93929
11.2469	3.86178
11.2226	3.64037
11.1983	3.57628
11.1742	3.50018
11.1502	3.3885
11.1263	3.19533
11.1024	2.8899
11.0787	2.7478
11.0551	2.63126
11.0316	2.45948
11.0081	2.39563
10.9848	2.31008
10.9616	2.24186
10.9385	2.0286
10.9154	1.93963
10.8925	1.98919
10.8697	2.06827
10.8469	2.08495
10.8243	1.97248
10.8017	1.93718
10.7793	2.09125
10.7569	2.30505
10.7346	2.44496
10.7125	2.4647
10.6904	2.45867
10.6684	2.4771
10.6465	2.51491
10.6247	2.65286
10.6029	2.76519
10.5813	2.74824
10.5597	2.70973
10.5383	2.67119
10.5169	2.57753
10.4956	2.45579
10.4744	2.38299
10.4533	2.41809
10.4323	2.4005
10.4113	2.18383
10.3904	2.10016
10.3697	2.07954
10.349	2.07751
10.3284	2.1472
10.3078	2.13352
10.2874	2.02611
10.267	1.97307
10.2467	1.9974
10.2265	1.97124
10.2064	1.95045
10.1863	1.99358
10.1663	2.07692
10.1464	2.03388
10.1266	1.95921
10.1069	1.96232
10.0872	2.01159
10.0676	1.98046
10.0481	2.09474
10.0287	2.22534
10.0093	2.30424
9.99005	2.24403
9.97084	2.32973
9.95169	2.34393
9.93263	2.25005
9.91364	2.18424
9.89472	2.24883
9.87587	2.36581
9.8571	2.39266
9.83839	2.41095
9.81976	2.43505
9.80119	2.47278
9.78271	2.50487
9.76428	2.56781
9.74592	2.65859
9.72764	2.73903
9.70943	2.84198
9.69128	2.9033
9.6732	2.8931
9.65518	2.96848
9.63724	3.19146
9.61935	3.30555
9.60155	3.32066
9.5838	3.50409
9.56611	3.72593
9.5485	3.75145
9.53094	3.67629
9.51345	3.7164
9.49604	3.86528
9.47867	3.89096
9.46137	3.81468
9.44414	3.70913
9.42697	3.62638
9.40986	3.53252
9.39281	3.42192
9.37583	3.14485
9.35891	2.81786
9.34204	2.67326
9.32524	2.52953
9.3085	2.43863
9.29182	2.38984
9.27519	2.16953
9.25863	1.96229
9.24213	1.85873
9.22568	1.76167
9.2093	1.70865
9.19297	1.7585
9.17669	1.88671
9.16048	1.90311
9.14433	2.00636
9.12823	2.10144
9.11218	1.96522
9.0962	1.94825
9.08027	1.97486
9.06439	2.04361
9.04858	2.15381
9.03281	2.0834
9.0171	2.00419
9.00145	1.95072
8.98585	1.90777
8.9703	1.91099
8.9548	1.90092
8.93937	1.88926
8.92398	1.87376
8.90865	1.9225
8.89337	1.8931
8.87814	1.79191
8.86296	1.73012
8.84784	1.82972
8.83277	1.9695
8.81774	2.01575
8.80277	1.946
8.78786	1.76355
8.77298	1.65954
8.75816	1.81574
8.7434	2.06992
8.72868	2.07156
8.714	1.83336
8.69938	1.74682
8.68481	1.85681
8.67029	1.79543
8.65581	1.70643
8.64139	1.76335
8.62701	1.73221
8.61268	1.69206
8.5984	1.68995
8.58416	1.66512
8.56997	1.61037
8.55583	1.74424
8.54174	1.76189
8.52769	1.68453
8.51368	1.70223
8.49973	1.591
8.48582	1.58153
8.47195	1.5818
8.45813	1.51819
8.44436	1.51432
8.43062	1.46776
8.41693	1.55109
8.4033	1.61369
8.3897	1.53066
8.37614	1.51328
8.36264	1.60731
8.34917	1.40006
8.33574	1.19956
8.32236	1.08755
8.30903	1.04925
8.29573	1.11758
8.28248	1.14675
8.26927	1.07916
8.2561	1.00374
8.24298	0.992287
8.2299	1.02836
8.21685	1.11162
8.20385	1.16702
8.19089	1.06768
8.17797	1.05084
8.16509	1.0127
8.15225	0.900766
8.13946	0.812582
8.1267	0.823689
8.11398	0.895243
8.10131	0.963948
8.08867	1.03018
8.07606	1.0614
8.0635	1.14898
8.05099	1.2973
8.0385	1.40581
8.02606	1.51181
8.01366	1.50865
8.00129	1.32853
7.98896	1.31837
7.97667	1.39198
7.96442	1.44839
7.9522	1.60926
7.94002	1.63689
7.92788	1.59904
7.91578	1.69296
7.90371	1.82295
7.89168	1.9313
7.87969	2.03537
7.86773	2.13569
7.85581	2.23909
7.84392	2.26282
7.83207	2.25038
7.82026	2.32384
7.80849	2.46239
7.79674	2.58514
7.78503	2.5895
7.77337	2.57286
7.76173	2.60512
7.75012	2.65156
7.73856	2.74747
7.72703	2.87586
7.71553	3.01356
7.70406	3.08392
7.69263	3.15039
7.68123	3.18059
7.66987	3.27344
7.65855	3.39888
7.64725	3.50563
7.63598	3.58473
7.62475	3.71049
7.61356	3.82161
7.60239	3.88702
7.59126	3.92924
7.58017	4.09068
7.5691	4.23857
7.55806	4.31805
7.54707	4.44068
7.5361	4.54893
7.52516	4.54877
7.51425	4.61903
7.50338	4.72071
7.49253	4.87007
7.48172	4.99877
7.47094	5.06516
7.46019	5.0874
7.44947	5.19744
7.43879	5.29554
7.42813	5.39954
7.4175	5.49778
7.4069	5.63169
7.39634	5.74281
7.3858	5.77293
7.37529	5.79465
7.36482	5.85698
7.35437	5.95098
7.34396	6.06795
7.33357	6.14448
7.32321	6.20475
7.31288	6.27193
7.30258	6.32357
7.29231	6.40034
7.28207	6.43773
7.27185	6.47915
7.26167	6.60044
7.25152	6.71506
7.24139	6.81848
7.23129	6.83967
7.22122	6.86038
7.21117	6.93104
7.20116	6.99778
7.19117	7.04562
7.18121	7.11563
7.17128	7.11287
7.16137	7.1081
7.1515	7.1344
7.14164	7.18666
7.13182	7.24126
7.12203	7.22846
7.11225	7.26073
7.10251	7.36095
7.0928	7.44107
7.08311	7.46256
7.07344	7.54742
7.06381	7.65073
7.0542	7.69666
7.04461	7.75524
7.03506	7.87592
7.02552	7.91268
7.01601	7.97638
7.00653	8.0219
6.99708	8.05774
6.98765	8.20319
6.97824	8.33661
6.96886	8.43678
6.95951	8.51147
6.95018	8.6637
6.94087	8.87118
6.9316	9.09467
6.92234	9.27852
6.91311	9.46453
6.90391	9.63117
6.89473	9.80679
6.88557	9.98735
6.87644	10.0424
6.86733	10.0606
6.85824	10.3273
6.84918	10.6667
6.84015	10.9193
6.83114	11.0708
6.82215	11.2069
6.81319	11.3724
6.80424	11.5321
6.79532	11.6528
6.78643	11.8449
6.77756	12.0659
6.76871	12.2729
6.75989	12.5677
6.75109	12.8903
6.74231	13.0965
6.73355	13.155
6.72482	13.204
6.71611	13.2169
6.70742	13.3642
6.69875	13.6317
6.69011	13.741
6.68149	13.8767
6.67289	14.089
6.66431	14.2451
6.65576	14.3908
6.64722	14.4039
6.63871	14.196
6.63022	14.37
6.62175	14.7434
6.61331	14.8711
6.60488	14.9231
6.59648	15.0391
6.5881	15.1488
6.57974	15.1305
6.5714	15.1011
6.56308	15.2868
6.55478	15.3995
6.54651	15.5454
6.53825	15.6569
6.53001	15.6974
6.5218	15.6843
6.51361	15.8006
6.50544	15.7045
6.49729	15.4252
6.48915	15.4481
6.48104	15.6246
6.47295	15.645
6.46488	15.6308
6.45683	15.6643
6.4488	15.6734
6.44079	15.5794
6.4328	15.4256
6.42482	15.2538
6.41687	15.0058
6.40894	15.0393
6.40103	15.2216
6.39314	15.1933
6.38526	15.1598
6.37741	15.036
6.36957	14.8783
6.36176	14.943
6.35396	14.7669
6.34618	14.42
6.33843	14.2998
6.33069	14.2929
6.32297	14.1684
6.31527	14.0077
6.30758	13.8229
6.29992	13.6085
6.29227	13.4175
6.28465	13.2329
6.27704	13.0016
6.26945	12.7674
6.26188	12.5312
6.25432	12.262
6.24679	11.9664
6.23927	11.6675
6.23177	11.3049
6.22429	10.9035
6.21683	10.5545
6.20938	10.1582
6.20195	9.66463
6.19454	9.13876
6.18715	8.5833
6.17978	8.14031
6.17242	7.6289
6.16508	7.0793
6.15776	6.71254
6.15045	6.47855
6.14317	6.26974
6.1359	6.05954
6.12864	5.94064
6.12141	5.86779
6.11419	5.79086
6.10699	5.83685
6.0998	5.91426
6.09263	5.90927
6.08549	5.98715
6.07835	6.10779
6.07123	6.22301
6.06413	6.37308
6.05705	6.59467
6.04998	6.66823
6.04293	6.83871
6.0359	7.08014
6.02888	7.23623
6.02187	7.41767
6.01489	7.60286
6.00792	7.86152
6.00096	8.08988
5.99403	8.20984
5.98711	8.48646
5.9802	8.9006
5.97331	9.11336
5.96644	9.29527
5.95958	9.63894
5.95274	9.98097
5.94591	10.2234
5.9391	10.331
5.9323	10.7595
5.92552	11.2661
5.91876	11.6398
5.91201	11.9369
5.90528	12.2197
5.89856	12.4101
5.89186	12.7621
5.88517	13.0944
5.8785	13.5036
5.87184	14.1185
5.8652	14.5327
5.85857	14.8502
5.85196	15.1773
5.84536	15.618
5.83878	15.9861
5.83221	16.2244
5.82566	16.4755
5.81912	16.7687
5.81259	17.1729
5.80608	17.5334
5.79959	17.8332
5.79311	18.1297
5.78665	18.3958
5.78019	18.5601
5.77376	18.6128
5.76734	18.5935
5.76093	18.9103
5.75453	19.2388
5.74815	19.3591
5.74179	19.5538
5.73543	19.6539
5.7291	19.6988
5.72277	19.7645
5.71646	19.7766
5.71017	19.8212
5.70389	20.0391
5.69762	20.0888
5.69136	20.114
5.68513	20.3117
5.6789	20.3817
5.67268	20.3468
5.66648	20.3759
5.6603	20.4469
5.65413	20.4581
5.64797	20.4239
5.64182	20.4052
5.63569	20.5588
5.62957	20.6265
5.62347	20.6971
5.61737	20.7727
5.61129	20.859
5.60522	20.8959
5.59917	20.85
5.59313	20.8659
5.5871	20.8836
5.58109	20.7605
5.57509	20.737
5.5691	20.8748
5.56312	20.9579
5.55716	20.9627
5.55121	20.9473
5.54528	21.0369
5.53935	21.0904
5.53344	21.0909
5.52754	21.1261
5.52166	21.2497
5.51578	21.3307
5.50992	21.3402
5.50407	21.3275
5.49823	21.4992
5.49241	21.7026
5.4866	21.8021
5.4808	21.8519
5.47501	21.9748
5.46923	22.0733
5.46347	22.2586
5.45772	22.5823
5.45198	22.7921
5.44625	22.9374
5.44054	23.1181
5.43484	23.3392
5.42914	23.5194
5.42347	23.6107
5.4178	23.8537
5.41214	24.1814
5.4065	24.4246
5.40087	24.662
5.39525	24.8584
5.38964	25.0434
5.38404	25.2999
5.37846	25.5742
5.37288	25.7694
5.36732	25.9849
5.36177	26.1907
5.35623	26.2784
5.35071	26.3088
5.34519	26.5904
5.33968	26.8978
5.33419	27.0853
5.32871	27.1711
5.32324	27.2909
5.31778	27.4942
5.31233	27.7712
5.30689	28.0444
5.30147	28.2318
5.29605	28.3527
5.29065	28.5579
5.28525	28.8234
5.27987	29.0203
5.2745	29.2183
5.26914	29.3863
5.26379	29.6013
5.25845	29.8814
5.25312	30.1058
5.24781	30.3168
5.2425	30.4765
5.23721	30.6942
5.23192	30.9743
5.22665	31.2113
5.22138	31.4032
5.21613	31.5956
5.21089	31.8584
5.20566	32.1211
5.20044	32.2913
5.19522	32.5792
5.19002	32.9202
5.18483	33.2027
5.17965	33.4276
5.17448	33.7047
5.16933	33.9985
5.16418	34.2896
5.15904	34.5565
5.15391	34.7386
5.14879	34.8728
5.14368	35.1481
5.13859	35.4893
5.1335	35.8077
5.12842	36.0152
5.12335	36.2658
5.1183	36.4864
5.11325	36.7993
5.10821	37.0708
5.10318	37.2017
5.09817	37.3954
5.09316	37.681
5.08816	37.8825
5.08317	37.9557
5.07819	38.0614
5.07322	38.2852
5.06826	38.5106
5.06331	38.7087
5.05837	38.8851
5.05344	39.0517
5.04852	39.179
5.04361	39.3204
5.03871	39.5101
5.03382	39.7107
5.02894	39.8714
5.02406	39.9613
5.0192	40.0246
5.01435	40.1937
5.0095	40.3605
5.00467	40.4308
4.99984	40.5392
4.99502	40.6495
4.99021	40.7689
4.98542	40.9218
4.98063	41.0464
4.97585	41.1575
4.97108	41.1887
4.96632	41.1947
4.96156	41.2154
4.95682	41.3065
4.95209	41.3698
4.94736	41.4156
4.94264	41.4936
4.93794	41.5397
4.93324	41.5866
4.92855	41.692
4.92387	41.7847
4.9192	41.822
4.91453	41.8445
4.90988	41.8985
4.90524	41.9893
4.9006	42.002
4.89597	41.9848
4.89135	42.0434
4.88674	42.1515
4.88214	42.1875
4.87755	42.2519
4.87296	42.3422
4.86839	42.4053
4.86382	42.5093
4.85926	42.5998
4.85471	42.6942
4.85017	42.7663
4.84564	42.8011
4.84111	42.8583
4.8366	42.904
4.83209	42.9591
4.82759	43.0477
4.8231	43.1196
4.81862	43.1847
4.81415	43.1966
4.80968	43.2341
4.80522	43.3813
4.80077	43.5084
4.79633	43.5824
4.7919	43.6854
4.78747	43.7879
4.78306	43.8634
4.77865	43.8976
4.77425	43.9836
4.76986	44.0855
4.76547	44.1459
4.7611	44.2358
4.75673	44.3307
4.75237	44.4481
4.74802	44.5847
4.74367	44.7118
4.73934	44.7864
4.73501	44.851
4.73069	44.9757
4.72638	45.0686
4.72207	45.2014
4.71777	45.383
4.71348	45.4032
4.7092	45.4489
4.70493	45.5946
4.70066	45.6854
4.69641	45.7996
4.69216	45.9006
4.68791	46.0445
4.68368	46.0988
4.67945	46.1825
4.67523	46.3902
4.67102	46.5129
4.66682	46.6232
4.66262	46.7067
4.65843	46.7859
4.65425	46.8988
4.65007	46.9477
4.64591	47.0371
4.64175	47.2201
4.6376	47.3663
4.63345	47.541
4.62932	47.7318
4.62519	47.7905
4.62106	47.8598
4.61695	47.9442
4.61284	48.1008
4.60874	48.2277
4.60465	48.3445
4.60056	48.5295
4.59648	48.7294
4.59241	48.8476
4.58835	48.9608
4.58429	49.0355
4.58024	49.0824
4.5762	49.2182
4.57216	49.4154
4.56814	49.5115
4.56411	49.5903
4.5601	49.6716
4.55609	49.8127
4.55209	49.9593
4.5481	50.0948
4.54411	50.2056
4.54013	50.2585
4.53616	50.327
4.5322	50.4722
4.52824	50.5783
4.52429	50.7036
4.52034	50.8357
4.51641	50.9659
4.51247	51.0257
4.50855	51.0924
4.50463	51.206
4.50072	51.3024
4.49682	51.3858
4.49292	51.5057
4.48903	51.6202
4.48515	51.6818
4.48127	51.7669
4.4774	51.8669
4.47354	51.9606
4.46968	52.0749
4.46584	52.1486
4.46199	52.2651
4.45815	52.3495
4.45432	52.4176
4.4505	52.4805
4.44668	52.5638
4.44287	52.6925
4.43907	52.7902
4.43527	52.8858
4.43148	52.995
4.4277	53.1171
4.42392	53.2252
4.42015	53.3402
4.41638	53.4302
4.41262	53.4032
4.40887	53.4991
4.40513	53.6485
4.40139	53.7565
4.39765	53.8579
4.39393	54.0127
4.39021	54.112
4.38649	54.1823
4.38278	54.2642
4.37908	54.3196
4.37539	54.3905
4.3717	54.5148
4.36801	54.5844
4.36434	54.644
4.36067	54.6659
4.357	54.7484
4.35335	54.9074
4.34969	54.9734
4.34605	54.9766
4.34241	55.041
4.33877	55.1359
4.33514	55.2237
4.33152	55.2906
4.32791	55.2679
4.3243	55.3064
4.32069	55.3929
4.3171	55.4296
4.31351	55.5087
4.30992	55.5523
4.30634	55.5457
4.30277	55.5539
4.2992	55.6134
4.29564	55.7014
4.29208	55.7607
4.28853	55.765
4.28499	55.7374
4.28145	55.7412
4.27792	55.7509
4.27439	55.7212
4.27087	55.6848
4.26735	55.7222
4.26384	55.8384
4.26034	56.0289
4.25684	56.2702
4.25335	56.3557
4.24986	56.4232
4.24638	56.5667
4.24291	56.6642
4.23944	56.7382
4.23598	56.7885
4.23252	56.8558
4.22906	56.9633
4.22562	57.1468
4.22218	57.2942
4.21874	57.3899
4.21531	57.4238
4.21189	57.5064
4.20847	57.7287
4.20506	57.9548
4.20165	57.9889
4.19825	57.9772
4.19485	58.0806
4.19146	58.1433
4.18807	58.2419
4.18469	58.3577
4.18132	58.4717
4.17795	58.5478
4.17458	58.4918
4.17123	58.5168
4.16787	58.5895
4.16453	58.6993
4.16118	58.8302
4.15785	58.9691
4.15451	59.0567
4.15119	59.0694
4.14787	59.0894
4.14455	59.2286
4.14124	59.3639
4.13794	59.444
4.13464	59.5224
4.13134	59.605
4.12805	59.6354
4.12477	59.6876
4.12149	59.8123
4.11822	59.9754
4.11495	60.079
4.11168	60.1059
4.10843	60.202
4.10517	60.262
4.10192	60.2753
4.09868	60.3587
4.09545	60.4867
4.09221	60.5929
4.08899	60.6192
4.08576	60.6282
4.08255	60.7369
4.07933	60.8138
4.07613	60.8178
4.07292	60.8773
4.06973	61.0351
4.06654	61.1039
4.06335	61.1462
4.06017	61.2107
4.05699	61.2545
4.05382	61.3118
4.05065	61.3954
4.04749	61.4974
4.04433	61.516
4.04118	61.5226
4.03803	61.6124
4.03489	61.6673
4.03175	61.6851
4.02862	61.6953
4.02549	61.749
4.02237	61.8099
4.01925	61.8442
4.01614	61.8957
4.01303	61.8889
4.00993	61.7941
4.00683	61.7678
4.00373	61.7295
4.00064	61.6776
3.99756	61.6564
3.99448	61.6427
3.9914	61.6718
3.98833	61.6194
3.98527	61.5007
3.98221	61.4056
3.97915	61.3162
3.9761	61.1893
3.97305	61.0994
3.97001	60.957
3.96697	60.8547
3.96394	60.9018
3.96091	60.9355
3.95789	60.9669
3.95487	61.0403
3.95186	61.0979
3.94885	61.162
3.94584	61.1838
3.94284	61.2067
3.93984	61.415
3.93685	61.5854
3.93386	61.6065
3.93088	61.6044
3.9279	61.6489
3.92493	61.6584
3.92196	61.712
3.919	61.7439
3.91604	61.8264
3.91308	61.9376
3.91013	62.0121
3.90718	62.1555
3.90424	62.2175
3.9013	62.3103
3.89837	62.4994
3.89544	62.5369
3.89252	62.5442
3.8896	62.5441
3.88668	62.5443
3.88377	62.5994
3.88086	62.5897
3.87796	62.6317
3.87506	62.6038
3.87217	62.5489
3.86928	62.6142
3.86639	62.6466
3.86351	62.641
3.86064	62.6987
3.85776	62.7568
3.8549	62.7883
3.85203	62.8466
3.84917	62.8444
3.84631	62.8709
3.84346	62.9523
3.84062	62.9651
3.83777	62.8902
3.83494	62.8328
3.8321	62.8149
3.82927	62.8009
3.82644	62.8059
3.82362	62.7641
3.82081	62.7458
3.81799	62.6536
3.81518	62.4793
3.81238	62.3223
3.80958	62.2243
3.80678	62.1709
3.80399	62.1437
3.8012	62.0799
3.79841	62.0733
3.79563	62.1181
3.79286	62.0957
3.79008	62.0835
3.78731	62.1463
3.78455	62.1366
3.78179	62.1067
3.77903	62.1247
3.77628	62.1231
3.77353	62.1059
3.77079	62.044
3.76805	61.9231
3.76531	61.8279
3.76258	61.785
3.75985	61.7203
3.75713	61.7055
3.7544	61.6569
3.75169	61.6269
3.74898	61.5825
3.74627	61.4831
3.74356	61.3929
3.74086	61.3468
3.73816	61.2314
3.73547	61.2246
3.73278	61.197
3.7301	61.0919
3.72741	60.985
3.72474	60.891
3.72206	60.8008
3.71939	60.6971
3.71673	60.672
3.71406	60.6225
3.71141	60.5371
3.70875	60.4739
3.7061	60.3575
3.70345	60.2464
3.70081	60.1688
3.69817	60.064
3.69553	59.8949
3.6929	59.875
3.69027	59.8292
3.68765	59.7024
3.68503	59.6224
3.68241	59.499
3.6798	59.4408
3.67719	59.4066
3.67458	59.2601
3.67198	59.0909
3.66938	58.9788
3.66678	58.8899
3.66419	58.8264
3.66161	58.786
3.65902	58.703
3.65644	58.5783
3.65387	58.4566
3.65129	58.3598
3.64872	58.2462
3.64616	58.1298
3.64359	58.0307
3.64103	57.9152
3.63848	57.802
3.63593	57.6906
3.63338	57.6168
3.63084	57.4707
3.6283	57.3237
3.62576	57.1897
3.62322	57.0433
3.62069	56.9469
3.61817	56.8677
3.61564	56.7299
3.61312	56.5716
3.61061	56.3634
3.6081	56.1817
3.60559	56.0746
3.60308	55.9591
3.60058	55.793
3.59808	55.611
3.59558	55.4896
3.59309	55.3748
3.59061	55.1659
3.58812	54.9753
3.58564	54.8781
3.58316	54.6796
3.58069	54.4925
3.57822	54.3845
3.57575	54.1853
3.57328	53.9384
3.57082	53.7569
3.56836	53.5866
3.56591	53.3662
3.56346	53.1659
3.56101	53.0165
3.55857	52.878
3.55613	52.6916
3.55369	52.4997
3.55126	52.3005
3.54883	52.1076
3.5464	51.9402
3.54397	51.7506
3.54155	51.5779
3.53914	51.4555
3.53672	51.2732
3.53431	51.0695
3.5319	50.8845
3.5295	50.7619
3.5271	50.6201
3.5247	50.326
3.52231	49.9918
3.51991	49.757
3.51753	49.562
3.51514	49.3146
3.51276	49.0527
3.51038	48.7242
3.50801	48.4623
3.50563	48.3318
3.50327	48.2015
3.5009	48.0309
3.49854	47.9809
3.49618	47.9159
3.49382	47.7531
3.49147	47.6485
3.48912	47.4862
3.48677	47.2818
3.48443	47.1525
3.48209	47.0293
3.47975	46.8952
3.47742	46.7197
3.47509	46.5952
3.47276	46.5122
