Name: Diabase Porphyry
Type: Rock
Class: Igneous
Subclass:  Mafic 
Particle Size: Solid surface
Sample No.: Ward38.txt
Owner: JPL
Wavelength range:  VNIR SWIR IR
Origin: Ward's Collection of American Rocks.  Sample locality - Cape Ann, Essex County, Massachusetts.
Collected by:  Ward's Natural Science
Description: A porphyritic rock consisting of large greenish-gray
plagioclase phenocrysts in a dark green groundmass.
Geologic Age - Triassic (?).



Measurement: Hemispherical reflectance
First Column: X
Second Column: Y
X Units: Wavelength (micrometers)
Y Units: Reflectance (percent)
First X Value: 2.500
Last X Value: 0.400
Number of X Values: 2101
Additional information: None

2.500  12.133763
2.499  11.663734
2.498  12.054498
2.497  12.105237
2.496  11.760104
2.495  12.212567
2.494  11.832070
2.493  11.974931
2.492  12.063785
2.491  11.824622
2.490  12.111256
2.489  11.839680
2.488  12.039526
2.487  11.852571
2.486  12.088351
2.485  11.877795
2.484  11.956083
2.483  11.955173
2.482  11.975035
2.481  11.819452
2.480  12.010141
2.479  11.802003
2.478  12.042184
2.477  11.838747
2.476  11.993871
2.475  11.881994
2.474  12.085052
2.473  11.707378
2.472  12.094574
2.471  11.886268
2.470  12.065433
2.469  11.881773
2.468  12.133535
2.467  11.957252
2.466  12.140169
2.465  11.987393
2.464  12.008949
2.463  11.910377
2.462  12.037283
2.461  11.824451
2.460  11.996373
2.459  11.912982
2.458  12.111740
2.457  11.911004
2.456  12.120478
2.455  11.997287
2.454  12.114428
2.453  11.993029
2.452  12.159701
2.451  12.022080
2.450  11.979740
2.449  12.017411
2.448  12.098105
2.447  11.988370
2.446  11.990865
2.445  12.014153
2.444  12.053053
2.443  11.855408
2.442  12.042144
2.441  11.929508
2.440  12.039338
2.439  12.036606
2.438  11.965963
2.437  11.855295
2.436  12.031183
2.435  12.066571
2.434  12.062437
2.433  11.999807
2.432  11.954363
2.431  11.981638
2.430  11.984961
2.429  11.833181
2.428  12.046808
2.427  11.846959
2.426  11.924542
2.425  12.014946
2.424  11.989823
2.423  11.901564
2.422  12.020226
2.421  11.871365
2.420  11.920411
2.419  11.885707
2.418  11.997333
2.417  11.857026
2.416  11.939737
2.415  11.891875
2.414  11.910569
2.413  11.880521
2.412  11.886449
2.411  11.905341
2.410  11.907291
2.409  11.887655
2.408  11.951908
2.407  11.807953
2.406  11.863994
2.405  11.879281
2.404  11.952316
2.403  11.893790
2.402  11.870229
2.401  11.858112
2.400  11.858467
2.399  11.851407
2.398  11.889644
2.397  11.849924
2.396  11.894418
2.395  11.970489
2.394  11.937088
2.393  11.897807
2.392  11.964098
2.391  11.912220
2.390  11.949364
2.389  11.959793
2.388  12.058481
2.387  11.925309
2.386  11.910551
2.385  11.995236
2.384  12.041702
2.383  12.000119
2.382  12.045585
2.381  12.028061
2.380  12.109773
2.379  12.096583
2.378  12.080172
2.377  12.090862
2.376  12.135360
2.375  12.112671
2.374  12.145140
2.373  12.152232
2.372  12.156777
2.371  12.129679
2.370  12.135461
2.369  12.086650
2.368  12.109376
2.367  12.113210
2.366  12.090028
2.365  12.038585
2.364  12.072319
2.363  12.104572
2.362  12.035256
2.361  11.983302
2.360  12.018075
2.359  12.018584
2.358  12.046751
2.357  12.083269
2.356  12.085007
2.355  12.001289
2.354  12.014974
2.353  12.052430
2.352  12.013449
2.351  11.956899
2.350  11.944238
2.349  11.914221
2.348  11.955417
2.347  12.008293
2.346  11.964454
2.345  11.947543
2.344  11.884979
2.343  11.911743
2.342  11.931356
2.341  11.938130
2.340  11.900104
2.339  11.940680
2.338  11.962495
2.337  11.941457
2.336  11.894392
2.335  11.908683
2.334  11.914009
2.333  11.973965
2.332  11.935090
2.331  11.961943
2.330  11.916497
2.329  11.975097
2.328  11.936248
2.327  11.944814
2.326  11.929428
2.325  11.977446
2.324  12.003746
2.323  11.989268
2.322  12.008469
2.321  12.045708
2.320  12.000777
2.319  12.084527
2.318  12.134151
2.317  12.159530
2.316  12.110985
2.315  12.170610
2.314  12.162635
2.313  12.169430
2.312  12.116993
2.311  12.215373
2.310  12.186818
2.309  12.246050
2.308  12.214098
2.307  12.312504
2.306  12.309330
2.305  12.318688
2.304  12.298622
2.303  12.362213
2.302  12.274867
2.301  12.344441
2.300  12.336607
2.299  12.362055
2.298  12.390949
2.297  12.500647
2.296  12.486039
2.295  12.440591
2.294  12.450886
2.293  12.514516
2.292  12.446470
2.291  12.500584
2.290  12.520165
2.289  12.568369
2.288  12.585875
2.287  12.616692
2.286  12.545760
2.285  12.609031
2.284  12.619074
2.283  12.656022
2.282  12.605967
2.281  12.722865
2.280  12.592862
2.279  12.675646
2.278  12.681378
2.277  12.720120
2.276  12.745571
2.275  12.759827
2.274  12.706796
2.273  12.713760
2.272  12.654146
2.271  12.751552
2.270  12.667762
2.269  12.751126
2.268  12.598657
2.267  12.774689
2.266  12.694372
2.265  12.724069
2.264  12.600759
2.263  12.775013
2.262  12.687418
2.261  12.694564
2.260  12.635982
2.259  12.693453
2.258  12.658665
2.257  12.772146
2.256  12.669370
2.255  12.786053
2.254  12.685933
2.253  12.758797
2.252  12.642763
2.251  12.743343
2.250  12.724622
2.249  12.826753
2.248  12.690521
2.247  12.754675
2.246  12.684904
2.245  12.824580
2.244  12.744164
2.243  12.891127
2.242  12.783021
2.241  12.820132
2.240  12.769834
2.239  12.965059
2.238  12.826338
2.237  12.979240
2.236  12.792195
2.235  12.948888
2.234  12.799859
2.233  12.957294
2.232  12.862348
2.231  13.021700
2.230  12.870902
2.229  12.949431
2.228  12.796312
2.227  12.949438
2.226  12.892955
2.225  12.998996
2.224  12.849377
2.223  12.978036
2.222  12.897668
2.221  12.910994
2.220  12.850590
2.219  13.015512
2.218  12.786897
2.217  13.164929
2.216  12.873315
2.215  12.940799
2.214  12.885473
2.213  12.905675
2.212  12.952153
2.211  12.821658
2.210  12.973189
2.209  12.985620
2.208  12.866982
2.207  12.917328
2.206  12.760862
2.205  12.919194
2.204  12.809393
2.203  12.866576
2.202  12.848801
2.201  12.957861
2.200  12.832775
2.199  13.010424
2.198  12.881524
2.197  12.995968
2.196  12.861641
2.195  12.838487
2.194  12.821833
2.193  12.953605
2.192  12.896623
2.191  13.013512
2.190  13.007569
2.189  12.966070
2.188  12.891073
2.187  12.998790
2.186  12.931204
2.185  13.058747
2.184  12.946864
2.183  13.057642
2.182  12.922467
2.181  13.133162
2.180  12.975065
2.179  13.045186
2.178  13.057315
2.177  13.174197
2.176  13.009649
2.175  13.132906
2.174  13.088258
2.173  13.104181
2.172  13.104687
2.171  13.080657
2.170  13.064010
2.169  13.188494
2.168  13.074654
2.167  13.210558
2.166  13.091629
2.165  13.191927
2.164  13.076046
2.163  13.169357
2.162  13.162903
2.161  13.124826
2.160  13.127086
2.159  13.249331
2.158  13.109706
2.157  13.230101
2.156  13.165939
2.155  13.228889
2.154  13.074820
2.153  13.192733
2.152  13.127641
2.151  13.233808
2.150  13.168468
2.149  13.216482
2.148  13.182803
2.147  13.205272
2.146  13.132694
2.145  13.219451
2.144  13.179847
2.143  13.203340
2.142  13.100724
2.141  13.179982
2.140  13.173075
2.139  13.256118
2.138  13.163589
2.137  13.166618
2.136  13.136355
2.135  13.155002
2.134  13.073067
2.133  13.154296
2.132  13.028620
2.131  13.137202
2.130  13.073830
2.129  13.144329
2.128  13.106009
2.127  13.142140
2.126  13.077973
2.125  13.101742
2.124  13.049020
2.123  13.062535
2.122  13.026359
2.121  13.085812
2.120  13.112694
2.119  13.113638
2.118  12.985773
2.117  13.012786
2.116  13.025416
2.115  13.118779
2.114  13.038608
2.113  13.036865
2.112  12.981841
2.111  12.981677
2.110  12.936657
2.109  12.976246
2.108  12.918480
2.107  12.983050
2.106  12.974605
2.105  12.998828
2.104  12.975344
2.103  12.997413
2.102  12.970185
2.101  12.970734
2.100  12.899792
2.099  12.973002
2.098  12.939086
2.097  12.988279
2.096  12.941317
2.095  12.925578
2.094  12.950547
2.093  13.004998
2.092  12.971708
2.091  12.975936
2.090  12.946848
2.089  12.955819
2.088  12.984606
2.087  13.026346
2.086  12.975617
2.085  13.021712
2.084  13.039274
2.083  13.021408
2.082  12.994005
2.081  13.041832
2.080  13.055280
2.079  13.029369
2.078  13.017661
2.077  13.006764
2.076  13.019557
2.075  13.049355
2.074  13.032631
2.073  13.020533
2.072  13.005326
2.071  13.057387
2.070  13.074170
2.069  13.014231
2.068  13.024961
2.067  13.032976
2.066  13.016706
2.065  13.022108
2.064  13.011283
2.063  12.996143
2.062  13.015764
2.061  13.047438
2.060  13.064698
2.059  13.055582
2.058  13.033899
2.057  13.027321
2.056  13.034721
2.055  13.000800
2.054  12.999875
2.053  12.956895
2.052  12.989244
2.051  13.008612
2.050  13.098560
2.049  13.017920
2.048  13.018839
2.047  13.027106
2.046  13.045643
2.045  13.009945
2.044  13.006072
2.043  12.988332
2.042  13.016564
2.041  12.996570
2.040  12.945216
2.039  12.979327
2.038  13.031482
2.037  13.034058
2.036  13.068837
2.035  13.024104
2.034  13.027775
2.033  12.935472
2.032  13.013501
2.031  12.973531
2.030  12.995797
2.029  13.021158
2.028  13.071813
2.027  12.965693
2.026  13.024196
2.025  12.968565
2.024  12.980617
2.023  12.911054
2.022  13.017296
2.021  12.963047
2.020  12.986066
2.019  12.915203
2.018  12.992274
2.017  12.927231
2.016  13.005349
2.015  12.925144
2.014  12.947399
2.013  12.903772
2.012  12.960628
2.011  12.995504
2.010  12.991957
2.009  12.888835
2.008  12.915722
2.007  12.834413
2.006  12.930325
2.005  12.896076
2.004  12.928124
2.003  12.886693
2.002  12.965531
2.001  12.907948
2.000  12.916694
1.999  12.865796
1.998  12.910296
1.997  12.820657
1.996  12.964151
1.995  12.820781
1.994  12.881287
1.993  12.885886
1.992  12.929888
1.991  12.782130
1.990  12.877312
1.989  12.800241
1.988  12.913079
1.987  12.809202
1.986  12.824824
1.985  12.828861
1.984  12.779495
1.983  12.825962
1.982  12.829759
1.981  12.721918
1.980  12.808415
1.979  12.810156
1.978  12.813525
1.977  12.681511
1.976  12.809593
1.975  12.654243
1.974  12.741724
1.973  12.765814
1.972  12.774252
1.971  12.671889
1.970  12.750894
1.969  12.659527
1.968  12.766161
1.967  12.719723
1.966  12.736233
1.965  12.658782
1.964  12.628826
1.963  12.702713
1.962  12.730906
1.961  12.658180
1.960  12.677129
1.959  12.703070
1.958  12.780295
1.957  12.654012
1.956  12.606470
1.955  12.592344
1.954  12.592172
1.953  12.608926
1.952  12.662984
1.951  12.623914
1.950  12.695004
1.949  12.570359
1.948  12.746424
1.947  12.554099
1.946  12.606592
1.945  12.501823
1.944  12.588082
1.943  12.569806
1.942  12.627580
1.941  12.512997
1.940  12.599517
1.939  12.505072
1.938  12.529161
1.937  12.481310
1.936  12.522964
1.935  12.427479
1.934  12.589182
1.933  12.503465
1.932  12.588497
1.931  12.504658
1.930  12.619002
1.929  12.409019
1.928  12.486376
1.927  12.525404
1.926  12.452438
1.925  12.551398
1.924  12.503079
1.923  12.434996
1.922  12.488006
1.921  12.423344
1.920  12.442691
1.919  12.424149
1.918  12.521769
1.917  12.414585
1.916  12.430500
1.915  12.438135
1.914  12.533819
1.913  12.414245
1.912  12.454249
1.911  12.417454
1.910  12.574521
1.909  12.463081
1.908  12.472821
1.907  12.411018
1.906  12.570657
1.905  12.420630
1.904  12.571838
1.903  12.453933
1.902  12.470004
1.901  12.494252
1.900  12.455285
1.899  12.470052
1.898  12.488400
1.897  12.455080
1.896  12.649701
1.895  12.577213
1.894  12.669530
1.893  12.508333
1.892  12.601788
1.891  12.556252
1.890  12.587773
1.889  12.566910
1.888  12.788822
1.887  12.618548
1.886  12.670687
1.885  12.644237
1.884  12.665785
1.883  12.626358
1.882  12.692764
1.881  12.623287
1.880  12.673168
1.879  12.656152
1.878  12.779194
1.877  12.692233
1.876  12.723304
1.875  12.693309
1.874  12.781000
1.873  12.559988
1.872  12.589642
1.871  12.600632
1.870  12.618503
1.869  12.461266
1.868  12.609477
1.867  12.493409
1.866  12.615956
1.865  12.629650
1.864  12.676091
1.863  12.691303
1.862  12.791447
1.861  12.612671
1.860  12.647688
1.859  12.633394
1.858  12.749143
1.857  12.648546
1.856  12.672550
1.855  12.582752
1.854  12.668530
1.853  12.585530
1.852  12.725248
1.851  12.593731
1.850  12.701254
1.849  12.622310
1.848  12.662220
1.847  12.600855
1.846  12.689061
1.845  12.657960
1.844  12.632569
1.843  12.614971
1.842  12.625385
1.841  12.649161
1.840  12.627237
1.839  12.528248
1.838  12.573975
1.837  12.573155
1.836  12.584557
1.835  12.539829
1.834  12.626297
1.833  12.631373
1.832  12.625830
1.831  12.559931
1.830  12.652178
1.829  12.707654
1.828  12.687451
1.827  12.585109
1.826  12.632896
1.825  12.587758
1.824  12.678695
1.823  12.658368
1.822  12.645212
1.821  12.546882
1.820  12.602893
1.819  12.606434
1.818  12.637399
1.817  12.571040
1.816  12.563024
1.815  12.576587
1.814  12.565086
1.813  12.517798
1.812  12.561783
1.811  12.523564
1.810  12.569346
1.809  12.592450
1.808  12.605806
1.807  12.629209
1.806  12.655309
1.805  12.587177
1.804  12.623587
1.803  12.617177
1.802  12.615695
1.801  12.561914
1.800  12.573164
1.799  12.627320
1.798  12.606967
1.797  12.540308
1.796  12.547054
1.795  12.554034
1.794  12.502206
1.793  12.469627
1.792  12.486141
1.791  12.479939
1.790  12.494681
1.789  12.518732
1.788  12.473487
1.787  12.418726
1.786  12.465763
1.785  12.543209
1.784  12.503733
1.783  12.493179
1.782  12.447349
1.781  12.406539
1.780  12.471121
1.779  12.466431
1.778  12.443520
1.777  12.500648
1.776  12.403747
1.775  12.325868
1.774  12.424360
1.773  12.449999
1.772  12.369584
1.771  12.369757
1.770  12.433047
1.769  12.455698
1.768  12.354458
1.767  12.375112
1.766  12.358004
1.765  12.393282
1.764  12.393946
1.763  12.378481
1.762  12.381802
1.761  12.418335
1.760  12.336200
1.759  12.322376
1.758  12.346694
1.757  12.382129
1.756  12.362794
1.755  12.363522
1.754  12.321055
1.753  12.339082
1.752  12.311127
1.751  12.406374
1.750  12.359420
1.749  12.326981
1.748  12.329878
1.747  12.383179
1.746  12.318654
1.745  12.315553
1.744  12.238827
1.743  12.252925
1.742  12.250644
1.741  12.297282
1.740  12.266174
1.739  12.323134
1.738  12.327523
1.737  12.272976
1.736  12.197625
1.735  12.205864
1.734  12.194105
1.733  12.245952
1.732  12.287694
1.731  12.327322
1.730  12.210970
1.729  12.209850
1.728  12.159641
1.727  12.214209
1.726  12.179189
1.725  12.299454
1.724  12.191949
1.723  12.237403
1.722  12.135418
1.721  12.240866
1.720  12.173178
1.719  12.186188
1.718  12.137968
1.717  12.188149
1.716  12.192844
1.715  12.129925
1.714  12.163102
1.713  12.261103
1.712  12.122385
1.711  12.182312
1.710  12.123938
1.709  12.190727
1.708  12.115287
1.707  12.194562
1.706  12.156770
1.705  12.221071
1.704  12.109580
1.703  12.191621
1.702  12.196909
1.701  12.554786
1.700  12.588238
1.699  12.679722
1.698  12.532001
1.697  12.533060
1.696  12.439476
1.695  12.408845
1.694  12.321237
1.693  12.473423
1.692  12.279165
1.691  12.366539
1.690  12.169165
1.689  12.288360
1.688  12.181128
1.687  12.208229
1.686  12.213703
1.685  12.184665
1.684  12.121939
1.683  12.125281
1.682  12.125056
1.681  12.211116
1.680  12.004336
1.679  12.171894
1.678  12.039918
1.677  12.142445
1.676  12.008107
1.675  12.199798
1.674  12.008811
1.673  12.088583
1.672  11.973417
1.671  12.082762
1.670  11.995549
1.669  12.104003
1.668  11.925792
1.667  12.185617
1.666  12.000444
1.665  12.112774
1.664  12.013126
1.663  12.149624
1.662  11.983570
1.661  12.105048
1.660  11.893874
1.659  12.067857
1.658  11.954685
1.657  12.079693
1.656  11.927293
1.655  12.076758
1.654  11.980199
1.653  12.050391
1.652  11.863595
1.651  12.022118
1.650  11.915196
1.649  12.069427
1.648  11.834374
1.647  11.984153
1.646  11.895837
1.645  12.041584
1.644  11.968463
1.643  12.025779
1.642  11.976632
1.641  11.904063
1.640  11.855948
1.639  12.083746
1.638  11.880997
1.637  11.987665
1.636  11.956214
1.635  11.957851
1.634  11.882622
1.633  11.990412
1.632  11.922144
1.631  11.969296
1.630  11.898813
1.629  11.878426
1.628  11.878395
1.627  11.892753
1.626  11.824706
1.625  11.929584
1.624  11.847848
1.623  11.859186
1.622  11.795030
1.621  11.903864
1.620  11.774148
1.619  11.866177
1.618  11.891818
1.617  11.802125
1.616  11.773121
1.615  11.956219
1.614  11.716236
1.613  11.851496
1.612  11.707854
1.611  11.819568
1.610  11.776700
1.609  11.818020
1.608  11.786113
1.607  11.844742
1.606  11.762832
1.605  11.814101
1.604  11.771318
1.603  11.897267
1.602  11.735174
1.601  11.817530
1.600  11.673637
1.599  11.853045
1.598  11.768934
1.597  11.722666
1.596  11.708923
1.595  11.730940
1.594  11.698397
1.593  11.791122
1.592  11.695158
1.591  11.731112
1.590  11.724124
1.589  11.734586
1.588  11.679562
1.587  11.697968
1.586  11.679274
1.585  11.734961
1.584  11.656212
1.583  11.732482
1.582  11.696049
1.581  11.701127
1.580  11.619987
1.579  11.720132
1.578  11.582597
1.577  11.631872
1.576  11.628559
1.575  11.685209
1.574  11.628883
1.573  11.692464
1.572  11.606712
1.571  11.635532
1.570  11.583982
1.569  11.649069
1.568  11.540149
1.567  11.644288
1.566  11.546489
1.565  11.599157
1.564  11.558062
1.563  11.582653
1.562  11.507336
1.561  11.581318
1.560  11.483028
1.559  11.559236
1.558  11.507077
1.557  11.516819
1.556  11.463918
1.555  11.568726
1.554  11.467379
1.553  11.580590
1.552  11.558229
1.551  11.535577
1.550  11.475194
1.549  11.530094
1.548  11.480946
1.547  11.547135
1.546  11.452772
1.545  11.459768
1.544  11.453255
1.543  11.472885
1.542  11.495812
1.541  11.462610
1.540  11.404224
1.539  11.432607
1.538  11.434676
1.537  11.440921
1.536  11.370995
1.535  11.425673
1.534  11.402754
1.533  11.416494
1.532  11.359993
1.531  11.439709
1.530  11.391639
1.529  11.333565
1.528  11.330307
1.527  11.427037
1.526  11.366973
1.525  11.398966
1.524  11.396696
1.523  11.331170
1.522  11.327159
1.521  11.378285
1.520  11.377963
1.519  11.333169
1.518  11.281115
1.517  11.364565
1.516  11.374358
1.515  11.341530
1.514  11.315009
1.513  11.335058
1.512  11.312705
1.511  11.275243
1.510  11.270075
1.509  11.272224
1.508  11.268275
1.507  11.301745
1.506  11.242298
1.505  11.218763
1.504  11.243653
1.503  11.231482
1.502  11.199567
1.501  11.216756
1.500  11.250411
1.499  11.220449
1.498  11.183995
1.497  11.177821
1.496  11.178899
1.495  11.180704
1.494  11.201597
1.493  11.150602
1.492  11.162510
1.491  11.184650
1.490  11.191672
1.489  11.217717
1.488  11.169863
1.487  11.133078
1.486  11.188061
1.485  11.194385
1.484  11.181592
1.483  11.135875
1.482  11.144804
1.481  11.116908
1.480  11.121863
1.479  11.154345
1.478  11.142229
1.477  11.119890
1.476  11.074186
1.475  11.089863
1.474  11.127247
1.473  11.037342
1.472  11.124785
1.471  11.101131
1.470  11.062858
1.469  11.029837
1.468  11.043343
1.467  11.038085
1.466  11.062293
1.465  11.024261
1.464  11.051330
1.463  11.004047
1.462  10.989768
1.461  10.958616
1.460  10.998001
1.459  10.945070
1.458  11.009876
1.457  10.947331
1.456  10.952563
1.455  10.984897
1.454  11.054825
1.453  10.932903
1.452  10.977378
1.451  10.962670
1.450  11.017799
1.449  10.909312
1.448  10.984823
1.447  10.885203
1.446  11.002967
1.445  10.892232
1.444  10.918186
1.443  10.806923
1.442  10.895217
1.441  10.832439
1.440  10.853309
1.439  10.809081
1.438  10.939426
1.437  10.841404
1.436  10.887620
1.435  10.823368
1.434  10.834082
1.433  10.761381
1.432  10.799384
1.431  10.779183
1.430  10.821394
