Name: Rhyolite
Type: Rock
Class: Igneous
Subclass:  Felsic 
Particle Size: Solid surface
Sample No.: Ward07.txt
Owner: JPL
Wavelength range:  VNIR SWIR IR 
Origin: Ward's Collection of American Rocks.  Sample locality - Castle Rock, Douglas County, Colorado.
Collected by:  Ward's Natural Science
Description: A pinkish rock with scattered phenocrysts of glassy quartz
in a felsitic and somewhat vesicular groundmass.
Geologic age - Tertiary (Eocene).



Measurement: Hemispherical reflectance
First Column: X
Second Column: Y
X Units: Wavelength (micrometers)
Y Units: Reflectance (percent)
First X Value: 2.500
Last X Value: 0.400
Number of X Values: 2101
Additional information: None

2.500  44.102563
2.499  43.722076
2.498  43.980933
2.497  43.935467
2.496  43.786727
2.495  43.916194
2.494  43.824264
2.493  43.561393
2.492  44.196490
2.491  43.859774
2.490  44.024404
2.489  43.783630
2.488  43.926011
2.487  43.772122
2.486  44.044593
2.485  43.791642
2.484  43.918012
2.483  43.810060
2.482  43.950965
2.481  44.009725
2.480  44.117295
2.479  44.015475
2.478  43.931391
2.477  44.009954
2.476  43.875456
2.475  43.991156
2.474  44.026708
2.473  44.020873
2.472  44.085012
2.471  43.995863
2.470  44.067890
2.469  43.932967
2.468  43.925467
2.467  44.006293
2.466  44.132747
2.465  43.988507
2.464  44.005089
2.463  44.067125
2.462  44.089276
2.461  43.915537
2.460  44.008546
2.459  44.022710
2.458  44.154446
2.457  44.119470
2.456  44.018069
2.455  43.929918
2.454  44.080929
2.453  44.073176
2.452  44.170921
2.451  44.009233
2.450  44.128620
2.449  44.020144
2.448  44.219485
2.447  44.206380
2.446  44.219430
2.445  44.221416
2.444  44.164998
2.443  44.199183
2.442  44.262317
2.441  44.193645
2.440  44.244857
2.439  44.248493
2.438  44.242978
2.437  44.213824
2.436  44.250201
2.435  44.205925
2.434  44.341552
2.433  44.326174
2.432  44.277033
2.431  44.212944
2.430  44.241793
2.429  44.248581
2.428  44.232621
2.427  44.301376
2.426  44.391810
2.425  44.281164
2.424  44.340244
2.423  44.242563
2.422  44.427983
2.421  44.379243
2.420  44.355008
2.419  44.325324
2.418  44.368512
2.417  44.277413
2.416  44.396095
2.415  44.383332
2.414  44.326884
2.413  44.177782
2.412  44.331699
2.411  44.331493
2.410  44.296511
2.409  44.282123
2.408  44.410931
2.407  44.301170
2.406  44.351766
2.405  44.394159
2.404  44.336365
2.403  44.305615
2.402  44.391317
2.401  44.414907
2.400  44.389192
2.399  44.417060
2.398  44.451694
2.397  44.356475
2.396  44.471066
2.395  44.472890
2.394  44.447821
2.393  44.352715
2.392  44.411051
2.391  44.499562
2.390  44.469028
2.389  44.458660
2.388  44.473849
2.387  44.477337
2.386  44.507767
2.385  44.418117
2.384  44.486116
2.383  44.529957
2.382  44.485513
2.381  44.485071
2.380  44.489830
2.379  44.413752
2.378  44.411009
2.377  44.379370
2.376  44.493021
2.375  44.482600
2.374  44.483429
2.373  44.494932
2.372  44.437262
2.371  44.446543
2.370  44.496222
2.369  44.459711
2.368  44.468757
2.367  44.499273
2.366  44.465488
2.365  44.439243
2.364  44.476696
2.363  44.553425
2.362  44.514593
2.361  44.415915
2.360  44.389705
2.359  44.388742
2.358  44.449678
2.357  44.369521
2.356  44.314256
2.355  44.308486
2.354  44.372631
2.353  44.395519
2.352  44.330408
2.351  44.316438
2.350  44.293149
2.349  44.280130
2.348  44.276230
2.347  44.299836
2.346  44.340515
2.345  44.267982
2.344  44.210087
2.343  44.269584
2.342  44.230206
2.341  44.222342
2.340  44.167218
2.339  44.199445
2.338  44.239659
2.337  44.189115
2.336  44.154265
2.335  44.243110
2.334  44.229138
2.333  44.242626
2.332  44.237274
2.331  44.233376
2.330  44.185027
2.329  44.151340
2.328  44.149925
2.327  44.218172
2.326  44.153975
2.325  44.186891
2.324  44.225776
2.323  44.187017
2.322  44.171378
2.321  44.151846
2.320  44.119051
2.319  44.136679
2.318  44.115499
2.317  44.122687
2.316  44.193392
2.315  44.145653
2.314  44.093309
2.313  44.173630
2.312  44.146014
2.311  44.131096
2.310  44.025627
2.309  43.987388
2.308  44.111778
2.307  44.152422
2.306  44.043240
2.305  44.048420
2.304  44.078599
2.303  44.120048
2.302  44.063674
2.301  44.088700
2.300  44.005326
2.299  43.987596
2.298  43.999811
2.297  44.021895
2.296  44.054080
2.295  44.097983
2.294  44.060010
2.293  44.036205
2.292  44.006984
2.291  44.005193
2.290  43.984362
2.289  44.036558
2.288  44.017013
2.287  44.000689
2.286  43.982489
2.285  43.995500
2.284  43.947236
2.283  43.977784
2.282  43.960736
2.281  43.961492
2.280  43.906476
2.279  44.002597
2.278  43.952103
2.277  43.977635
2.276  43.867074
2.275  43.945045
2.274  43.896323
2.273  43.922462
2.272  43.953150
2.271  43.870029
2.270  43.806580
2.269  43.846881
2.268  43.791478
2.267  43.891009
2.266  43.936452
2.265  43.853422
2.264  43.805504
2.263  43.790978
2.262  43.678396
2.261  43.816141
2.260  43.787963
2.259  43.887065
2.258  43.767496
2.257  43.760126
2.256  43.752749
2.255  43.795751
2.254  43.701659
2.253  43.818851
2.252  43.759101
2.251  43.842111
2.250  43.832547
2.249  43.726713
2.248  43.652541
2.247  43.750011
2.246  43.764290
2.245  43.719229
2.244  43.674324
2.243  43.775584
2.242  43.671164
2.241  43.724404
2.240  43.669262
2.239  43.700203
2.238  43.766026
2.237  43.752676
2.236  43.573600
2.235  43.773220
2.234  43.735284
2.233  43.670629
2.232  43.627620
2.231  43.714901
2.230  43.658491
2.229  43.751863
2.228  43.560462
2.227  43.742406
2.226  43.554468
2.225  43.641453
2.224  43.628707
2.223  43.657438
2.222  43.536328
2.221  43.659486
2.220  43.570971
2.219  43.750642
2.218  43.483922
2.217  43.605654
2.216  43.544606
2.215  43.590419
2.214  43.573750
2.213  43.587688
2.212  43.494564
2.211  43.512227
2.210  43.523814
2.209  43.559127
2.208  43.487777
2.207  43.693022
2.206  43.600682
2.205  43.646895
2.204  43.455824
2.203  43.667491
2.202  43.593190
2.201  43.657123
2.200  43.607101
2.199  43.573228
2.198  43.505435
2.197  43.624134
2.196  43.550283
2.195  43.562297
2.194  43.566370
2.193  43.625423
2.192  43.637912
2.191  43.618650
2.190  43.456046
2.189  43.594090
2.188  43.547258
2.187  43.562232
2.186  43.501419
2.185  43.513533
2.184  43.394944
2.183  43.552400
2.182  43.459697
2.181  43.535862
2.180  43.488230
2.179  43.516328
2.178  43.472772
2.177  43.549945
2.176  43.425677
2.175  43.394310
2.174  43.450940
2.173  43.452916
2.172  43.397926
2.171  43.484064
2.170  43.398008
2.169  43.401838
2.168  43.481399
2.167  43.438825
2.166  43.417735
2.165  43.452273
2.164  43.388823
2.163  43.587032
2.162  43.417479
2.161  43.482480
2.160  43.315645
2.159  43.482168
2.158  43.419574
2.157  43.457911
2.156  43.357797
2.155  43.469581
2.154  43.410795
2.153  43.407589
2.152  43.354819
2.151  43.321896
2.150  43.364693
2.149  43.327232
2.148  43.345411
2.147  43.411441
2.146  43.354750
2.145  43.360963
2.144  43.342771
2.143  43.231395
2.142  43.214806
2.141  43.294553
2.140  43.248249
2.139  43.282916
2.138  43.163827
2.137  43.206851
2.136  43.193724
2.135  43.223048
2.134  43.122863
2.133  43.154003
2.132  43.099579
2.131  43.140588
2.130  43.016878
2.129  43.103829
2.128  43.078446
2.127  43.027622
2.126  42.924259
2.125  42.936744
2.124  42.943648
2.123  42.935845
2.122  42.862462
2.121  42.923861
2.120  42.870655
2.119  42.892580
2.118  42.803106
2.117  42.754403
2.116  42.729887
2.115  42.760804
2.114  42.714223
2.113  42.666961
2.112  42.559300
2.111  42.495809
2.110  42.553152
2.109  42.540417
2.108  42.513092
2.107  42.532433
2.106  42.436424
2.105  42.446235
2.104  42.417247
2.103  42.406076
2.102  42.320119
2.101  42.289398
2.100  42.302116
2.099  42.324778
2.098  42.370139
2.097  42.404505
2.096  42.325001
2.095  42.279496
2.094  42.292380
2.093  42.289960
2.092  42.313770
2.091  42.327148
2.090  42.293166
2.089  42.349927
2.088  42.336502
2.087  42.309444
2.086  42.294651
2.085  42.255336
2.084  42.300238
2.083  42.322925
2.082  42.274752
2.081  42.255366
2.080  42.261933
2.079  42.267877
2.078  42.250627
2.077  42.309381
2.076  42.307899
2.075  42.253738
2.074  42.271435
2.073  42.215413
2.072  42.293925
2.071  42.305896
2.070  42.218798
2.069  42.216026
2.068  42.192881
2.067  42.177226
2.066  42.225976
2.065  42.162992
2.064  42.128387
2.063  42.237872
2.062  42.285559
2.061  42.234221
2.060  42.185196
2.059  42.241419
2.058  42.259416
2.057  42.158378
2.056  42.187778
2.055  42.211625
2.054  42.204915
2.053  42.212220
2.052  42.257509
2.051  42.257531
2.050  42.196333
2.049  42.229915
2.048  42.209704
2.047  42.122878
2.046  42.195924
2.045  42.146592
2.044  42.139170
2.043  42.134715
2.042  42.088916
2.041  42.081306
2.040  42.179717
2.039  42.133926
2.038  42.122086
2.037  42.048954
2.036  42.079788
2.035  42.050449
2.034  42.058792
2.033  42.067818
2.032  42.071556
2.031  42.056110
2.030  42.122844
2.029  42.024777
2.028  42.083570
2.027  42.070693
2.026  42.073619
2.025  42.012352
2.024  42.056612
2.023  42.016449
2.022  42.009297
2.021  41.919464
2.020  41.987474
2.019  41.963956
2.018  41.934501
2.017  41.910231
2.016  41.893821
2.015  41.827506
2.014  41.950553
2.013  41.909986
2.012  41.903051
2.011  41.906276
2.010  41.912608
2.009  41.794458
2.008  41.843805
2.007  41.787458
2.006  41.887338
2.005  41.805145
2.004  41.782449
2.003  41.692669
2.002  41.799963
2.001  41.778354
2.000  41.807849
1.999  41.697813
1.998  41.780732
1.997  41.640306
1.996  41.721984
1.995  41.666219
1.994  41.695523
1.993  41.641434
1.992  41.640297
1.991  41.580062
1.990  41.632011
1.989  41.468426
1.988  41.563785
1.987  41.455248
1.986  41.466291
1.985  41.475909
1.984  41.535838
1.983  41.391826
1.982  41.444849
1.981  41.339813
1.980  41.425254
1.979  41.382361
1.978  41.403669
1.977  41.344179
1.976  41.319547
1.975  41.204895
1.974  41.350705
1.973  41.312666
1.972  41.345959
1.971  41.197367
1.970  41.289370
1.969  41.139801
1.968  41.126540
1.967  41.235089
1.966  41.262354
1.965  41.116430
1.964  41.201442
1.963  41.071338
1.962  41.194968
1.961  41.019976
1.960  41.077960
1.959  40.979472
1.958  41.081287
1.957  41.100259
1.956  41.051210
1.955  40.972384
1.954  41.015617
1.953  40.913747
1.952  40.928714
1.951  40.926381
1.950  40.912829
1.949  40.815688
1.948  40.874233
1.947  40.782668
1.946  40.825682
1.945  40.781573
1.944  40.804252
1.943  40.722471
1.942  40.822102
1.941  40.687856
1.940  40.748153
1.939  40.645379
1.938  40.755822
1.937  40.617319
1.936  40.681211
1.935  40.681969
1.934  40.738786
1.933  40.537287
1.932  40.544515
1.931  40.554582
1.930  40.672728
1.929  40.560592
1.928  40.630474
1.927  40.577606
1.926  40.550239
1.925  40.638201
1.924  40.615464
1.923  40.540520
1.922  40.580592
1.921  40.506320
1.920  40.605986
1.919  40.580496
1.918  40.647771
1.917  40.595212
1.916  40.673305
1.915  40.606539
1.914  40.772162
1.913  40.665617
1.912  40.773655
1.911  40.721746
1.910  40.793990
1.909  40.758105
1.908  40.847744
1.907  40.747956
1.906  40.913561
1.905  40.766389
1.904  40.842354
1.903  40.899251
1.902  41.042478
1.901  40.943415
1.900  41.125895
1.899  41.107918
1.898  41.201560
1.897  41.115586
1.896  41.333819
1.895  41.219499
1.894  41.510935
1.893  41.474379
1.892  41.583330
1.891  41.476852
1.890  41.569847
1.889  41.591770
1.888  41.595857
1.887  41.607354
1.886  41.665756
1.885  41.644251
1.884  41.717635
1.883  41.732662
1.882  41.831949
1.881  41.677149
1.880  41.827612
1.879  41.792881
1.878  41.811128
1.877  41.848306
1.876  41.865640
1.875  41.635703
1.874  41.838050
1.873  41.751664
1.872  41.820567
1.871  41.710000
1.870  41.828705
1.869  41.808965
1.868  41.834537
1.867  41.834913
1.866  41.960813
1.865  41.977314
1.864  42.052346
1.863  42.051923
1.862  42.111829
1.861  42.056519
1.860  42.098262
1.859  42.083113
1.858  42.126452
1.857  42.036008
1.856  42.055927
1.855  42.125765
1.854  42.187321
1.853  42.122913
1.852  42.143562
1.851  42.161358
1.850  42.133483
1.849  42.117735
1.848  42.217366
1.847  42.193855
1.846  42.255051
1.845  42.187961
1.844  42.208953
1.843  42.294681
1.842  42.254034
1.841  42.256525
1.840  42.349512
1.839  42.274729
1.838  42.321531
1.837  42.369566
1.836  42.354152
1.835  42.298403
1.834  42.352011
1.833  42.401050
1.832  42.429419
1.831  42.425864
1.830  42.390174
1.829  42.339520
1.828  42.467209
1.827  42.468680
1.826  42.447394
1.825  42.440166
1.824  42.513057
1.823  42.494981
1.822  42.556544
1.821  42.555828
1.820  42.510175
1.819  42.487236
1.818  42.529020
1.817  42.588839
1.816  42.675400
1.815  42.611033
1.814  42.670946
1.813  42.659378
1.812  42.661298
1.811  42.661325
1.810  42.654315
1.809  42.659256
1.808  42.748126
1.807  42.777540
1.806  42.761956
1.805  42.778943
1.804  42.818598
1.803  42.762798
1.802  42.765528
1.801  42.794549
1.800  42.848172
1.799  42.817098
1.798  42.862213
1.797  42.884213
1.796  42.872652
1.795  42.892128
1.794  42.857914
1.793  42.824245
1.792  42.890677
1.791  42.921068
1.790  42.951258
1.789  42.943796
1.788  42.903169
1.787  42.926907
1.786  42.938336
1.785  42.909880
1.784  42.941547
1.783  42.982035
1.782  43.002012
1.781  43.014505
1.780  43.001521
1.779  43.052522
1.778  43.048636
1.777  43.036031
1.776  43.023620
1.775  43.043823
1.774  43.052798
1.773  43.059104
1.772  43.058662
1.771  43.100682
1.770  43.120888
1.769  43.198824
1.768  43.183370
1.767  43.175458
1.766  43.191759
1.765  43.214356
1.764  43.227608
1.763  43.242044
1.762  43.216961
1.761  43.184978
1.760  43.254917
1.759  43.389352
1.758  43.369683
1.757  43.321099
1.756  43.332459
1.755  43.397335
1.754  43.361764
1.753  43.386120
1.752  43.467207
1.751  43.488031
1.750  43.432157
1.749  43.502447
1.748  43.511619
1.747  43.535645
1.746  43.538318
1.745  43.556855
1.744  43.496062
1.743  43.587876
1.742  43.540870
1.741  43.629250
1.740  43.595921
1.739  43.603930
1.738  43.605085
1.737  43.669736
1.736  43.666565
1.735  43.724622
1.734  43.692450
1.733  43.725772
1.732  43.681979
1.731  43.708561
1.730  43.720381
1.729  43.820757
1.728  43.845246
1.727  43.851917
1.726  43.801242
1.725  43.844249
1.724  43.786013
1.723  43.906933
1.722  43.915772
1.721  43.917931
1.720  43.914619
1.719  43.957585
1.718  43.989471
1.717  44.049991
1.716  43.950255
1.715  44.034686
1.714  43.961852
1.713  44.085052
1.712  44.077582
1.711  44.202491
1.710  44.144886
1.709  44.109268
1.708  44.126286
1.707  44.197358
1.706  44.163052
1.705  44.158553
1.704  44.141146
1.703  44.186594
1.702  44.282974
1.701  44.297359
1.700  44.182606
1.699  44.242036
1.698  44.281783
1.697  44.370455
1.696  44.301403
1.695  44.349414
1.694  44.317061
1.693  44.337665
1.692  44.356324
1.691  44.385276
1.690  44.389682
1.689  44.403170
1.688  44.403739
1.687  44.419431
1.686  44.444611
1.685  44.497109
1.684  44.461994
1.683  44.547439
1.682  44.454240
1.681  44.625828
1.680  44.564202
1.679  44.623948
1.678  44.483332
1.677  44.700916
1.676  44.670309
1.675  44.679943
1.674  44.658043
1.673  44.705539
1.672  44.713220
1.671  44.756899
1.670  44.742760
1.669  44.730754
1.668  44.672501
1.667  44.835235
1.666  44.758823
1.665  44.890366
1.664  44.906962
1.663  44.876320
1.662  44.754748
1.661  44.893605
1.660  44.865070
1.659  44.959064
1.658  44.784502
1.657  44.923462
1.656  44.854276
1.655  44.957497
1.654  44.879605
1.653  45.032566
1.652  45.016152
1.651  44.991699
1.650  45.039215
1.649  45.031400
1.648  45.090725
1.647  45.072040
1.646  45.030491
1.645  45.131891
1.644  44.993855
1.643  45.139180
1.642  45.175380
1.641  45.018016
1.640  45.238844
1.639  45.264016
1.638  45.164038
1.637  45.182949
1.636  45.207555
1.635  45.268345
1.634  45.231727
1.633  45.224486
1.632  45.311518
1.631  45.315972
1.630  45.264525
1.629  45.298214
1.628  45.333156
1.627  45.377590
1.626  45.417856
1.625  45.448005
1.624  45.424592
1.623  45.481428
1.622  45.377413
1.621  45.498199
1.620  45.450604
1.619  45.442474
1.618  45.504907
1.617  45.606050
1.616  45.564606
1.615  45.610020
1.614  45.547440
1.613  45.658931
1.612  45.578536
1.611  45.681883
1.610  45.602502
1.609  45.718524
1.608  45.606030
1.607  45.591730
1.606  45.598680
1.605  45.750625
1.604  45.760685
1.603  45.770244
1.602  45.726969
1.601  45.769026
1.600  45.736690
1.599  45.884568
1.598  45.864760
1.597  45.895858
1.596  45.858116
1.595  45.835421
1.594  45.786861
1.593  45.811070
1.592  45.925782
1.591  45.926191
1.590  45.994024
1.589  45.944162
1.588  45.936862
1.587  45.949182
1.586  45.963533
1.585  45.993343
1.584  45.943537
1.583  46.062465
1.582  46.066717
1.581  46.072351
1.580  46.036488
1.579  46.087605
1.578  46.017535
1.577  46.020847
1.576  46.099110
1.575  46.032066
1.574  46.112768
1.573  46.162765
1.572  46.100437
1.571  46.175190
1.570  46.163860
1.569  46.205583
1.568  46.134508
1.567  46.179740
1.566  46.229042
1.565  46.241957
1.564  46.165438
1.563  46.293426
1.562  46.294165
1.561  46.271750
1.560  46.237447
1.559  46.315036
1.558  46.281896
1.557  46.324129
1.556  46.299138
1.555  46.388346
1.554  46.333983
1.553  46.365898
1.552  46.347206
1.551  46.362458
1.550  46.408999
1.549  46.437115
1.548  46.359092
1.547  46.435101
1.546  46.484009
1.545  46.440082
1.544  46.421586
1.543  46.453433
1.542  46.396020
1.541  46.388359
1.540  46.410181
1.539  46.530673
1.538  46.526777
1.537  46.502312
1.536  46.486181
1.535  46.530792
1.534  46.507612
1.533  46.520807
1.532  46.577690
1.531  46.559761
1.530  46.545961
1.529  46.638249
1.528  46.636757
1.527  46.588861
1.526  46.526772
1.525  46.601140
1.524  46.594004
1.523  46.583232
1.522  46.577285
1.521  46.624686
1.520  46.699631
1.519  46.688759
1.518  46.632563
1.517  46.702888
1.516  46.696348
1.515  46.712195
1.514  46.772992
1.513  46.743077
1.512  46.666319
1.511  46.660952
1.510  46.709534
1.509  46.751743
1.508  46.774355
1.507  46.749314
1.506  46.701074
1.505  46.690158
1.504  46.752923
1.503  46.809063
1.502  46.791120
1.501  46.781953
1.500  46.785986
1.499  46.842795
1.498  46.809740
1.497  46.729317
1.496  46.798641
1.495  46.863564
1.494  46.875567
1.493  46.863898
1.492  46.838411
1.491  46.831602
1.490  46.862962
1.489  46.897612
1.488  46.906829
1.487  46.898780
1.486  46.933640
1.485  46.899885
1.484  46.913417
1.483  46.899187
1.482  46.851032
1.481  46.891526
1.480  46.911912
1.479  46.905560
1.478  46.940159
1.477  46.941313
1.476  47.009353
1.475  46.977437
1.474  46.972824
1.473  46.985964
1.472  46.985667
1.471  46.979281
1.470  46.955392
1.469  46.980367
1.468  47.024727
1.467  46.971618
1.466  47.022834
1.465  46.995643
1.464  46.974687
1.463  46.962022
1.462  46.969202
1.461  47.025511
1.460  47.075814
1.459  47.044546
1.458  47.071636
1.457  47.037954
1.456  47.078934
1.455  47.095809
1.454  47.099935
1.453  47.053261
1.452  47.079566
1.451  47.055501
1.450  47.026112
1.449  47.060873
1.448  47.170638
1.447  47.055269
1.446  47.035557
1.445  47.026894
1.444  47.102862
1.443  47.100915
1.442  47.081676
1.441  47.074018
1.440  47.147092
1.439  47.095482
1.438  47.143184
1.437  47.040949
1.436  47.075664
1.435  47.118583
1.434  47.122251
1.433  47.083697
1.432  47.114606
1.431  47.137973
1.430  47.170574
