Name: Fluorite CaF_2
Type: Mineral
Class: Halides
Subclass: 
Particle Size: 45-125um
Sample No.: H-2B
Owner: JPL
Wavelength range: VNIR-SWIR
Origin: United Kingdom, England, Durham County, Weardal.
Collected by:  Ward's
Description:




 
Measurement: Hemispherical reflectance
First Column: X
Second Column: Y
X Units: Wavelength (micrometers)
Y Units: Reflectance (percent)
First X Value: 2.500
Last X Value: 0.400
Number of X Values: 2101
Additional information: h02ba.txt

2.500  66.316550
2.499  66.204228
2.498  65.990676
2.497  66.022836
2.496  65.925877
2.495  66.263196
2.494  66.100439
2.493  66.264218
2.492  66.123660
2.491  66.128917
2.490  66.246764
2.489  66.328794
2.488  66.319628
2.487  66.380455
2.486  66.341217
2.485  66.421738
2.484  66.383660
2.483  66.408980
2.482  66.479239
2.481  66.489942
2.480  66.499562
2.479  66.498174
2.478  66.582433
2.477  66.593634
2.476  66.586129
2.475  66.587756
2.474  66.643858
2.473  66.639687
2.472  66.706929
2.471  66.798008
2.470  66.831394
2.469  66.834320
2.468  66.745472
2.467  66.826823
2.466  66.659936
2.465  66.859095
2.464  66.909141
2.463  66.912515
2.462  66.959461
2.461  66.971698
2.460  66.949243
2.459  67.012126
2.458  67.114023
2.457  67.128513
2.456  67.106487
2.455  67.106339
2.454  67.161460
2.453  67.201212
2.452  67.237712
2.451  67.177137
2.450  67.223421
2.449  67.365186
2.448  67.289214
2.447  67.380151
2.446  67.359268
2.445  67.508356
2.444  67.877433
2.443  67.456285
2.442  67.432971
2.441  67.453767
2.440  67.502068
2.439  67.601919
2.438  67.513896
2.437  67.535719
2.436  67.536793
2.435  67.615171
2.434  67.634528
2.433  67.691226
2.432  67.731968
2.431  67.810023
2.430  67.729077
2.429  67.726452
2.428  67.708517
2.427  67.804083
2.426  67.794434
2.425  67.825811
2.424  67.736350
2.423  67.836426
2.422  67.835526
2.421  67.906177
2.420  67.936957
2.419  67.920298
2.418  67.823669
2.417  67.912381
2.416  67.968971
2.415  68.024887
2.414  68.054257
2.413  68.089402
2.412  68.042830
2.411  68.009253
2.410  68.014728
2.409  68.099126
2.408  68.134855
2.407  68.087550
2.406  68.139040
2.405  68.120714
2.404  68.104152
2.403  68.149540
2.402  68.142112
2.401  68.201086
2.400  68.165885
2.399  68.241876
2.398  68.301083
2.397  68.268644
2.396  68.296957
2.395  68.335570
2.394  68.336150
2.393  68.402766
2.392  68.399551
2.391  68.437427
2.390  68.472291
2.389  68.523762
2.388  68.559560
2.387  68.571472
2.386  68.549776
2.385  68.619265
2.384  68.622460
2.383  68.594810
2.382  68.581730
2.381  68.616259
2.380  68.681603
2.379  68.719807
2.378  68.747263
2.377  68.742615
2.376  68.731371
2.375  68.762196
2.374  68.723196
2.373  68.757213
2.372  68.824574
2.371  68.808238
2.370  68.855733
2.369  68.947362
2.368  68.963527
2.367  69.006726
2.366  68.959525
2.365  68.921803
2.364  68.963580
2.363  68.978974
2.362  69.034466
2.361  69.047006
2.360  69.109945
2.359  69.166137
2.358  69.130922
2.357  69.141539
2.356  69.133288
2.355  69.134477
2.354  69.173190
2.353  69.186344
2.352  69.166516
2.351  69.190575
2.350  69.193979
2.349  69.193869
2.348  69.266517
2.347  69.271378
2.346  69.279738
2.345  69.296583
2.344  69.303714
2.343  69.353174
2.342  69.359105
2.341  69.368391
2.340  69.359433
2.339  69.367925
2.338  69.382858
2.337  69.361832
2.336  69.382519
2.335  69.370968
2.334  69.360074
2.333  69.330923
2.332  69.379448
2.331  69.363650
2.330  69.370855
2.329  69.365866
2.328  69.359583
2.327  69.347454
2.326  69.318837
2.325  69.341776
2.324  69.378399
2.323  69.345731
2.322  69.368438
2.321  69.340623
2.320  69.391265
2.319  69.396684
2.318  69.392610
2.317  69.359585
2.316  69.404432
2.315  69.396984
2.314  69.389643
2.313  69.409626
2.312  69.430323
2.311  69.419334
2.310  69.462346
2.309  69.432672
2.308  69.442085
2.307  69.416001
2.306  69.479354
2.305  69.456390
2.304  69.405800
2.303  69.450843
2.302  69.494500
2.301  69.422716
2.300  69.439682
2.299  69.428491
2.298  69.501021
2.297  69.445353
2.296  69.488870
2.295  69.429232
2.294  69.451955
2.293  69.457324
2.292  69.485944
2.291  69.504088
2.290  69.532182
2.289  69.475718
2.288  69.477695
2.287  69.465914
2.286  69.476676
2.285  69.477032
2.284  69.497515
2.283  69.530801
2.282  69.519829
2.281  69.469349
2.280  69.587289
2.279  69.496253
2.278  69.516807
2.277  69.522177
2.276  69.448870
2.275  69.413200
2.274  69.547464
2.273  69.500856
2.272  69.485625
2.271  69.444946
2.270  69.498396
2.269  69.478252
2.268  69.469615
2.267  69.495317
2.266  69.493979
2.265  69.495582
2.264  69.510646
2.263  69.521268
2.262  69.530742
2.261  69.513162
2.260  69.519174
2.259  69.472077
2.258  69.543491
2.257  69.474522
2.256  69.549996
2.255  69.510346
2.254  69.496538
2.253  69.474173
2.252  69.622072
2.251  69.555185
2.250  69.558199
2.249  69.476478
2.248  69.521308
2.247  69.547244
2.246  69.552110
2.245  69.538297
2.244  69.568412
2.243  69.526922
2.242  69.587358
2.241  69.541528
2.240  69.571612
2.239  69.535457
2.238  69.583473
2.237  69.597773
2.236  69.560511
2.235  69.577025
2.234  69.550117
2.233  69.607134
2.232  69.536892
2.231  69.650400
2.230  69.650642
2.229  69.564550
2.228  69.643594
2.227  69.655487
2.226  69.628339
2.225  69.622404
2.224  69.588929
2.223  69.646414
2.222  69.727378
2.221  69.699781
2.220  69.679886
2.219  69.689305
2.218  69.637404
2.217  69.745528
2.216  69.758814
2.215  69.782659
2.214  69.722215
2.213  69.776567
2.212  69.873762
2.211  69.724947
2.210  69.906722
2.209  69.886268
2.208  69.847409
2.207  69.889011
2.206  69.952407
2.205  69.967997
2.204  69.899701
2.203  69.928695
2.202  69.977958
2.201  69.942549
2.200  70.012078
2.199  70.026200
2.198  69.989731
2.197  69.955567
2.196  70.004378
2.195  70.010362
2.194  69.984817
2.193  70.081590
2.192  70.071078
2.191  70.011524
2.190  70.140360
2.189  70.108761
2.188  70.131645
2.187  70.043287
2.186  70.104674
2.185  70.081706
2.184  70.143899
2.183  70.112212
2.182  70.248328
2.181  70.179839
2.180  70.165515
2.179  70.210140
2.178  70.198340
2.177  70.245785
2.176  70.220972
2.175  70.220222
2.174  70.280915
2.173  70.295937
2.172  70.277726
2.171  70.269640
2.170  70.391016
2.169  70.406808
2.168  70.419598
2.167  70.464617
2.166  70.513297
2.165  70.400136
2.164  70.438586
2.163  70.514307
2.162  70.525525
2.161  70.501144
2.160  70.533806
2.159  70.592582
2.158  70.623317
2.157  70.627181
2.156  70.617307
2.155  70.626653
2.154  70.637504
2.153  70.601750
2.152  70.684663
2.151  70.664066
2.150  70.693539
2.149  70.630264
2.148  70.683261
2.147  70.628283
2.146  70.671696
2.145  70.657230
2.144  70.732049
2.143  70.634237
2.142  70.654656
2.141  70.616165
2.140  70.638741
2.139  70.607891
2.138  70.634023
2.137  70.610907
2.136  70.594750
2.135  70.563660
2.134  70.531317
2.133  70.491575
2.132  70.509985
2.131  70.439848
2.130  70.431800
2.129  70.416228
2.128  70.370072
2.127  70.348731
2.126  70.348249
2.125  70.326445
2.124  70.329294
2.123  70.319408
2.122  70.272935
2.121  70.198492
2.120  70.091237
2.119  70.098932
2.118  70.104168
2.117  70.034294
2.116  69.965951
2.115  69.940655
2.114  69.894723
2.113  69.822689
2.112  69.823840
2.111  69.738581
2.110  69.704650
2.109  69.628835
2.108  69.609667
2.107  69.616545
2.106  69.556838
2.105  69.515999
2.104  69.528610
2.103  69.463861
2.102  69.392861
2.101  69.280683
2.100  69.266910
2.099  69.281370
2.098  69.286418
2.097  69.296123
2.096  69.289470
2.095  69.263479
2.094  69.308794
2.093  69.349397
2.092  69.330335
2.091  69.336465
2.090  69.317045
2.089  69.270849
2.088  69.328696
2.087  69.340827
2.086  69.324505
2.085  69.415272
2.084  69.392935
2.083  69.328707
2.082  69.359629
2.081  69.361665
2.080  69.351129
2.079  69.351468
2.078  69.382500
2.077  69.422619
2.076  69.404230
2.075  69.424503
2.074  69.435791
2.073  69.447025
2.072  69.416929
2.071  69.354560
2.070  69.366360
2.069  69.371793
2.068  69.400506
2.067  69.387377
2.066  69.337370
2.065  69.371972
2.064  69.387067
2.063  69.371390
2.062  69.377347
2.061  69.371064
2.060  69.408312
2.059  69.453944
2.058  69.419732
2.057  69.420806
2.056  69.457341
2.055  69.417317
2.054  69.393766
2.053  69.418203
2.052  69.412756
2.051  69.441679
2.050  69.425807
2.049  69.350413
2.048  69.373908
2.047  69.395513
2.046  69.378856
2.045  69.434610
2.044  69.379685
2.043  69.358348
2.042  69.373564
2.041  69.355476
2.040  69.345550
2.039  69.399073
2.038  69.401970
2.037  69.339703
2.036  69.253234
2.035  69.270589
2.034  69.294929
2.033  69.322819
2.032  69.282140
2.031  69.243443
2.030  69.183201
2.029  69.225169
2.028  69.236624
2.027  69.191382
2.026  69.180395
2.025  69.167076
2.024  69.124158
2.023  69.103418
2.022  69.081138
2.021  69.054710
2.020  69.074914
2.019  69.076419
2.018  68.971479
2.017  69.017502
2.016  68.971836
2.015  68.978102
2.014  68.944676
2.013  68.883154
2.012  68.866158
2.011  68.869850
2.010  68.828674
2.009  68.853717
2.008  68.759366
2.007  68.734289
2.006  68.710920
2.005  68.699368
2.004  68.692013
2.003  68.657824
2.002  68.616464
2.001  68.533316
2.000  68.522357
1.999  68.522048
1.998  68.492842
1.997  68.468963
1.996  68.401518
1.995  68.358679
1.994  68.275227
1.993  68.292385
1.992  68.212545
1.991  68.158600
1.990  68.107043
1.989  68.068374
1.988  68.048715
1.987  68.014203
1.986  67.966863
1.985  67.973926
1.984  67.823985
1.983  67.816261
1.982  67.748671
1.981  67.745187
1.980  67.662857
1.979  67.670525
1.978  67.620749
1.977  67.679835
1.976  67.568984
1.975  67.543908
1.974  67.474234
1.973  67.424504
1.972  67.316342
1.971  67.423956
1.970  67.325075
1.969  67.363298
1.968  67.266016
1.967  67.257876
1.966  67.126594
1.965  67.189027
1.964  67.131386
1.963  67.085387
1.962  66.998377
1.961  67.128533
1.960  67.001933
1.959  67.008824
1.958  66.943599
1.957  66.945555
1.956  66.974999
1.955  66.931017
1.954  66.906773
1.953  66.832460
1.952  66.803763
1.951  66.784403
1.950  66.740469
1.949  66.813812
1.948  66.725302
1.947  66.814275
1.946  66.683624
1.945  66.727144
1.944  66.674695
1.943  66.628673
1.942  66.701070
1.941  66.777048
1.940  66.649770
1.939  66.835866
1.938  66.659551
1.937  66.793437
1.936  66.653582
1.935  66.675632
1.934  66.739321
1.933  66.679457
1.932  66.684326
1.931  66.730170
1.930  66.727997
1.929  66.787654
1.928  66.788479
1.927  66.867149
1.926  66.754033
1.925  66.894063
1.924  66.823211
1.923  66.961340
1.922  66.943594
1.921  67.092012
1.920  67.051280
1.919  67.052584
1.918  67.111524
1.917  67.283356
1.916  67.148709
1.915  67.363271
1.914  67.385334
1.913  67.472344
1.912  67.567166
1.911  67.604557
1.910  67.649070
1.909  67.796405
1.908  67.801573
1.907  67.967046
1.906  67.971300
1.905  68.093440
1.904  68.197259
1.903  68.341264
1.902  68.358526
1.901  68.581324
1.900  68.644110
1.899  68.725542
1.898  68.758923
1.897  68.955850
1.896  69.072400
1.895  69.171577
1.894  69.310176
1.893  69.392787
1.892  69.397383
1.891  69.464493
1.890  69.539310
1.889  69.656415
1.888  69.786100
1.887  69.858921
1.886  69.869762
1.885  69.965985
1.884  70.047963
1.883  70.111896
1.882  70.112558
1.881  70.202800
1.880  70.232212
1.879  70.276779
1.878  70.370915
1.877  70.426069
1.876  70.365701
1.875  70.470751
1.874  70.458757
1.873  70.509411
1.872  70.537665
1.871  70.596600
1.870  70.643458
1.869  70.637834
1.868  70.604163
1.867  70.688112
1.866  70.674910
1.865  70.727422
1.864  70.694906
1.863  70.785397
1.862  70.739047
1.861  70.768613
1.860  70.752288
1.859  70.774746
1.858  70.852540
1.857  70.820627
1.856  70.776634
1.855  70.887395
1.854  70.898832
1.853  70.880433
1.852  70.859213
1.851  70.871930
1.850  70.832350
1.849  70.888862
1.848  70.881150
1.847  70.891618
1.846  70.841243
1.845  70.908148
1.844  70.948091
1.843  70.954062
1.842  70.940332
1.841  70.913737
1.840  70.931459
1.839  70.911794
1.838  70.945336
1.837  70.915208
1.836  70.842657
1.835  70.890327
1.834  70.904905
1.833  70.929663
1.832  70.920760
1.831  70.957062
1.830  70.882143
1.829  70.855745
1.828  70.936611
1.827  70.948511
1.826  70.957715
1.825  70.970947
1.824  70.906365
1.823  70.923716
1.822  70.992224
1.821  70.935377
1.820  70.940165
1.819  70.922954
1.818  70.894498
1.817  70.951497
1.816  70.935337
1.815  70.934968
1.814  70.943658
1.813  70.992089
1.812  70.970395
1.811  70.948311
1.810  70.947975
1.809  70.990909
1.808  70.965570
1.807  70.976431
1.806  70.943943
1.805  70.956473
1.804  70.911784
1.803  70.944126
1.802  70.961448
1.801  70.998322
1.800  71.024423
1.799  71.002167
1.798  71.005340
1.797  70.990019
1.796  70.967757
1.795  71.014214
1.794  71.000553
1.793  71.023951
1.792  70.995258
1.791  71.005713
1.790  70.980499
1.789  70.950224
1.788  70.993049
1.787  70.995087
1.786  70.979722
1.785  70.995341
1.784  70.988092
1.783  70.985480
1.782  70.951093
1.781  70.956582
1.780  70.954467
1.779  70.932080
1.778  70.934589
1.777  70.928187
1.776  70.978645
1.775  70.964109
1.774  70.929082
1.773  70.932064
1.772  70.945118
1.771  70.950615
1.770  70.983163
1.769  70.977109
1.768  70.957373
1.767  70.934274
1.766  70.981197
1.765  71.022107
1.764  70.994182
1.763  70.941712
1.762  70.964568
1.761  70.986922
1.760  70.969669
1.759  70.984601
1.758  71.022616
1.757  70.985286
1.756  70.962308
1.755  70.964954
1.754  71.001977
1.753  71.046984
1.752  70.994050
1.751  71.011729
1.750  71.063125
1.749  71.065794
1.748  71.057973
1.747  71.037300
1.746  71.070081
1.745  71.056060
1.744  71.081338
1.743  71.077410
1.742  71.081292
1.741  71.065622
1.740  71.059412
1.739  71.083054
1.738  71.102844
1.737  71.130028
1.736  71.112624
1.735  71.051509
1.734  71.092754
1.733  71.127334
1.732  71.174685
1.731  71.115604
1.730  71.143195
1.729  71.148373
1.728  71.151956
1.727  71.150738
1.726  71.202707
1.725  71.133708
1.724  71.078593
1.723  71.125806
1.722  71.115856
1.721  71.118768
1.720  71.183350
1.719  71.127665
1.718  71.151786
1.717  71.157970
1.716  71.162863
1.715  71.120555
1.714  71.135917
1.713  71.141068
1.712  71.125791
1.711  71.102654
1.710  71.210703
1.709  71.125401
1.708  71.144421
1.707  71.184347
1.706  71.121783
1.705  71.112091
1.704  71.210099
1.703  71.155026
1.702  71.142993
1.701  71.077398
1.700  71.111629
1.699  71.110287
1.698  71.140232
1.697  71.151968
1.696  71.113909
1.695  71.091673
1.694  71.166450
1.693  71.109930
1.692  71.089840
1.691  71.114590
1.690  71.174390
1.689  71.111874
1.688  71.082084
1.687  71.054090
1.686  71.091126
1.685  71.157019
1.684  71.178512
1.683  71.121339
1.682  71.167179
1.681  71.074555
1.680  71.079568
1.679  71.139654
1.678  71.146444
1.677  71.147740
1.676  71.160032
1.675  71.166267
1.674  71.135852
1.673  70.995830
1.672  71.171042
1.671  71.144151
1.670  71.156630
1.669  71.183397
1.668  71.053418
1.667  71.095369
1.666  71.186102
1.665  71.153212
1.664  71.172025
1.663  71.101660
1.662  71.079940
1.661  71.139909
1.660  71.163228
1.659  71.050603
1.658  71.084641
1.657  71.111140
1.656  71.077197
1.655  71.086269
1.654  71.130603
1.653  71.155539
1.652  71.203921
1.651  71.083350
1.650  71.117865
1.649  71.046913
1.648  71.181813
1.647  71.063328
1.646  71.107721
1.645  71.106522
1.644  71.089187
1.643  71.126537
1.642  70.994978
1.641  71.102339
1.640  71.138983
1.639  71.191189
1.638  71.046542
1.637  71.066561
1.636  71.085136
1.635  71.052414
1.634  71.117225
1.633  71.096063
1.632  71.176767
1.631  71.067587
1.630  71.076557
1.629  71.045316
1.628  71.091741
1.627  71.070117
1.626  71.117701
1.625  71.115388
1.624  71.127853
1.623  71.079477
1.622  71.112925
1.621  71.045578
1.620  71.162504
1.619  71.077632
1.618  71.059091
1.617  71.107028
1.616  71.155788
1.615  71.067924
1.614  71.118770
1.613  71.101166
1.612  71.115719
1.611  71.089264
1.610  71.076520
1.609  71.000169
1.608  71.142591
1.607  71.167763
1.606  71.117039
1.605  71.052881
1.604  71.088413
1.603  71.118360
1.602  71.085534
1.601  71.040290
1.600  71.079487
1.599  71.048745
1.598  71.100443
1.597  71.072861
1.596  71.075489
1.595  71.053411
1.594  71.089716
1.593  71.077692
1.592  71.079956
1.591  71.028525
1.590  71.032122
1.589  71.111623
1.588  71.097466
1.587  71.041040
1.586  71.122165
1.585  71.042879
1.584  71.060100
1.583  71.080636
1.582  71.036844
1.581  71.039962
1.580  71.039159
1.579  71.008233
1.578  71.074246
1.577  71.055391
1.576  71.043765
1.575  71.004857
1.574  71.045724
1.573  71.038615
1.572  71.054830
1.571  71.010099
1.570  71.069035
1.569  71.030405
1.568  70.962208
1.567  70.979779
1.566  71.028514
1.565  70.996941
1.564  70.969378
1.563  70.958815
1.562  70.973756
1.561  70.900884
1.560  70.956211
1.559  70.976693
1.558  70.955887
1.557  70.961792
1.556  70.955967
1.555  70.895992
1.554  70.930210
1.553  70.953150
1.552  70.958945
1.551  70.928128
1.550  71.010370
1.549  70.940290
1.548  70.922962
1.547  70.871978
1.546  70.891341
1.545  70.897496
1.544  70.888070
1.543  70.915984
1.542  70.909149
1.541  70.917558
1.540  70.935561
1.539  70.938073
1.538  70.869433
1.537  70.808554
1.536  70.840766
1.535  70.892684
1.534  70.887714
1.533  70.863366
1.532  70.880403
1.531  70.836085
1.530  70.772393
1.529  70.789017
1.528  70.826944
1.527  70.808663
1.526  70.789497
1.525  70.781019
1.524  70.774366
1.523  70.765783
1.522  70.762692
1.521  70.778888
1.520  70.747823
1.519  70.717270
1.518  70.748594
1.517  70.726393
1.516  70.781098
1.515  70.804213
1.514  70.729588
1.513  70.685770
1.512  70.680957
1.511  70.688053
1.510  70.719932
1.509  70.728104
1.508  70.674703
1.507  70.641198
1.506  70.617148
1.505  70.577274
1.504  70.584209
1.503  70.599181
1.502  70.611619
1.501  70.613195
1.500  70.612017
1.499  70.627055
1.498  70.614644
1.497  70.572762
1.496  70.554768
1.495  70.589429
1.494  70.564562
1.493  70.519339
1.492  70.500303
1.491  70.517103
1.490  70.483283
1.489  70.443733
1.488  70.466683
1.487  70.487682
1.486  70.503264
1.485  70.458398
1.484  70.389201
1.483  70.406638
1.482  70.409102
1.481  70.408348
1.480  70.381583
1.479  70.381362
1.478  70.367028
1.477  70.335506
1.476  70.325205
1.475  70.303708
1.474  70.251331
1.473  70.356666
1.472  70.377261
1.471  70.314621
1.470  70.306658
1.469  70.264354
1.468  70.269733
1.467  70.307704
1.466  70.238989
1.465  70.233576
1.464  70.259853
1.463  70.275603
1.462  70.241206
1.461  70.204588
1.460  70.204921
1.459  70.253533
1.458  70.212395
1.457  70.189978
1.456  70.184791
1.455  70.224994
1.454  70.232591
1.453  70.231554
1.452  70.165302
1.451  70.187029
1.450  70.194084
1.449  70.212889
1.448  70.199067
1.447  70.171423
1.446  70.167160
1.445  70.195591
1.444  70.219213
1.443  70.222800
1.442  70.174134
1.441  70.216518
1.440  70.169159
1.439  70.201520
1.438  70.203356
1.437  70.218885
1.436  70.208795
1.435  70.229828
1.434  70.258292
1.433  70.257762
1.432  70.197103
1.431  70.209451
1.430  70.219937
1.429  70.272208
1.428  70.224037
1.427  70.273844
1.426  70.322964
1.425  70.309757
1.424  70.282293
1.423  70.295263
1.422  70.314838
1.421  70.351747
1.420  70.311538
1.419  70.324995
1.418  70.342338
