Name: Quartz Felsite Porphyry
Type: Rock
Class: Igneous
Subclass:  Felsic 
Particle Size: Solid surface
Sample No.: Ward09.txt
Owner: JPL
Wavelength range:  IR
Origin: Ward's Collection of American Rocks.  Sample locality - Marblehead, Essex County, Massachusetts.
Collected by:  Ward's Natural Science
Description: A dark gray, compact, porphyritic rock with phenocrysts of
feldspar and quartz in a cryptocrystalline groundmass.
Geologic age - Devonian or Carboniferous.



Measurement: Hemispherical reflectance
First Column: X
Second Column: Y
X Units: Wavelength (micrometers)
Y Units: Reflectance (percent)
First X Value: 15.3871
Last X Value: 1.9998
Number of X Values: 2257
Additional information: None

15.3871   6.31401
15.3416   6.31120
15.2964   6.25223
15.2514   5.80464
15.2066   5.40656
15.1622   4.97884
15.1180   4.80177
15.0740   4.58333
15.0303   4.35654
14.9869   4.21757
14.9437   4.23047
14.9008   4.17724
14.8581   4.27841
14.8156   4.35841
14.7734   4.43084
14.7314   4.42947
14.6897   4.66547
14.6482   5.05746
14.6069   5.06226
14.5659   5.16529
14.5251   5.19188
14.4845   5.29929
14.4442   5.58120
14.4041   5.66046
14.3642   5.45197
14.3245   4.86253
14.2850   4.75757
14.2458   5.08952
14.2068   5.29132
14.1679   5.37476
14.1293   5.40351
14.0909   5.57097
14.0528   5.79484
14.0148   5.97251
13.9770   6.02628
13.9394   6.18082
13.9021   6.35852
13.8649   6.44211
13.8279   6.51797
13.7911   6.38791
13.7546   6.17797
13.7182   6.13234
13.6820   6.06929
13.6460   5.96111
13.6101   6.00012
13.5745   6.21214
13.5391   6.36590
13.5038   6.38171
13.4687   6.38434
13.4339   6.54237
13.3991   6.61537
13.3646   6.57235
13.3302   6.56287
13.2961   6.64568
13.2621   6.76455
13.2282   6.84754
13.1946   7.06008
13.1611   7.26041
13.1278   7.25691
13.0946   7.34045
13.0616   7.44062
13.0288   7.14785
12.9962   6.91427
12.9637   7.17124
12.9313   7.59517
12.8992   8.02874
12.8672   8.35470
12.8353   8.65458
12.8036   8.60601
12.7721   8.39085
12.7407   8.00330
12.7095   7.52176
12.6784   7.11095
12.6475   6.80820
12.6167   6.73964
12.5861   6.73468
12.5556   6.97710
12.5253   7.19379
12.4951   7.21459
12.4651   6.82122
12.4352   6.10116
12.4054   5.24438
12.3758   4.58010
12.3463   4.07014
12.3170   3.82842
12.2878   3.79172
12.2588   3.91412
12.2299   4.01617
12.2011   4.15299
12.1725   4.40510
12.1439   4.58356
12.1156   4.68616
12.0873   4.96423
12.0592   5.17698
12.0312   5.14104
12.0034   5.13019
11.9757   5.23355
11.9481   5.26586
11.9206   5.35367
11.8933   5.56729
11.8661   5.73540
11.8390   5.76371
11.8120   5.83774
11.7852   6.11322
11.7584   6.28561
11.7318   6.29476
11.7053   6.34069
11.6790   6.36114
11.6527   6.44373
11.6266   6.55800
11.6006   6.69158
11.5747   6.81790
11.5489   6.87113
11.5233   6.80852
11.4977   6.85917
11.4723   6.87344
11.4469   6.95397
11.4217   7.25020
11.3966   7.44313
11.3716   7.55798
11.3468   7.64081
11.3220   7.68576
11.2973   7.73290
11.2728   7.80775
11.2483   7.81383
11.2240   7.90355
11.1997   8.06980
11.1756   8.14604
11.1515   8.18489
11.1276   8.14483
11.1038   8.23748
11.0801   8.42519
11.0564   8.66808
11.0329   8.80910
11.0095   8.82681
10.9862   8.91561
10.9629   9.07193
10.9398   9.14106
10.9168   9.21838
10.8938   9.39754
10.8710   9.48534
10.8483   9.66531
10.8256  10.01560
10.8031  10.11530
10.7806  10.16220
10.7582  10.18050
10.7360  10.11270
10.7138  10.34760
10.6917  10.56450
10.6697  10.70640
10.6478  10.95820
10.6260  11.14870
10.6042  11.33450
10.5826  11.58780
10.5610  11.74710
10.5396  11.91210
10.5182  12.15860
10.4969  12.38030
10.4757  12.56580
10.4546  12.80830
10.4335  13.13470
10.4126  13.46680
10.3917  13.60230
10.3709  13.89520
10.3502  14.51970
10.3296  14.97620
10.3091  15.27030
10.2886  15.70860
10.2683  16.29250
10.2480  16.78850
10.2277  17.25540
10.2076  17.68800
10.1876  18.17420
10.1676  18.63610
10.1477  19.00480
10.1279  19.51850
10.1081  20.11280
10.0885  20.62660
10.0689  20.92280
10.0494  21.12450
10.0299  21.52360
10.0106  22.03310
 9.9913  22.57720
 9.9720  23.03510
 9.9529  23.33470
 9.9338  23.68040
 9.9148  24.02060
 9.8959  24.11530
 9.8771  24.16160
 9.8583  24.10660
 9.8396  23.96020
 9.8210  23.78650
 9.8024  23.63880
 9.7839  23.58770
 9.7655  23.95660
 9.7471  24.44400
 9.7288  25.08770
 9.7106  25.92630
 9.6925  26.68210
 9.6744  27.36450
 9.6564  27.87980
 9.6384  28.10880
 9.6205  28.07940
 9.6027  27.95510
 9.5850  27.91990
 9.5673  27.58410
 9.5497  27.17140
 9.5321  26.84370
 9.5146  26.52360
 9.4972  26.27160
 9.4798  26.15070
 9.4625  25.99950
 9.4453  26.12030
 9.4281  26.43930
 9.4110  26.76100
 9.3940  27.22780
 9.3770  27.89930
 9.3600  28.36320
 9.3432  28.67890
 9.3264  29.15800
 9.3096  29.57380
 9.2930  29.67060
 9.2763  29.72650
 9.2598  29.78140
 9.2432  29.74920
 9.2268  29.56580
 9.2104  29.52000
 9.1941  29.56640
 9.1778  29.65950
 9.1616  29.62060
 9.1454  29.50520
 9.1293  29.26340
 9.1133  28.95340
 9.0973  28.74770
 9.0814  28.52350
 9.0655  28.32350
 9.0497  28.29800
 9.0339  28.08190
 9.0182  27.74170
 9.0025  27.70730
 8.9870  27.60670
 8.9714  27.44840
 8.9559  27.40850
 8.9405  27.43040
 8.9251  27.55220
 8.9097  27.67660
 8.8945  27.74310
 8.8792  27.90890
 8.8641  28.23620
 8.8489  28.43310
 8.8338  28.68790
 8.8188  28.85940
 8.8039  28.92810
 8.7889  28.94940
 8.7741  29.08850
 8.7592  29.07490
 8.7445  29.03720
 8.7297  29.13030
 8.7151  29.20690
 8.7005  29.01490
 8.6859  28.59980
 8.6714  27.92730
 8.6569  26.96710
 8.6425  25.95780
 8.6281  25.59040
 8.6137  26.20630
 8.5994  27.31380
 8.5852  28.24210
 8.5710  28.95210
 8.5569  29.48550
 8.5428  29.59230
 8.5287  29.56870
 8.5147  29.55410
 8.5008  29.49900
 8.4869  29.49570
 8.4730  29.42580
 8.4592  29.34170
 8.4454  29.19600
 8.4316  29.06970
 8.4180  28.84780
 8.4043  28.59050
 8.3907  28.22210
 8.3772  27.83620
 8.3637  27.44010
 8.3502  27.02350
 8.3368  26.58260
 8.3234  26.16700
 8.3100  25.68980
 8.2967  25.09980
 8.2835  24.57500
 8.2703  24.14490
 8.2571  23.62050
 8.2440  23.11790
 8.2309  22.65400
 8.2179  22.10630
 8.2049  21.58980
 8.1919  20.99780
 8.1790  20.21160
 8.1661  19.33130
 8.1532  18.26830
 8.1404  17.11550
 8.1277  15.92560
 8.1150  14.70360
 8.1023  13.56190
 8.0897  12.53620
 8.0770  11.52340
 8.0645  10.65550
 8.0520   9.91991
 8.0395   9.22219
 8.0270   8.58041
 8.0146   8.04122
 8.0023   7.54981
 7.9899   7.07328
 7.9776   6.65743
 7.9654   6.19659
 7.9532   5.80952
 7.9410   5.46799
 7.9288   5.02251
 7.9167   4.53550
 7.9047   4.28737
 7.8926   4.17338
 7.8807   3.89711
 7.8687   3.74824
 7.8568   3.70107
 7.8449   3.51253
 7.8330   3.31332
 7.8212   3.18758
 7.8094   3.11305
 7.7977   3.04939
 7.7860   2.88220
 7.7743   2.83618
 7.7627   2.84901
 7.7511   2.85465
 7.7395   2.82993
 7.7280   2.76491
 7.7165   2.70704
 7.7050   2.59335
 7.6936   2.49503
 7.6822   2.46119
 7.6708   2.50722
 7.6595   2.48618
 7.6482   2.42334
 7.6369   2.43201
 7.6257   2.35848
 7.6145   2.27433
 7.6033   2.28807
 7.5922   2.26463
 7.5811   2.17987
 7.5700   2.09049
 7.5590   2.13680
 7.5480   2.21445
 7.5370   2.17802
 7.5261   2.14235
 7.5152   2.17691
 7.5043   2.15642
 7.4935   2.02547
 7.4826   1.98166
 7.4718   1.98282
 7.4611   1.96405
 7.4504   1.98717
 7.4397   2.03471
 7.4290   2.01314
 7.4184   2.00110
 7.4078   2.03545
 7.3972   2.03806
 7.3867   2.04634
 7.3762   2.07537
 7.3657   1.99804
 7.3553   2.02144
 7.3449   2.04000
 7.3345   1.98371
 7.3241   1.95447
 7.3138   1.99410
 7.3035   2.06850
 7.2932   2.09703
 7.2830   2.10394
 7.2727   2.08639
 7.2626   2.01730
 7.2524   1.96897
 7.2423   1.96798
 7.2322   1.96609
 7.2221   2.01373
 7.2120   2.06346
 7.2020   2.14294
 7.1921   2.20752
 7.1821   2.19155
 7.1722   2.22508
 7.1623   2.13844
 7.1524   2.11306
 7.1425   2.06106
 7.1327   2.07725
 7.1229   2.10474
 7.1131   2.01776
 7.1034   1.97615
 7.0937   2.05896
 7.0840   2.13683
 7.0743   2.14207
 7.0647   2.13525
 7.0551   2.14898
 7.0455   2.19213
 7.0359   2.19142
 7.0264   2.25008
 7.0169   2.26466
 7.0074   2.19737
 6.9979   2.16366
 6.9885   2.04992
 6.9791   2.01009
 6.9697   2.04834
 6.9604   2.13334
 6.9510   2.26389
 6.9417   2.30666
 6.9324   2.22542
 6.9232   2.13681
 6.9140   2.20632
 6.9047   2.19204
 6.8956   2.07604
 6.8864   2.06702
 6.8773   2.07473
 6.8682   2.15203
 6.8591   2.23877
 6.8500   2.20919
 6.8410   2.16192
 6.8320   2.07273
 6.8230   2.05514
 6.8140   2.11805
 6.8051   2.12036
 6.7962   2.16783
 6.7873   2.17034
 6.7784   2.16326
 6.7695   2.02242
 6.7607   1.94232
 6.7519   1.96345
 6.7431   1.97297
 6.7344   2.03366
 6.7256   2.16522
 6.7169   2.12223
 6.7082   2.03187
 6.6996   2.08347
 6.6909   2.17284
 6.6823   2.21329
 6.6737   2.21140
 6.6651   2.19760
 6.6566   2.19970
 6.6480   2.26521
 6.6395   2.30871
 6.6310   2.26057
 6.6226   2.20297
 6.6141   2.12225
 6.6057   2.16516
 6.5973   2.23233
 6.5889   2.17811
 6.5805   2.12373
 6.5722   2.27501
 6.5639   2.28247
 6.5556   2.28474
 6.5473   2.29774
 6.5390   2.26800
 6.5308   2.29891
 6.5226   2.38896
 6.5144   2.40637
 6.5062   2.38953
 6.4981   2.41755
 6.4900   2.49104
 6.4818   2.52700
 6.4737   2.43422
 6.4657   2.32243
 6.4576   2.35931
 6.4496   2.43873
 6.4416   2.51157
 6.4336   2.55773
 6.4256   2.57503
 6.4177   2.69597
 6.4097   2.72073
 6.4018   2.52750
 6.3939   2.46065
 6.3860   2.44672
 6.3782   2.35102
 6.3704   2.38908
 6.3625   2.40337
 6.3547   2.38747
 6.3470   2.38715
 6.3392   2.42486
 6.3315   2.46522
 6.3237   2.39148
 6.3160   2.35341
 6.3083   2.38113
 6.3007   2.35350
 6.2930   2.30441
 6.2854   2.36928
 6.2778   2.43895
 6.2702   2.29000
 6.2626   2.19517
 6.2551   2.22820
 6.2476   2.19477
 6.2400   2.22876
 6.2325   2.26760
 6.2251   2.22451
 6.2176   2.16324
 6.2101   2.20577
 6.2027   2.30234
 6.1953   2.37440
 6.1879   2.49259
 6.1805   2.45953
 6.1732   2.43493
 6.1658   2.34811
 6.1585   2.34059
 6.1512   2.43596
 6.1439   2.50435
 6.1367   2.49546
 6.1294   2.51888
 6.1222   2.53591
 6.1149   2.55327
 6.1077   2.45766
 6.1006   2.50143
 6.0934   2.57921
 6.0862   2.54916
 6.0791   2.51641
 6.0720   2.58669
 6.0649   2.60766
 6.0578   2.63869
 6.0507   2.79551
 6.0437   2.72765
 6.0366   2.69874
 6.0296   2.66396
 6.0226   2.64859
 6.0156   2.63139
 6.0087   2.64543
 6.0017   2.58054
 5.9948   2.62436
 5.9878   2.65511
 5.9809   2.59259
 5.9740   2.44364
 5.9672   2.47109
 5.9603   2.60411
 5.9535   2.62161
 5.9466   2.56268
 5.9398   2.62952
 5.9330   2.68190
 5.9262   2.63487
 5.9195   2.69288
 5.9127   2.68678
 5.9060   2.62790
 5.8993   2.62250
 5.8926   2.55553
 5.8859   2.64903
 5.8792   2.71612
 5.8726   2.63702
 5.8659   2.62708
 5.8593   2.67041
 5.8527   2.77439
 5.8461   2.81287
 5.8395   2.77626
 5.8329   2.80237
 5.8264   2.92002
 5.8198   2.91199
 5.8133   2.77045
 5.8068   2.66365
 5.8003   2.65923
 5.7938   2.68976
 5.7874   2.72641
 5.7809   2.76420
 5.7745   2.86546
 5.7680   2.89082
 5.7616   2.78429
 5.7552   2.82151
 5.7489   2.84058
 5.7425   2.74874
 5.7361   2.71008
 5.7298   2.77853
 5.7235   2.80655
 5.7172   2.77369
 5.7109   2.80873
 5.7046   2.80682
 5.6983   2.73708
 5.6921   2.70436
 5.6858   2.75701
 5.6796   2.89068
 5.6734   2.87585
 5.6672   2.70474
 5.6610   2.66121
 5.6548   2.67486
 5.6487   2.71262
 5.6425   2.77490
 5.6364   2.73124
 5.6303   2.69230
 5.6242   2.71220
 5.6181   2.71960
 5.6120   2.66964
 5.6059   2.60651
 5.5999   2.65754
 5.5938   2.65447
 5.5878   2.62422
 5.5818   2.66766
 5.5758   2.73851
 5.5698   2.74676
 5.5638   2.76293
 5.5578   2.76349
 5.5519   2.75653
 5.5460   2.76510
 5.5400   2.78165
 5.5341   2.71737
 5.5282   2.77898
 5.5223   2.86494
 5.5164   2.92445
 5.5106   3.00728
 5.5047   3.00683
 5.4989   3.00434
 5.4931   2.99770
 5.4873   3.03604
 5.4815   3.02906
 5.4757   2.94519
 5.4699   2.98095
 5.4641   3.06745
 5.4584   3.08023
 5.4527   3.06682
 5.4469   3.04759
 5.4412   3.00188
 5.4355   2.96878
 5.4298   2.99238
 5.4241   3.03829
 5.4185   3.03289
 5.4128   3.01535
 5.4072   3.09155
 5.4015   3.08789
 5.3959   2.95715
 5.3903   2.87534
 5.3847   2.95436
 5.3791   3.01922
 5.3735   2.94283
 5.3680   2.87891
 5.3624   2.89982
 5.3569   2.88662
 5.3514   2.92423
 5.3458   2.97460
 5.3403   2.96395
 5.3348   2.90274
 5.3294   2.93771
 5.3239   2.96746
 5.3184   2.85545
 5.3130   2.86810
 5.3075   2.97123
 5.3021   2.93813
 5.2967   2.88920
 5.2913   2.89367
 5.2859   2.98529
 5.2805   3.01102
 5.2751   3.02831
 5.2698   3.05353
 5.2644   3.05661
 5.2591   3.09035
 5.2538   3.16263
 5.2485   3.29611
 5.2431   3.27539
 5.2378   3.27942
 5.2326   3.35994
 5.2273   3.36712
 5.2220   3.31281
 5.2168   3.31934
 5.2115   3.34431
 5.2063   3.39171
 5.2011   3.47205
 5.1959   3.49523
 5.1907   3.50579
 5.1855   3.47049
 5.1803   3.42338
 5.1751   3.45615
 5.1700   3.48243
 5.1648   3.51573
 5.1597   3.59894
 5.1545   3.58321
 5.1494   3.52503
 5.1443   3.50930
 5.1392   3.56218
 5.1341   3.63234
 5.1291   3.60752
 5.1240   3.53504
 5.1189   3.51047
 5.1139   3.58245
 5.1088   3.62326
 5.1038   3.55014
 5.0988   3.49842
 5.0938   3.54033
 5.0888   3.56348
 5.0838   3.55453
 5.0788   3.57391
 5.0738   3.59253
 5.0689   3.58072
 5.0639   3.51347
 5.0590   3.55165
 5.0541   3.65822
 5.0491   3.69820
 5.0442   3.66963
 5.0393   3.60856
 5.0344   3.61495
 5.0296   3.70893
 5.0247   3.65310
 5.0198   3.58742
 5.0150   3.65896
 5.0101   3.71917
 5.0053   3.73074
 5.0004   3.70554
 4.9956   3.61734
 4.9908   3.56504
 4.9860   3.60165
 4.9812   3.77596
 4.9765   3.88798
 4.9717   3.87789
 4.9669   3.81842
 4.9622   3.89813
 4.9574   4.07902
 4.9527   4.21523
 4.9480   4.16605
 4.9432   4.09220
 4.9385   4.13943
 4.9338   4.18703
 4.9291   4.17340
 4.9245   4.19087
 4.9198   4.23415
 4.9151   4.30008
 4.9105   4.42939
 4.9058   4.45275
 4.9012   4.45125
 4.8966   4.48876
 4.8919   4.62606
 4.8873   4.67417
 4.8827   4.71012
 4.8781   4.80181
 4.8736   4.85968
 4.8690   4.91697
 4.8644   4.98827
 4.8599   4.97592
 4.8553   4.93224
 4.8508   5.04231
 4.8462   5.21899
 4.8417   5.17900
 4.8372   5.11863
 4.8327   5.10377
 4.8282   5.12009
 4.8237   5.16513
 4.8192   5.12911
 4.8147   5.16678
 4.8103   5.29624
 4.8058   5.35396
 4.8014   5.31400
 4.7969   5.26203
 4.7925   5.24977
 4.7881   5.27264
 4.7836   5.29475
 4.7792   5.33418
 4.7748   5.30658
 4.7704   5.28633
 4.7660   5.25460
 4.7617   5.21317
 4.7573   5.24801
 4.7530   5.35755
 4.7486   5.41066
 4.7443   5.37550
 4.7399   5.36843
 4.7356   5.41552
 4.7313   5.45247
 4.7270   5.57155
 4.7226   5.58001
 4.7184   5.57320
 4.7141   5.57581
 4.7098   5.51189
 4.7055   5.53447
 4.7012   5.53966
 4.6970   5.49086
 4.6927   5.49613
 4.6885   5.50346
 4.6842   5.53992
 4.6800   5.58318
 4.6758   5.62132
 4.6716   5.57334
 4.6674   5.56879
 4.6632   5.59144
 4.6590   5.66517
 4.6548   5.74900
 4.6506   5.74564
 4.6465   5.72559
 4.6423   5.80308
 4.6382   5.87027
 4.6340   5.81077
 4.6299   5.74622
 4.6258   5.87500
 4.6216   6.02263
 4.6175   6.13480
 4.6134   6.10367
 4.6093   6.08486
 4.6052   6.15595
 4.6011   6.14948
 4.5971   6.21911
 4.5930   6.33474
 4.5889   6.31835
 4.5849   6.21516
 4.5808   6.19549
 4.5768   6.23792
 4.5727   6.29355
 4.5687   6.39129
 4.5647   6.49531
 4.5607   6.48873
 4.5567   6.44824
 4.5526   6.49296
 4.5487   6.45707
 4.5447   6.51280
 4.5407   6.51926
 4.5367   6.48273
 4.5328   6.42200
 4.5288   6.40936
 4.5248   6.42630
 4.5209   6.49146
 4.5170   6.50040
 4.5130   6.44435
 4.5091   6.49397
 4.5052   6.55408
 4.5013   6.47267
 4.4974   6.46014
 4.4935   6.46263
 4.4896   6.39270
 4.4857   6.42970
 4.4818   6.53685
 4.4779   6.62043
 4.4741   6.57082
 4.4702   6.54723
 4.4664   6.51394
 4.4625   6.41976
 4.4587   6.39889
 4.4549   6.54212
 4.4510   6.62295
 4.4472   6.57648
 4.4434   6.64201
 4.4396   6.72486
 4.4358   6.79731
 4.4320   6.90469
 4.4282   6.99378
 4.4245   7.00659
 4.4207   7.00427
 4.4169   6.98663
 4.4132   6.95272
 4.4094   6.94754
 4.4057   7.01867
 4.4019   7.07833
 4.3982   7.17427
 4.3945   7.21805
 4.3907   7.26120
 4.3870   7.31872
 4.3833   7.40964
 4.3796   7.43672
 4.3759   7.41177
 4.3722   7.42416
 4.3685   7.50384
 4.3649   7.50936
 4.3612   7.56514
 4.3575   7.64198
 4.3539   7.72388
 4.3502   7.80354
 4.3466   7.82247
 4.3429   7.75871
 4.3393   7.79688
 4.3357   7.90935
 4.3320   7.95166
 4.3284   7.94833
 4.3248   7.97674
 4.3212   8.00097
 4.3176   8.01249
 4.3140   7.95738
 4.3105   7.96625
 4.3069   8.01188
 4.3033   8.13560
 4.2997   8.15028
 4.2962   8.13914
 4.2926   8.13071
 4.2890   8.15543
 4.2855   8.18944
 4.2820   8.17107
 4.2784   8.17854
 4.2749   8.23609
 4.2714   8.17677
 4.2679   8.15243
 4.2644   8.15917
 4.2609   8.19707
 4.2574   8.31230
 4.2539   8.34891
 4.2504   8.39482
 4.2469   8.41459
 4.2434   8.36970
 4.2400   8.43543
 4.2365   8.43373
 4.2330   8.28779
 4.2296   8.31280
 4.2261   8.45009
 4.2227   8.47331
 4.2193   8.42856
 4.2158   8.48652
 4.2124   8.50544
 4.2090   8.44071
 4.2056   8.36318
 4.2022   8.37500
 4.1988   8.46530
 4.1954   8.62468
 4.1920   8.72679
 4.1886   8.57842
 4.1852   8.50096
 4.1818   8.46421
 4.1785   8.50720
 4.1751   8.61260
 4.1717   8.70180
 4.1684   8.55966
 4.1650   8.58457
 4.1617   8.60998
 4.1584   8.55632
 4.1550   8.61183
 4.1517   8.65064
 4.1484   8.70545
 4.1451   8.84396
 4.1418   8.79856
 4.1384   8.75686
 4.1351   8.67964
 4.1319   8.66177
 4.1286   8.74867
 4.1253   8.74602
 4.1220   8.71562
 4.1187   8.75589
 4.1155   8.88210
 4.1122   8.83371
 4.1089   8.69188
 4.1057   8.67182
 4.1024   8.80764
 4.0992   8.86352
 4.0959   8.89525
 4.0927   8.94919
 4.0895   8.91820
 4.0863   8.72511
 4.0830   8.69436
 4.0798   8.80351
 4.0766   8.83754
 4.0734   8.75752
 4.0702   8.80321
 4.0670   8.80740
 4.0639   8.80069
 4.0607   8.92058
 4.0575   8.94696
 4.0543   8.89913
 4.0511   8.89638
 4.0480   8.85786
 4.0448   8.75024
 4.0417   8.69655
 4.0385   8.73851
 4.0354   8.81129
 4.0323   8.82758
 4.0291   8.71402
 4.0260   8.69821
 4.0229   8.63146
 4.0197   8.60470
 4.0166   8.61449
 4.0135   8.63132
 4.0104   8.75049
 4.0073   8.91510
 4.0042   8.71916
 4.0011   8.50215
 3.9981   8.51949
 3.9950   8.65498
 3.9919   8.77550
 3.9888   8.80556
 3.9857   8.79633
 3.9827   8.82239
 3.9796   8.82246
 3.9766   8.62631
 3.9735   8.59799
 3.9705   8.76491
 3.9675   8.77127
 3.9644   8.64193
 3.9614   8.61465
 3.9584   8.66937
 3.9554   8.75896
 3.9523   8.83544
 3.9493   8.84505
 3.9463   8.85289
 3.9433   8.82302
 3.9403   8.80482
 3.9373   8.68780
 3.9343   8.75968
 3.9314   8.82451
 3.9284   8.78464
 3.9254   8.87584
 3.9224   8.95133
 3.9195   8.88802
 3.9165   8.85412
 3.9136   8.85555
 3.9106   8.92441
 3.9077   8.93343
 3.9047   8.87501
 3.9018   8.95180
 3.8988   9.05005
 3.8959   9.04796
 3.8930   8.98442
 3.8901   8.86749
 3.8872   8.77196
 3.8842   8.70714
 3.8813   8.77092
 3.8784   8.90287
 3.8755   8.83232
 3.8726   8.77397
 3.8697   8.81535
 3.8669   8.88314
 3.8640   8.83990
 3.8611   8.79185
 3.8582   8.80444
 3.8554   8.90562
 3.8525   8.95707
 3.8496   8.92887
 3.8468   8.89462
 3.8439   8.72821
