Name: Carbonaceous Shale
Type: Rock
Class: Sedimentary
Subclass:  Shale 
Particle Size: Solid surface
Sample No.: Ward54.txt
Owner: JPL
Wavelength range:  IR
Origin: Ward's Collection of American Rocks.  Sample locality - Mingo County, West Virginia.
Collected by:  Ward's Natural Science
Description: A dull grayish black shaly rock with numerous fern and other
coal plant impressions.  A slight amount of carbonaceous material i
present.
Geologic age - Pennsylvanian (Pottsville).


Measurement: Hemispherical reflectance
First Column: X
Second Column: Y
X Units: Wavelength (micrometers)
Y Units: Reflectance (percent)
First X Value: 15.3871
Last X Value: 1.9998
Number of X Values: 2257
Additional information: None

15.3871   3.48934
15.3416   3.69659
15.2964   3.66545
15.2514   3.50071
15.2066   3.33196
15.1622   3.44237
15.1180   3.55846
15.0740   3.57418
15.0303   3.62879
14.9869   3.41222
14.9437   3.34308
14.9008   3.46231
14.8581   3.27549
14.8156   3.26484
14.7734   3.24116
14.7314   3.16964
14.6897   3.32858
14.6482   3.19619
14.6069   3.14536
14.5659   3.35716
14.5251   3.40758
14.4845   3.33203
14.4442   3.19385
14.4041   3.03534
14.3642   3.00893
14.3245   2.88013
14.2850   2.71475
14.2458   2.66730
14.2068   2.77981
14.1679   3.07128
14.1293   3.22095
14.0909   3.32135
14.0528   3.42896
14.0148   3.26222
13.9770   3.14884
13.9394   3.19864
13.9021   3.41427
13.8649   3.61907
13.8279   3.66749
13.7911   3.63045
13.7546   3.46529
13.7182   3.58454
13.6820   3.84714
13.6460   3.85469
13.6101   3.77047
13.5745   3.81009
13.5391   3.97209
13.5038   3.97730
13.4687   3.89594
13.4339   3.91311
13.3991   4.05217
13.3646   3.97704
13.3302   3.97449
13.2961   4.18019
13.2621   4.30690
13.2282   4.17117
13.1946   3.95583
13.1611   3.90113
13.1278   4.03196
13.0946   4.06819
13.0616   4.08978
13.0288   4.18825
12.9962   4.21908
12.9637   4.28763
12.9313   4.33795
12.8992   4.55145
12.8672   4.91944
12.8353   4.88019
12.8036   4.64210
12.7721   4.63077
12.7407   4.63930
12.7095   4.54916
12.6784   4.52779
12.6475   4.33495
12.6167   4.01666
12.5861   4.17474
12.5556   4.52324
12.5253   4.60050
12.4951   4.53221
12.4651   4.18599
12.4352   3.92932
12.4054   3.80091
12.3758   3.62690
12.3463   3.38259
12.3170   3.37822
12.2878   3.49802
12.2588   3.44514
12.2299   3.50193
12.2011   3.73731
12.1725   3.81821
12.1439   3.72023
12.1156   3.58594
12.0873   3.64479
12.0592   3.86914
12.0312   4.06699
12.0034   4.05301
11.9757   4.06723
11.9481   4.19055
11.9206   4.32058
11.8933   4.39485
11.8661   4.39696
11.8390   4.42007
11.8120   4.41164
11.7852   4.38077
11.7584   4.45041
11.7318   4.56998
11.7053   4.68710
11.6790   4.88833
11.6527   5.01154
11.6266   5.15569
11.6006   5.19272
11.5747   5.16173
11.5489   5.39684
11.5233   5.53487
11.4977   5.40630
11.4723   5.38660
11.4469   5.59772
11.4217   5.71167
11.3966   5.71863
11.3716   5.82126
11.3468   5.87105
11.3220   5.94005
11.2973   6.01796
11.2728   6.08984
11.2483   6.07021
11.2240   6.20633
11.1997   6.30506
11.1756   6.21219
11.1515   6.23720
11.1276   6.42364
11.1038   6.67100
11.0801   6.86593
11.0564   6.95698
11.0329   7.03074
11.0095   7.12059
10.9862   7.05480
10.9629   7.01922
10.9398   7.00758
10.9168   6.89154
10.8938   6.79564
10.8710   6.72384
10.8483   6.71531
10.8256   6.61147
10.8031   6.56595
10.7806   6.57965
10.7582   6.59140
10.7360   6.69813
10.7138   6.78587
10.6917   6.85979
10.6697   6.90043
10.6478   7.11479
10.6260   7.24471
10.6042   7.20597
10.5826   7.28957
10.5610   7.38067
10.5396   7.56565
10.5182   7.71853
10.4969   7.75135
10.4757   7.84760
10.4546   8.02266
10.4335   8.21707
10.4126   8.61161
10.3917   8.94075
10.3709   9.09601
10.3502   9.32701
10.3296   9.51727
10.3091   9.71583
10.2886   9.97281
10.2683  10.20520
10.2480  10.32470
10.2277  10.47740
10.2076  10.75720
10.1876  10.97290
10.1676  11.29660
10.1477  11.55010
10.1279  11.76750
10.1081  11.84670
10.0885  11.88040
10.0689  12.03310
10.0494  12.38080
10.0299  12.67910
10.0106  12.89660
 9.9913  13.35980
 9.9720  13.73380
 9.9529  13.95350
 9.9338  14.13510
 9.9148  14.33480
 9.8959  14.52320
 9.8771  14.54760
 9.8583  14.53280
 9.8396  14.42480
 9.8210  14.41870
 9.8024  14.60770
 9.7839  14.88140
 9.7655  15.22730
 9.7471  15.68890
 9.7288  16.11490
 9.7106  16.52120
 9.6925  17.22230
 9.6744  17.97550
 9.6564  18.45410
 9.6384  18.80290
 9.6205  18.94510
 9.6027  18.93120
 9.5850  18.91500
 9.5673  18.98330
 9.5497  18.87630
 9.5321  18.61200
 9.5146  18.36150
 9.4972  18.05610
 9.4798  17.67960
 9.4625  17.30510
 9.4453  17.23160
 9.4281  17.32520
 9.4110  17.29740
 9.3940  17.34680
 9.3770  17.58020
 9.3600  17.71510
 9.3432  17.80660
 9.3264  17.90470
 9.3096  17.93330
 9.2930  18.11110
 9.2763  18.28110
 9.2598  18.25880
 9.2432  18.38930
 9.2268  18.41750
 9.2104  18.32190
 9.1941  18.24540
 9.1778  18.15980
 9.1616  18.10080
 9.1454  17.99460
 9.1293  17.76200
 9.1133  17.60220
 9.0973  17.29320
 9.0814  16.95170
 9.0655  16.67160
 9.0497  16.13820
 9.0339  15.74810
 9.0182  15.44260
 9.0025  15.07240
 8.9870  14.69590
 8.9714  14.87790
 8.9559  15.36870
 8.9405  15.53680
 8.9251  15.73590
 8.9097  15.96900
 8.8945  16.12510
 8.8792  16.08780
 8.8641  15.95030
 8.8489  15.83070
 8.8338  15.57210
 8.8188  15.27720
 8.8039  15.10150
 8.7889  14.98540
 8.7741  14.83620
 8.7592  14.59370
 8.7445  14.28250
 8.7297  13.97130
 8.7151  13.63800
 8.7005  13.28020
 8.6859  12.89270
 8.6714  12.32270
 8.6569  11.55160
 8.6425  10.94440
 8.6281  10.63380
 8.6137  10.83150
 8.5994  11.40260
 8.5852  11.82890
 8.5710  12.21450
 8.5569  12.51200
 8.5428  12.55890
 8.5287  12.39510
 8.5147  12.29760
 8.5008  12.35960
 8.4869  12.41390
 8.4730  12.43710
 8.4592  12.49970
 8.4454  12.61470
 8.4316  12.73880
 8.4180  12.72460
 8.4043  12.72250
 8.3907  12.77370
 8.3772  12.80350
 8.3637  12.74970
 8.3502  12.98440
 8.3368  13.15800
 8.3234  13.36500
 8.3100  13.48690
 8.2967  13.50260
 8.2835  13.60170
 8.2703  13.70660
 8.2571  13.95030
 8.2440  14.16170
 8.2309  14.33240
 8.2179  14.35790
 8.2049  14.37710
 8.1919  14.47030
 8.1790  14.31730
 8.1661  14.06410
 8.1532  13.88210
 8.1404  13.44840
 8.1277  12.85430
 8.1150  12.34570
 8.1023  11.91970
 8.0897  11.44510
 8.0770  10.97470
 8.0645  10.49280
 8.0520   9.95678
 8.0395   9.57894
 8.0270   9.23333
 8.0146   8.99420
 8.0023   8.79323
 7.9899   8.55743
 7.9776   8.29322
 7.9654   7.87916
 7.9532   7.50510
 7.9410   7.28813
 7.9288   7.04010
 7.9167   6.75614
 7.9047   6.54687
 7.8926   6.34665
 7.8807   6.09466
 7.8687   5.84671
 7.8568   5.68490
 7.8449   5.56324
 7.8330   5.54698
 7.8212   5.49184
 7.8094   5.36433
 7.7977   5.34602
 7.7860   5.39642
 7.7743   5.42857
 7.7627   5.37812
 7.7511   5.27683
 7.7395   5.10933
 7.7280   5.04724
 7.7165   5.09744
 7.7050   5.04080
 7.6936   4.97613
 7.6822   4.94120
 7.6708   4.86781
 7.6595   4.82501
 7.6482   4.75861
 7.6369   4.65403
 7.6257   4.48321
 7.6145   4.29395
 7.6033   4.26908
 7.5922   4.24796
 7.5811   4.26740
 7.5700   4.34232
 7.5590   4.32825
 7.5480   4.21630
 7.5370   4.13860
 7.5261   4.15472
 7.5152   4.15504
 7.5043   4.26043
 7.4935   4.35911
 7.4826   4.37928
 7.4718   4.42338
 7.4611   4.33755
 7.4504   4.31044
 7.4397   4.33485
 7.4290   4.26817
 7.4184   4.29675
 7.4078   4.31996
 7.3972   4.33794
 7.3867   4.30691
 7.3762   4.20060
 7.3657   4.24109
 7.3553   4.30808
 7.3449   4.27706
 7.3345   4.15492
 7.3241   4.09776
 7.3138   4.10632
 7.3035   4.11686
 7.2932   3.99457
 7.2830   3.84747
 7.2727   3.93719
 7.2626   4.04511
 7.2524   4.07400
 7.2423   4.15091
 7.2322   4.21674
 7.2221   4.22965
 7.2120   4.23753
 7.2020   4.08321
 7.1921   4.06722
 7.1821   4.25948
 7.1722   4.34722
 7.1623   4.24950
 7.1524   4.20390
 7.1425   4.24513
 7.1327   4.26988
 7.1229   4.19426
 7.1131   4.13105
 7.1034   4.20458
 7.0937   4.12948
 7.0840   4.06694
 7.0743   4.02218
 7.0647   3.95163
 7.0551   4.03572
 7.0455   4.08668
 7.0359   3.91771
 7.0264   3.75377
 7.0169   3.67934
 7.0074   3.72393
 6.9979   3.78174
 6.9885   3.85731
 6.9791   3.91037
 6.9697   3.77090
 6.9604   3.71883
 6.9510   3.75286
 6.9417   3.81019
 6.9324   3.84706
 6.9232   3.81022
 6.9140   3.83276
 6.9047   3.95690
 6.8956   3.96032
 6.8864   3.83358
 6.8773   3.85819
 6.8682   4.03785
 6.8591   4.14353
 6.8500   4.09699
 6.8410   4.07023
 6.8320   3.98726
 6.8230   3.93084
 6.8140   3.96556
 6.8051   4.04578
 6.7962   4.12394
 6.7873   4.07848
 6.7784   4.04251
 6.7695   4.12909
 6.7607   4.16906
 6.7519   4.16302
 6.7431   4.21685
 6.7344   4.21930
 6.7256   4.17813
 6.7169   4.18550
 6.7082   4.21609
 6.6996   4.24742
 6.6909   4.29343
 6.6823   4.33802
 6.6737   4.42304
 6.6651   4.48675
 6.6566   4.50403
 6.6480   4.58421
 6.6395   4.63713
 6.6310   4.60052
 6.6226   4.58251
 6.6141   4.51122
 6.6057   4.45826
 6.5973   4.53612
 6.5889   4.59318
 6.5805   4.61225
 6.5722   4.61932
 6.5639   4.57796
 6.5556   4.61309
 6.5473   4.59913
 6.5390   4.51672
 6.5308   4.57846
 6.5226   4.72564
 6.5144   4.70403
 6.5062   4.66233
 6.4981   4.76891
 6.4900   4.79420
 6.4818   4.78192
 6.4737   4.79295
 6.4657   4.85142
 6.4576   4.84841
 6.4496   4.77470
 6.4416   4.74066
 6.4336   4.75026
 6.4256   4.74818
 6.4177   4.80545
 6.4097   4.79613
 6.4018   4.74341
 6.3939   4.67074
 6.3860   4.55158
 6.3782   4.38092
 6.3704   4.28512
 6.3625   4.24881
 6.3547   4.19880
 6.3470   4.23721
 6.3392   4.28361
 6.3315   4.17753
 6.3237   4.05271
 6.3160   4.06214
 6.3083   3.98550
 6.3007   3.88376
 6.2930   3.93063
 6.2854   3.87039
 6.2778   3.78880
 6.2702   3.86126
 6.2626   3.82020
 6.2551   3.72605
 6.2476   3.69272
 6.2400   3.70039
 6.2325   3.70419
 6.2251   3.61643
 6.2176   3.56041
 6.2101   3.59497
 6.2027   3.54696
 6.1953   3.50803
 6.1879   3.54371
 6.1805   3.52302
 6.1732   3.44703
 6.1658   3.39333
 6.1585   3.46106
 6.1512   3.45270
 6.1439   3.34306
 6.1367   3.32454
 6.1294   3.37757
 6.1222   3.43158
 6.1149   3.41252
 6.1077   3.31335
 6.1006   3.35195
 6.0934   3.44261
 6.0862   3.41768
 6.0791   3.40075
 6.0720   3.35760
 6.0649   3.37036
 6.0578   3.38765
 6.0507   3.36944
 6.0437   3.31964
 6.0366   3.32962
 6.0296   3.34184
 6.0226   3.29452
 6.0156   3.25917
 6.0087   3.24225
 6.0017   3.25166
 5.9948   3.29149
 5.9878   3.31900
 5.9809   3.19469
 5.9740   3.05104
 5.9672   3.01885
 5.9603   3.03712
 5.9535   3.08087
 5.9466   3.10549
 5.9398   3.14475
 5.9330   3.30638
 5.9262   3.29930
 5.9195   3.14859
 5.9127   3.12283
 5.9060   3.15326
 5.8993   3.21476
 5.8926   3.14094
 5.8859   3.17800
 5.8792   3.27912
 5.8726   3.27831
 5.8659   3.26729
 5.8593   3.38205
 5.8527   3.43224
 5.8461   3.39868
 5.8395   3.34951
 5.8329   3.35681
 5.8264   3.45941
 5.8198   3.56490
 5.8133   3.53750
 5.8068   3.51221
 5.8003   3.51622
 5.7938   3.51236
 5.7874   3.56626
 5.7809   3.68482
 5.7745   3.71525
 5.7680   3.65554
 5.7616   3.68378
 5.7552   3.74932
 5.7489   3.79350
 5.7425   3.84214
 5.7361   3.91838
 5.7298   3.95430
 5.7235   4.01092
 5.7172   4.01968
 5.7109   4.04550
 5.7046   4.05973
 5.6983   4.02335
 5.6921   3.99086
 5.6858   3.98686
 5.6796   4.01866
 5.6734   4.13341
 5.6672   4.14181
 5.6610   4.07425
 5.6548   4.01878
 5.6487   3.97537
 5.6425   3.98400
 5.6364   3.98994
 5.6303   3.97281
 5.6242   3.95519
 5.6181   3.94373
 5.6120   3.91710
 5.6059   3.97857
 5.5999   4.06999
 5.5938   4.03826
 5.5878   3.94553
 5.5818   3.98332
 5.5758   3.97414
 5.5698   3.91631
 5.5638   3.97392
 5.5578   4.01718
 5.5519   4.05881
 5.5460   4.03295
 5.5400   4.02718
 5.5341   4.02285
 5.5282   4.03965
 5.5223   4.07483
 5.5164   4.10601
 5.5106   4.12381
 5.5047   4.16555
 5.4989   4.18258
 5.4931   4.21493
 5.4873   4.31056
 5.4815   4.36434
 5.4757   4.31608
 5.4699   4.25335
 5.4641   4.28838
 5.4584   4.40592
 5.4527   4.45871
 5.4469   4.40186
 5.4412   4.35093
 5.4355   4.31375
 5.4298   4.35538
 5.4241   4.42751
 5.4185   4.45415
 5.4128   4.43227
 5.4072   4.39836
 5.4015   4.33765
 5.3959   4.34060
 5.3903   4.30644
 5.3847   4.20696
 5.3791   4.16164
 5.3735   4.20760
 5.3680   4.24615
 5.3624   4.18164
 5.3569   4.18192
 5.3514   4.19664
 5.3458   4.19762
 5.3403   4.16121
 5.3348   4.16728
 5.3294   4.24201
 5.3239   4.32094
 5.3184   4.37026
 5.3130   4.35229
 5.3075   4.26777
 5.3021   4.25683
 5.2967   4.33216
 5.2913   4.36642
 5.2859   4.35940
 5.2805   4.39236
 5.2751   4.41032
 5.2698   4.35350
 5.2644   4.40472
 5.2591   4.46836
 5.2538   4.58160
 5.2485   4.64544
 5.2431   4.67748
 5.2378   4.77837
 5.2326   4.92289
 5.2273   4.92760
 5.2220   4.91310
 5.2168   4.95798
 5.2115   4.92498
 5.2063   4.88083
 5.2011   4.99981
 5.1959   5.11224
 5.1907   5.05293
 5.1855   4.96252
 5.1803   4.91790
 5.1751   4.94555
 5.1700   5.05957
 5.1648   5.10674
 5.1597   5.08253
 5.1545   5.08632
 5.1494   5.10588
 5.1443   5.10667
 5.1392   5.13486
 5.1341   5.16758
 5.1291   5.16255
 5.1240   5.14525
 5.1189   5.15921
 5.1139   5.18569
 5.1088   5.20588
 5.1038   5.18718
 5.0988   5.20742
 5.0938   5.17640
 5.0888   5.26600
 5.0838   5.26638
 5.0788   5.20959
 5.0738   5.21468
 5.0689   5.22240
 5.0639   5.20901
 5.0590   5.20209
 5.0541   5.26491
 5.0491   5.29356
 5.0442   5.20553
 5.0393   5.17718
 5.0344   5.20630
 5.0296   5.30481
 5.0247   5.41268
 5.0198   5.42074
 5.0150   5.40585
 5.0101   5.37376
 5.0053   5.42930
 5.0004   5.51647
 4.9956   5.46938
 4.9908   5.37772
 4.9860   5.40695
 4.9812   5.46542
 4.9765   5.52900
 4.9717   5.50543
 4.9669   5.50470
 4.9622   5.57732
 4.9574   5.77076
 4.9527   5.85444
 4.9480   5.82518
 4.9432   5.87068
 4.9385   5.99017
 4.9338   5.99949
 4.9291   5.90534
 4.9245   5.86072
 4.9198   5.91546
 4.9151   5.98724
 4.9105   6.06727
 4.9058   6.18422
 4.9012   6.30032
 4.8966   6.44285
 4.8919   6.46995
 4.8873   6.47692
 4.8827   6.46744
 4.8781   6.51928
 4.8736   6.68310
 4.8690   6.75381
 4.8644   6.76443
 4.8599   6.83784
 4.8553   6.80256
 4.8508   6.81444
 4.8462   6.84130
 4.8417   6.89695
 4.8372   6.92172
 4.8327   6.83113
 4.8282   6.83374
 4.8237   6.89976
 4.8192   6.99779
 4.8147   7.05781
 4.8103   7.00515
 4.8058   6.93406
 4.8014   6.97581
 4.7969   7.04739
 4.7925   7.14923
 4.7881   7.13863
 4.7836   7.14660
 4.7792   7.22382
 4.7748   7.16701
 4.7704   7.06574
 4.7660   7.08307
 4.7617   7.21786
 4.7573   7.28432
 4.7530   7.27710
 4.7486   7.26496
 4.7443   7.33571
 4.7399   7.39403
 4.7356   7.31166
 4.7313   7.33558
 4.7270   7.47383
 4.7226   7.46380
 4.7184   7.41266
 4.7141   7.47137
 4.7098   7.43520
 4.7055   7.49862
 4.7012   7.56370
 4.6970   7.41883
 4.6927   7.38776
 4.6885   7.37967
 4.6842   7.30753
 4.6800   7.37463
 4.6758   7.54778
 4.6716   7.62382
 4.6674   7.59052
 4.6632   7.58825
 4.6590   7.53654
 4.6548   7.58650
 4.6506   7.78631
 4.6465   7.78235
 4.6423   7.64999
 4.6382   7.68582
 4.6340   7.74575
 4.6299   7.79213
 4.6258   7.83098
 4.6216   7.85755
 4.6175   7.91891
 4.6134   7.95099
 4.6093   7.99771
 4.6052   8.05959
 4.6011   8.06977
 4.5971   8.13218
 4.5930   8.16140
 4.5889   8.14025
 4.5849   8.11778
 4.5808   8.16194
 4.5768   8.19018
 4.5727   8.17616
 4.5687   8.14785
 4.5647   8.13770
 4.5607   8.17949
 4.5567   8.19881
 4.5526   8.20932
 4.5487   8.28554
 4.5447   8.30143
 4.5407   8.28925
 4.5367   8.29878
 4.5328   8.32768
 4.5288   8.27204
 4.5248   8.17602
 4.5209   8.17060
 4.5170   8.20067
 4.5130   8.12699
 4.5091   8.23763
 4.5052   8.28937
 4.5013   8.27096
 4.4974   8.34885
 4.4935   8.29914
 4.4896   8.18561
 4.4857   8.24988
 4.4818   8.18657
 4.4779   8.18487
 4.4741   8.24837
 4.4702   8.26571
 4.4664   8.33719
 4.4625   8.41089
 4.4587   8.41579
 4.4549   8.39471
 4.4510   8.43962
 4.4472   8.36003
 4.4434   8.32084
 4.4396   8.39604
 4.4358   8.46140
 4.4320   8.46235
 4.4282   8.50576
 4.4245   8.52975
 4.4207   8.54481
 4.4169   8.56294
 4.4132   8.48721
 4.4094   8.51573
 4.4057   8.64934
 4.4019   8.73101
 4.3982   8.71629
 4.3945   8.68521
 4.3907   8.75337
 4.3870   8.75868
 4.3833   8.82600
 4.3796   8.85644
 4.3759   8.74670
 4.3722   8.69890
 4.3685   8.81358
 4.3649   8.79113
 4.3612   8.83662
 4.3575   8.93820
 4.3539   8.93307
 4.3502   8.83401
 4.3466   8.85835
 4.3429   8.96842
 4.3393   8.89263
 4.3357   8.82011
 4.3320   8.90570
 4.3284   8.95670
 4.3248   8.92420
 4.3212   8.94143
 4.3176   9.00478
 4.3140   8.98051
 4.3105   8.96492
 4.3069   8.94567
 4.3033   8.86584
 4.2997   8.95281
 4.2962   8.96436
 4.2926   8.79003
 4.2890   8.73710
 4.2855   8.85955
 4.2820   8.88622
 4.2784   8.75259
 4.2749   8.55755
 4.2714   8.53683
 4.2679   8.67041
 4.2644   8.74812
 4.2609   8.88614
 4.2574   8.99827
 4.2539   9.08710
 4.2504   9.12589
 4.2469   9.01396
 4.2434   9.04278
 4.2400   9.05907
 4.2365   9.00572
 4.2330   8.97612
 4.2296   8.95448
 4.2261   9.10263
 4.2227   9.13025
 4.2193   9.07930
 4.2158   9.02685
 4.2124   9.05947
 4.2090   9.12710
 4.2056   9.20450
 4.2022   9.24006
 4.1988   9.27297
 4.1954   9.30229
 4.1920   9.33045
 4.1886   9.34451
 4.1852   9.33856
 4.1818   9.37085
 4.1785   9.39842
 4.1751   9.34755
 4.1717   9.33101
 4.1684   9.27576
 4.1650   9.20328
 4.1617   9.16873
 4.1584   9.16181
 4.1550   9.16997
 4.1517   9.26795
 4.1484   9.29133
 4.1451   9.28298
 4.1418   9.30830
 4.1384   9.32917
 4.1351   9.34634
 4.1319   9.42020
 4.1286   9.43424
 4.1253   9.32181
 4.1220   9.35878
 4.1187   9.51020
 4.1155   9.46319
 4.1122   9.31931
 4.1089   9.30899
 4.1057   9.31597
 4.1024   9.38390
 4.0992   9.36444
 4.0959   9.32845
 4.0927   9.30053
 4.0895   9.32298
 4.0863   9.31859
 4.0830   9.35012
 4.0798   9.43445
 4.0766   9.46337
 4.0734   9.42051
 4.0702   9.31373
 4.0670   9.38522
 4.0639   9.44987
 4.0607   9.33279
 4.0575   9.20108
 4.0543   9.12100
 4.0511   9.04648
 4.0480   9.02416
 4.0448   9.09843
 4.0417   9.19147
 4.0385   9.24006
 4.0354   9.15450
 4.0323   8.96318
 4.0291   8.87427
 4.0260   8.84731
 4.0229   8.90663
 4.0197   8.93108
 4.0166   8.94941
 4.0135   8.97483
 4.0104   8.94779
 4.0073   8.90548
 4.0042   8.88295
 4.0011   8.78102
 3.9981   8.67240
 3.9950   8.63537
 3.9919   8.80399
 3.9888   8.87298
 3.9857   8.78799
 3.9827   8.74287
 3.9796   8.78458
 3.9766   8.78493
 3.9735   8.73829
 3.9705   8.85028
 3.9675   8.90711
 3.9644   8.81392
 3.9614   8.84505
 3.9584   8.97463
 3.9554   9.07764
 3.9523   9.07238
 3.9493   9.02438
 3.9463   8.96188
 3.9433   8.98852
 3.9403   9.11867
 3.9373   9.21058
 3.9343   9.19218
 3.9314   9.18781
 3.9284   9.16765
 3.9254   9.08056
 3.9224   9.01613
 3.9195   9.01100
 3.9165   9.07899
 3.9136   9.20297
 3.9106   9.24790
 3.9077   9.18768
 3.9047   9.12093
 3.9018   9.09209
 3.8988   9.20725
 3.8959   9.26633
 3.8930   9.20031
 3.8901   9.20654
 3.8872   9.21754
 3.8842   9.25567
 3.8813   9.24269
 3.8784   9.24751
 3.8755   9.30982
 3.8726   9.18086
 3.8697   9.18281
 3.8669   9.28463
 3.8640   9.20414
 3.8611   9.23738
 3.8582   9.37902
 3.8554   9.40180
 3.8525   9.43976
 3.8496   9.41875
 3.8468   9.36067
 3.8439   9.33537
