Name: Bornite Cu_5FeS_4
Type: Mineral
Class: Sulfides
Subclass: 
Particle Size: 0-45um
Sample No.: S-9A
Owner: JPL
Wavelength range: IR
Origin: USA, Arizona, Pinal County, Superior, Magma Mine
Collected by Burminco
Description: 





Measurement: Hemispherical reflectance
First Column: X
Second Column: Y
X Units:  Wavelength (micrometers)
Y Units:  Reflectance (percent)
First X Value: 15.3853
Last X Value: 2.00032
Number of X Values: 2256
Additional information: s09aa.txt
 
15.3853	10.1181
15.3397	10.2886
15.2945	10.234
15.2495	10.1907
15.2048	10.158
15.1603	10.0577
15.1161	10.0869
15.0722	10.3189
15.0285	10.3973
14.9851	10.2603
14.9419	9.92745
14.8989	9.92913
14.8563	10.1406
14.8138	9.98517
14.7716	9.90191
14.7296	9.97013
14.6879	9.92844
14.6464	10.0142
14.6052	10.2301
14.5641	10.2534
14.5233	10.0667
14.4828	9.99875
14.4424	10.0476
14.4023	10.1496
14.3624	10.2419
14.3227	10.1886
14.2833	10.1599
14.244	10.2559
14.205	10.275
14.1662	10.226
14.1276	10.343
14.0892	10.4482
14.051	10.4257
14.0131	10.3265
13.9753	10.2892
13.9377	10.1118
13.9004	10.1162
13.8632	10.1941
13.8262	10.2717
13.7895	10.3
13.7529	10.2959
13.7165	10.226
13.6803	10.2976
13.6443	10.2718
13.6085	10.1198
13.5729	10.0636
13.5374	10.1313
13.5022	10.213
13.4671	10.312
13.4322	10.4491
13.3975	10.4078
13.363	10.2798
13.3286	10.1454
13.2944	10.0763
13.2604	10.334
13.2266	10.4048
13.193	10.4441
13.1595	10.3911
13.1262	10.2957
13.093	10.2289
13.06	10.1435
13.0272	10.1488
12.9946	10.2601
12.9621	10.4458
12.9298	10.4465
12.8976	10.3011
12.8656	10.3879
12.8337	10.4819
12.8021	10.434
12.7705	10.46
12.7391	10.3963
12.7079	10.284
12.6769	10.1787
12.6459	10.1172
12.6152	10.2068
12.5845	10.3251
12.5541	10.3983
12.5238	10.391
12.4936	10.3948
12.4635	10.3352
12.4337	10.3087
12.4039	10.3152
12.3743	10.3819
12.3448	10.4652
12.3155	10.5502
12.2863	10.5034
12.2573	10.3182
12.2284	10.2622
12.1996	10.2529
12.171	10.2871
12.1425	10.3921
12.1141	10.4438
12.0859	10.4335
12.0578	10.4055
12.0298	10.3576
12.0019	10.3203
11.9742	10.3474
11.9466	10.3756
11.9192	10.4399
11.8918	10.3793
11.8646	10.3893
11.8375	10.4578
11.8106	10.434
11.7837	10.5292
11.757	10.5049
11.7304	10.3837
11.7039	10.3649
11.6776	10.4503
11.6513	10.5421
11.6252	10.5176
11.5992	10.5107
11.5733	10.3974
11.5475	10.3437
11.5219	10.3297
11.4963	10.3787
11.4709	10.4476
11.4455	10.4998
11.4203	10.5761
11.3952	10.5862
11.3702	10.4645
11.3454	10.4561
11.3206	10.4996
11.2959	10.5121
11.2714	10.4567
11.2469	10.4675
11.2226	10.4816
11.1983	10.357
11.1742	10.3836
11.1502	10.4177
11.1263	10.5022
11.1024	10.4972
11.0787	10.4303
11.0551	10.5129
11.0316	10.5033
11.0081	10.4745
10.9848	10.4958
10.9616	10.5702
10.9385	10.6212
10.9154	10.534
10.8925	10.4097
10.8697	10.5601
10.8469	10.6299
10.8243	10.5512
10.8017	10.5407
10.7793	10.5703
10.7569	10.6376
10.7346	10.5992
10.7125	10.4698
10.6904	10.4242
10.6684	10.5032
10.6465	10.5227
10.6247	10.4394
10.6029	10.4964
10.5813	10.5435
10.5597	10.5478
10.5383	10.5548
10.5169	10.6221
10.4956	10.707
10.4744	10.5946
10.4533	10.431
10.4323	10.4676
10.4113	10.585
10.3904	10.6095
10.3697	10.6163
10.349	10.5971
10.3284	10.5545
10.3078	10.5095
10.2874	10.6129
10.267	10.6307
10.2467	10.5834
10.2265	10.5477
10.2064	10.5449
10.1863	10.5016
10.1663	10.4877
10.1464	10.5421
10.1266	10.5664
10.1069	10.5623
10.0872	10.578
10.0676	10.6425
10.0481	10.6673
10.0287	10.6358
10.0093	10.6499
9.99005	10.7226
9.97084	10.6705
9.95169	10.6555
9.93263	10.6947
9.91364	10.6616
9.89472	10.6272
9.87587	10.7839
9.8571	10.761
9.83839	10.6717
9.81976	10.6518
9.80119	10.6284
9.78271	10.6449
9.76428	10.7427
9.74592	10.793
9.72764	10.7193
9.70943	10.6797
9.69128	10.7117
9.6732	10.8242
9.65518	10.8437
9.63724	10.7838
9.61935	10.7553
9.60155	10.8061
9.5838	10.879
9.56611	10.8018
9.5485	10.6345
9.53094	10.6829
9.51345	10.7375
9.49604	10.6488
9.47867	10.6473
9.46137	10.7889
9.44414	10.8283
9.42697	10.861
9.40986	10.8461
9.39281	10.9353
9.37583	10.9761
9.35891	10.924
9.34204	10.9875
9.32524	11.0101
9.3085	11.0752
9.29182	11.1152
9.27519	11.0037
9.25863	10.9032
9.24213	11.0391
9.22568	11.1544
9.2093	11.1083
9.19297	10.9558
9.17669	10.9728
9.16048	11.1347
9.14433	11.0543
9.12823	10.9775
9.11218	11.0003
9.0962	11.083
9.08027	11.1062
9.06439	11.1011
9.04858	11.1188
9.03281	10.9936
9.0171	11.0722
9.00145	11.1214
8.98585	11.1131
8.9703	11.1888
8.9548	11.1724
8.93937	11.0076
8.92398	10.9547
8.90865	11.0982
8.89337	11.1942
8.87814	11.1144
8.86296	11.0556
8.84784	11.0122
8.83277	11.0516
8.81774	11.0086
8.80277	11.0206
8.78786	10.9652
8.77298	10.9504
8.75816	11.0196
8.7434	11.0682
8.72868	11.1184
8.714	11.0531
8.69938	10.959
8.68481	10.8358
8.67029	10.9226
8.65581	11.0778
8.64139	10.995
8.62701	10.9143
8.61268	10.9953
8.5984	11.0798
8.58416	10.9266
8.56997	10.7618
8.55583	10.8632
8.54174	11.0305
8.52769	11.12
8.51368	11.1175
8.49973	11.093
8.48582	11.0143
8.47195	10.9844
8.45813	10.9774
8.44436	10.9359
8.43062	10.9883
8.41693	11.0776
8.4033	11.0706
8.3897	11.0322
8.37614	11.0941
8.36264	11.0578
8.34917	10.9772
8.33574	10.9776
8.32236	11.0282
8.30903	11.0607
8.29573	11.1262
8.28248	11.1255
8.26927	11.0976
8.2561	11.0641
8.24298	10.9478
8.2299	10.9062
8.21685	10.945
8.20385	11.0151
8.19089	10.9611
8.17797	10.8675
8.16509	10.9081
8.15225	10.9868
8.13946	11.0359
8.1267	11.0293
8.11398	11.1082
8.10131	11.1719
8.08867	11.1465
8.07606	10.9939
8.0635	10.9207
8.05099	10.9802
8.0385	11.0048
8.02606	11.0537
8.01366	10.9954
8.00129	10.9342
7.98896	10.9059
7.97667	10.8786
7.96442	10.8375
7.9522	10.8242
7.94002	10.853
7.92788	10.943
7.91578	10.9817
7.90371	10.9532
7.89168	10.8884
7.87969	10.8621
7.86773	10.8659
7.85581	10.8347
7.84392	10.8213
7.83207	10.8516
7.82026	10.8989
7.80849	10.9057
7.79674	10.8425
7.78503	10.9005
7.77337	10.9816
7.76173	10.9112
7.75012	10.8233
7.73856	10.803
7.72703	10.8668
7.71553	10.9114
7.70406	10.8998
7.69263	10.9048
7.68123	10.9206
7.66987	10.8694
7.65855	10.7997
7.64725	10.8357
7.63598	10.8433
7.62475	10.902
7.61356	10.9132
7.60239	10.8684
7.59126	10.8814
7.58017	10.9372
7.5691	10.961
7.55806	10.9186
7.54707	10.9472
7.5361	11.0447
7.52516	11.0044
7.51425	10.8879
7.50338	10.9462
7.49253	10.9322
7.48172	10.7977
7.47094	10.7537
7.46019	10.82
7.44947	10.8604
7.43879	10.8848
7.42813	10.8743
7.4175	10.878
7.4069	10.9201
7.39634	10.9445
7.3858	10.8871
7.37529	10.8092
7.36482	10.8223
7.35437	10.895
7.34396	10.9109
7.33357	10.8985
7.32321	10.8328
7.31288	10.8406
7.30258	10.8805
7.29231	10.878
7.28207	10.9574
7.27185	10.9714
7.26167	10.883
7.25152	10.8739
7.24139	10.9442
7.23129	10.9108
7.22122	10.8347
7.21117	10.8882
7.20116	10.9237
7.19117	10.9149
7.18121	10.9745
7.17128	11.014
7.16137	10.973
7.1515	10.9681
7.14164	10.9523
7.13182	10.9884
7.12203	11.0336
7.11225	10.9343
7.10251	10.9376
7.0928	10.9727
7.08311	10.9764
7.07344	10.9478
7.06381	10.9396
7.0542	11.087
7.04461	11.175
7.03506	11.0675
7.02552	10.9884
7.01601	10.9282
7.00653	10.8958
6.99708	10.9316
6.98765	10.917
6.97824	10.9502
6.96886	11.1345
6.95951	11.2015
6.95018	11.0612
6.94087	10.9752
6.9316	10.9258
6.92234	10.9291
6.91311	10.9926
6.90391	11.0816
6.89473	11.0402
6.88557	11.0363
6.87644	11.0853
6.86733	11.2406
6.85824	11.1867
6.84918	10.9845
6.84015	10.9167
6.83114	11.0358
6.82215	11.1314
6.81319	11.0435
6.80424	11.0328
6.79532	11.0869
6.78643	11.0363
6.77756	11.0223
6.76871	10.9865
6.75989	10.9103
6.75109	10.9247
6.74231	10.9464
6.73355	11.0054
6.72482	11.0866
6.71611	11.1103
6.70742	11.0289
6.69875	10.9704
6.69011	11.0769
6.68149	11.1939
6.67289	11.1567
6.66431	11.0224
6.65576	11.024
6.64722	11.2402
6.63871	11.488
6.63022	11.381
6.62175	11.1592
6.61331	11.1465
6.60488	11.1599
6.59648	11.2376
6.5881	11.1811
6.57974	11.2254
6.5714	11.3196
6.56308	11.2018
6.55478	11.0931
6.54651	11.0698
6.53825	11.0835
6.53001	11.1154
6.5218	11.1967
6.51361	11.0831
6.50544	11.1127
6.49729	11.3991
6.48915	11.4633
6.48104	11.3726
6.47295	11.2751
6.46488	11.1305
6.45683	11.0732
6.4488	11.0956
6.44079	11.0914
6.4328	11.2234
6.42482	11.3291
6.41687	11.5101
6.40894	11.4872
6.40103	11.1944
6.39314	11.0739
6.38526	11.0863
6.37741	11.1693
6.36957	11.2822
6.36176	11.1462
6.35396	11.0493
6.34618	11.1514
6.33843	11.0754
6.33069	10.9527
6.32297	10.9983
6.31527	11.0556
6.30758	11.042
6.29992	11.0258
6.29227	10.9696
6.28465	10.8995
6.27704	11.02
6.26945	11.0215
6.26188	10.8668
6.25432	10.9033
6.24679	11.0139
6.23927	10.9498
6.23177	10.8946
6.22429	10.9392
6.21683	10.9742
6.20938	10.9373
6.20195	10.9292
6.19454	11.0405
6.18715	11.1772
6.17978	11.1006
6.17242	10.993
6.16508	11.055
6.15776	11.0604
6.15045	11.0403
6.14317	11.0386
6.1359	10.9837
6.12864	11.0195
6.12141	11.1921
6.11419	11.2782
6.10699	11.1079
6.0998	11.0637
6.09263	11.1024
6.08549	11.0704
6.07835	11.2118
6.07123	11.2915
6.06413	11.132
6.05705	11.2332
6.04998	11.5225
6.04293	11.3154
6.0359	11.0836
6.02888	11.0471
6.02187	11.0561
6.01489	11.0675
6.00792	11.0036
6.00096	10.9513
5.99403	11.1356
5.98711	11.2069
5.9802	11.0752
5.97331	11.0197
5.96644	11.0413
5.95958	11.0262
5.95274	10.998
5.94591	11.0986
5.9391	11.3504
5.9323	11.2963
5.92552	11.0892
5.91876	11.0023
5.91201	11.0043
5.90528	10.9978
5.89856	11.1305
5.89186	11.1205
5.88517	11.1805
5.8785	11.1778
5.87184	11.0116
5.8652	11.0887
5.85857	11.0173
5.85196	10.9185
5.84536	10.9376
5.83878	10.9948
5.83221	11.1412
5.82566	11.37
5.81912	11.205
5.81259	10.9205
5.80608	10.9041
5.79959	10.9052
5.79311	10.8724
5.78665	10.9154
5.78019	10.9867
5.77376	11.1645
5.76734	11.2835
5.76093	11.0827
5.75453	10.9613
5.74815	11.086
5.74179	11.0596
5.73543	10.9738
5.7291	10.9627
5.72277	10.9295
5.71646	10.9519
5.71017	11.089
5.70389	11.0438
5.69762	10.9592
5.69136	10.9701
5.68513	10.9452
5.6789	11.0104
5.67268	10.9922
5.66648	10.8779
5.6603	10.8908
5.65413	10.9784
5.64797	11.0891
5.64182	11.1346
5.63569	10.9744
5.62957	10.9369
5.62347	10.9611
5.61737	10.9273
5.61129	10.8794
5.60522	10.8539
5.59917	10.8815
5.59313	10.887
5.5871	10.9564
5.58109	10.9853
5.57509	10.8769
5.5691	10.8465
5.56312	10.8911
5.55716	10.9022
5.55121	10.9364
5.54528	10.921
5.53935	10.8696
5.53344	10.8205
5.52754	10.8781
5.52166	10.9317
5.51578	10.9226
5.50992	10.9638
5.50407	10.936
5.49823	10.8668
5.49241	10.8915
5.4866	10.8759
5.4808	10.9028
5.47501	10.9615
5.46923	10.93
5.46347	10.8917
5.45772	10.9077
5.45198	10.9356
5.44625	10.9385
5.44054	10.9128
5.43484	10.885
5.42914	10.9285
5.42347	11.0395
5.4178	11.0339
5.41214	10.9869
5.4065	10.9631
5.40087	10.9155
5.39525	10.8344
5.38964	10.8423
5.38404	10.9086
5.37846	10.9682
5.37288	10.9361
5.36732	10.9213
5.36177	10.9336
5.35623	10.9233
5.35071	10.9264
5.34519	10.8885
5.33968	10.873
5.33419	10.9055
5.32871	10.907
5.32324	10.9188
5.31778	10.895
5.31233	10.859
5.30689	10.8826
5.30147	10.9626
5.29605	11.0076
5.29065	10.9851
5.28525	10.9235
5.27987	10.9139
5.2745	10.8748
5.26914	10.851
5.26379	10.8575
5.25845	10.9166
5.25312	10.9796
5.24781	11.002
5.2425	10.9628
5.23721	10.9827
5.23192	10.9339
5.22665	10.9267
5.22138	11.0055
5.21613	11.0226
5.21089	10.9468
5.20566	10.9132
5.20044	10.9572
5.19522	10.9828
5.19002	10.9617
5.18483	10.9332
5.17965	10.9097
5.17448	10.9395
5.16933	10.9325
5.16418	10.862
5.15904	10.8927
5.15391	10.8712
5.14879	10.9177
5.14368	10.9327
5.13859	10.8805
5.1335	10.9436
5.12842	10.9608
5.12335	10.9616
5.1183	10.9976
5.11325	10.9642
5.10821	10.9537
5.10318	10.964
5.09817	10.931
5.09316	10.9159
5.08816	10.9216
5.08317	10.9856
5.07819	11.0319
5.07322	10.9945
5.06826	10.9151
5.06331	10.864
5.05837	10.898
5.05344	10.9155
5.04852	10.9087
5.04361	10.9092
5.03871	10.969
5.03382	10.9825
5.02894	10.9892
5.02406	10.9947
5.0192	10.9639
5.01435	10.9512
5.0095	10.9823
5.00467	11.0186
4.99984	11.0545
4.99502	10.9891
4.99021	10.9096
4.98542	10.932
4.98063	10.968
4.97585	10.9863
4.97108	10.9721
4.96632	10.9575
4.96156	11.0087
4.95682	11.0622
4.95209	10.9951
4.94736	10.9317
4.94264	10.9726
4.93794	10.9613
4.93324	10.9173
4.92855	10.9554
4.92387	10.964
4.9192	10.9241
4.91453	10.9623
4.90988	11.0145
4.90524	11.0258
4.9006	10.9927
4.89597	11.0164
4.89135	10.9868
4.88674	10.9637
4.88214	11.0218
4.87755	11.0441
4.87296	11.0141
4.86839	10.9573
4.86382	10.9939
4.85926	11.017
4.85471	11.0177
4.85017	10.9917
4.84564	10.9945
4.84111	11.0431
4.8366	11.0756
4.83209	11.0413
4.82759	11.0297
4.8231	11.0543
4.81862	11.0152
4.81415	10.9456
4.80968	10.9249
4.80522	10.9791
4.80077	11.0077
4.79633	10.9842
4.7919	11.0006
4.78747	11.0018
4.78306	10.9907
4.77865	10.9895
4.77425	10.958
4.76986	11.0242
4.76547	11.0052
4.7611	11.061
4.75673	11.0843
4.75237	11.0186
4.74802	10.9812
4.74367	11.0454
4.73934	11.0687
4.73501	11.0084
4.73069	10.9998
4.72638	11.0057
4.72207	11.0216
4.71777	11.058
4.71348	11.0329
4.7092	11.0394
4.70493	11.0695
4.70066	11.0126
4.69641	11.0668
4.69216	11.0718
4.68791	10.957
4.68368	11.0001
4.67945	11.0723
4.67523	11.0468
4.67102	10.9695
4.66682	10.9366
4.66262	10.9591
4.65843	10.9951
4.65425	11.0036
4.65007	10.9986
4.64591	10.9962
4.64175	11.0086
4.6376	11.0316
4.63345	11.0338
4.62932	11.0472
4.62519	11.0619
4.62106	11.0858
4.61695	11.0968
4.61284	11.0659
4.60874	11.0277
4.60465	11.0051
4.60056	11.0182
4.59648	11.0302
4.59241	10.9783
4.58835	10.9778
4.58429	11.0546
4.58024	11.0756
4.5762	11.0842
4.57216	11.0828
4.56814	11.0129
4.56411	10.9229
4.5601	10.9648
4.55609	11.0303
4.55209	11.0359
4.5481	11.027
4.54411	11.0123
4.54013	10.9754
4.53616	10.9217
4.5322	10.9579
4.52824	11.0514
4.52429	11.0826
4.52034	11.0029
4.51641	10.9965
4.51247	11.0852
4.50855	11.0393
4.50463	10.9603
4.50072	11.0229
4.49682	11.0678
4.49292	10.9895
4.48903	10.9577
4.48515	10.9931
4.48127	11.0415
4.4774	11.0915
4.47354	11.0944
4.46968	11.092
4.46584	11.0847
4.46199	11.0276
4.45815	10.9514
4.45432	10.9664
4.4505	10.9955
4.44668	10.9613
4.44287	10.988
4.43907	11.0601
4.43527	11.0563
4.43148	11.1037
4.4277	11.0867
4.42392	10.9845
4.42015	11.0062
4.41638	11.0573
4.41262	11.0226
4.40887	11.032
4.40513	11.0619
4.40139	11.0469
4.39765	11.0677
4.39393	10.9799
4.39021	11.022
4.38649	11.056
4.38278	10.9725
4.37908	10.8977
4.37539	10.9669
4.3717	11.093
4.36801	11.0979
4.36434	10.9857
4.36067	10.9535
4.357	10.9746
4.35335	10.9846
4.34969	11.0181
4.34605	11.0481
4.34241	11.0574
4.33877	11.0668
4.33514	11.0084
4.33152	11.0234
4.32791	11.0993
4.3243	11.0851
4.32069	10.9523
4.3171	10.9506
4.31351	11.0489
4.30992	11.0704
4.30634	11.0454
4.30277	11.0427
4.2992	10.9881
4.29564	10.9638
4.29208	10.9743
4.28853	11
4.28499	10.9832
4.28145	10.9113
4.27792	10.9324
4.27439	10.9925
4.27087	10.9647
4.26735	10.9524
4.26384	11.0234
4.26034	11.0572
4.25684	11.0699
4.25335	11.0583
4.24986	11.04
4.24638	11.005
4.24291	10.9872
4.23944	10.9856
4.23598	10.9683
4.23252	10.9921
4.22906	11.0096
4.22562	11.0561
4.22218	11.1073
4.21874	11.0353
4.21531	10.9379
4.21189	10.968
4.20847	11.0207
4.20506	11.0563
4.20165	11.0796
4.19825	11.0273
4.19485	11.0111
4.19146	11.0265
4.18807	10.9729
4.18469	11.0023
4.18132	11.0437
4.17795	11.0157
4.17458	11.0271
4.17123	11.0905
4.16787	11.041
4.16453	11.0086
4.16118	11.0727
4.15785	11.1038
4.15451	11.1027
4.15119	11.0643
4.14787	10.9861
4.14455	10.954
4.14124	11.0601
4.13794	11.1166
4.13464	11.1259
4.13134	11.0946
4.12805	10.9978
4.12477	10.9401
4.12149	10.968
4.11822	11.01
4.11495	11.0323
4.11168	11.078
4.10843	11.1001
4.10517	11.085
4.10192	11.1032
4.09868	11.0352
4.09545	11.0497
4.09221	11.0478
4.08899	11.0241
4.08576	11.0098
4.08255	11.063
4.07933	11.1319
4.07613	11.0604
4.07292	11.0106
4.06973	11.0517
4.06654	11.0968
4.06335	11.1036
4.06017	11.118
4.05699	11.0304
4.05382	11.0132
4.05065	11.0844
4.04749	11.1093
4.04433	11.141
4.04118	11.1167
4.03803	11.0901
4.03489	11.1067
4.03175	11.0753
4.02862	11.0904
4.02549	11.0573
4.02237	11.0426
4.01925	11.0414
4.01614	10.9999
4.01303	10.9453
4.00993	10.9813
4.00683	10.9838
4.00373	10.973
4.00064	11.0681
3.99756	11.0999
3.99448	11.049
3.9914	10.9792
3.98833	10.9684
3.98527	11.0091
3.98221	11.0416
3.97915	10.9799
3.9761	11.0156
3.97305	11.1429
3.97001	11.1408
3.96697	11.0479
3.96394	11.0399
3.96091	11.0195
3.95789	10.9618
3.95487	10.9281
3.95186	11.0134
3.94885	11.0949
3.94584	11.0242
3.94284	10.9568
3.93984	11.0063
3.93685	11.0745
3.93386	11.0639
3.93088	10.9799
3.9279	10.955
3.92493	11.0581
3.92196	11.0811
3.919	11.0258
3.91604	10.9412
3.91308	10.9623
3.91013	10.9767
3.90718	11.0057
3.90424	11.0275
3.9013	11.0491
3.89837	11.1105
3.89544	11.1485
3.89252	11.1294
3.8896	11.1062
3.88668	11.1836
3.88377	11.1749
3.88086	11.0716
3.87796	11.1273
3.87506	11.2342
3.87217	11.2062
3.86928	11.1535
3.86639	11.1844
3.86351	11.2526
3.86064	11.149
3.85776	11.038
3.8549	11.0604
3.85203	11.0375
3.84917	11.0679
3.84631	11.0547
3.84346	11.0661
3.84062	11.1257
3.83777	11.1886
3.83494	11.1827
3.8321	11.0789
3.82927	10.9994
3.82644	11.06
3.82362	11.0763
3.82081	10.9513
3.81799	10.9268
3.81518	11.0162
3.81238	11.1103
3.80958	11.036
3.80678	11.0195
3.80399	11.057
3.8012	11.0899
3.79841	11.1776
3.79563	11.1889
3.79286	11.1158
3.79008	11.0586
3.78731	11.0676
3.78455	11.115
3.78179	11.1738
3.77903	11.1188
3.77628	11.0232
3.77353	10.9986
3.77079	11.0701
3.76805	11.1113
3.76531	11.0196
3.76258	10.9758
3.75985	11.045
3.75713	11.0818
3.7544	11.0823
3.75169	11.0829
3.74898	11.1383
3.74627	11.1488
3.74356	11.1314
3.74086	11.1447
3.73816	11.1438
3.73547	11.1102
3.73278	11.0491
3.7301	11.0294
3.72741	10.9786
3.72474	11.0546
3.72206	11.1008
3.71939	11.0907
3.71673	11.0968
3.71406	11.084
3.71141	11.171
3.70875	11.1874
3.7061	11.0997
3.70345	11.0768
3.70081	11.1698
3.69817	11.1825
3.69553	11.0988
3.6929	11.0937
3.69027	11.1053
3.68765	11.0912
3.68503	11.0588
3.68241	11.0861
3.6798	11.1393
3.67719	11.0926
3.67458	11.059
3.67198	11.0206
3.66938	11.0614
3.66678	11.1501
3.66419	11.2452
3.66161	11.2237
3.65902	11.1557
3.65644	11.1197
3.65387	11.1247
3.65129	11.1901
3.64872	11.2132
3.64616	11.179
3.64359	11.1366
3.64103	11.0972
3.63848	11.0549
3.63593	11.0596
3.63338	11.0784
3.63084	11.1126
3.6283	11.2021
3.62576	11.2555
3.62322	11.2377
3.62069	11.2419
3.61817	11.2021
3.61564	11.1563
3.61312	11.1151
3.61061	11.0426
3.6081	11.0196
3.60559	11.0609
3.60308	11.0395
3.60058	11.0517
3.59808	11.1373
3.59558	11.1707
3.59309	11.1885
3.59061	11.2337
3.58812	11.1749
3.58564	11.0921
3.58316	11.035
3.58069	11.1659
3.57822	11.1713
3.57575	11.0846
3.57328	11.1314
3.57082	11.217
3.56836	11.1775
3.56591	11.1111
3.56346	11.0256
3.56101	11.0354
3.55857	11.0855
3.55613	11.0861
3.55369	11.1145
3.55126	11.0895
3.54883	11.0928
3.5464	11.1068
3.54397	11.0549
3.54155	11.0206
3.53914	11.0431
3.53672	11.1176
3.53431	11.1945
3.5319	11.2175
3.5295	11.2168
3.5271	11.2443
3.5247	11.1191
3.52231	11.0168
3.51991	11.0072
3.51753	11.0394
3.51514	11.0556
3.51276	11.1083
3.51038	11.2203
3.50801	11.2796
3.50563	11.1775
3.50327	11.1437
3.5009	11.1915
3.49854	11.2512
3.49618	11.2329
3.49382	11.1642
3.49147	11.0426
3.48912	10.9351
3.48677	11.0381
3.48443	11.1447
3.48209	11.1551
3.47975	11.1851
3.47742	11.2277
3.47509	11.2903
3.47276	11.2041
3.47044	11.1189
3.46812	11.1065
3.4658	11.2007
3.46348	11.1827
