Name: Brass plate
Type: Manmade materials
Class: Reflectance target
Subclass: 
Particle Size: Solid
Sample No.: SN: ILF-17464-2-2
Owner: JPL
Wavelength range: IR
Origin: Labsphere, P.O. Box 70, Shaker Street, North Sutton, NH 03260
(603) 927-4266
Description: Measurement made at top right. Field Brass 1.
Measured Oct. 29 1997.




Measurement: Hemispherical Reflectance
First Column: X
Second Column: Y
X Units: Wavelength (micrometers)
Y Units: Reflectence (percent)
First X Value: 15.3853
Last X Value: 2.00032
Number of X Values: 2256
Additional information: None.
 
15.3853	86.2272
15.3397	86.3788
15.2945	86.5668
15.2495	86.5794
15.2048	86.5491
15.1603	86.4768
15.1161	86.4166
15.0722	86.3733
15.0285	86.2503
14.9851	86.2054
14.9419	86.4633
14.8989	86.5158
14.8563	86.542
14.8138	86.5954
14.7716	86.5224
14.7296	86.5042
14.6879	86.483
14.6464	86.3321
14.6052	86.249
14.5641	86.4862
14.5233	86.5304
14.4828	86.3076
14.4424	86.1873
14.4023	86.3924
14.3624	86.4947
14.3227	86.3863
14.2833	86.4027
14.244	86.4525
14.205	86.3981
14.1662	86.3975
14.1276	86.2752
14.0892	86.0862
14.051	85.9591
14.0131	86.0575
13.9753	86.2018
13.9377	86.2818
13.9004	86.3339
13.8632	86.4933
13.8262	86.4697
13.7895	86.3112
13.7529	86.2616
13.7165	86.3609
13.6803	86.4624
13.6443	86.4204
13.6085	86.3278
13.5729	86.3289
13.5374	86.3256
13.5022	86.3682
13.4671	86.4967
13.4322	86.424
13.3975	86.3476
13.363	86.4909
13.3286	86.4944
13.2944	86.4715
13.2604	86.3905
13.2266	86.3339
13.193	86.3761
13.1595	86.3732
13.1262	86.3236
13.093	86.3222
13.06	86.3742
13.0272	86.3533
12.9946	86.2208
12.9621	86.1056
12.9298	86.044
12.8976	86.0572
12.8656	86.0572
12.8337	86.0116
12.8021	85.9809
12.7705	85.9907
12.7391	86.1019
12.7079	85.9952
12.6769	85.95
12.6459	85.9917
12.6152	85.9211
12.5845	85.8849
12.5541	85.9811
12.5238	85.9348
12.4936	85.9042
12.4635	85.9639
12.4337	86.1015
12.4039	86.1965
12.3743	86.2789
12.3448	86.2639
12.3155	86.168
12.2863	86.1734
12.2573	86.3363
12.2284	86.35
12.1996	86.3337
12.171	86.3383
12.1425	86.2872
12.1141	86.305
12.0859	86.3469
12.0578	86.3768
12.0298	86.4294
12.0019	86.5086
11.9742	86.5145
11.9466	86.42
11.9192	86.3424
11.8918	86.3118
11.8646	86.3467
11.8375	86.3319
11.8106	86.2755
11.7837	86.3309
11.757	86.4519
11.7304	86.3962
11.7039	86.3748
11.6776	86.3532
11.6513	86.3223
11.6252	86.2856
11.5992	86.245
11.5733	86.0895
11.5475	85.9996
11.5219	85.8886
11.4963	85.5908
11.4709	85.4036
11.4455	85.3584
11.4203	85.3783
11.3952	85.4641
11.3702	85.5631
11.3454	85.774
11.3206	85.9089
11.2959	85.9166
11.2714	86.0006
11.2469	86.0862
11.2226	86.1135
11.1983	86.0481
11.1742	85.8851
11.1502	85.8517
11.1263	85.8001
11.1024	85.6645
11.0787	85.6719
11.0551	85.7261
11.0316	85.6155
11.0081	85.5484
10.9848	85.5147
10.9616	85.4191
10.9385	85.4324
10.9154	85.4728
10.8925	85.3995
10.8697	85.415
10.8469	85.4186
10.8243	85.433
10.8017	85.418
10.7793	85.3307
10.7569	85.3059
10.7346	85.3152
10.7125	85.2964
10.6904	85.3225
10.6684	85.29
10.6465	85.2405
10.6247	85.2261
10.6029	85.1713
10.5813	85.1106
10.5597	85.0538
10.5383	84.9856
10.5169	84.9583
10.4956	85.013
10.4744	84.8965
10.4533	84.7981
10.4323	84.8019
10.4113	84.7053
10.3904	84.6283
10.3697	84.6584
10.349	84.638
10.3284	84.5228
10.3078	84.4992
10.2874	84.4793
10.267	84.4591
10.2467	84.4235
10.2265	84.3343
10.2064	84.2926
10.1863	84.2439
10.1663	84.1782
10.1464	84.1385
10.1266	84.0819
10.1069	84.0207
10.0872	83.9246
10.0676	83.8846
10.0481	83.9723
10.0287	83.9915
10.0093	83.8521
9.99005	83.831
9.97084	83.8006
9.95169	83.7312
9.93263	83.7663
9.91364	83.8005
9.89472	83.786
9.87587	83.7874
9.8571	83.7854
9.83839	83.674
9.81976	83.6182
9.80119	83.6644
9.78271	83.6552
9.76428	83.6741
9.74592	83.7528
9.72764	83.6943
9.70943	83.6977
9.69128	83.6459
9.6732	83.5971
9.65518	83.6021
9.63724	83.6251
9.61935	83.5982
9.60155	83.6548
9.5838	83.7527
9.56611	83.7507
9.5485	83.7303
9.53094	83.8108
9.51345	83.9475
9.49604	83.9207
9.47867	83.89
9.46137	83.9236
9.44414	83.9401
9.42697	83.9866
9.40986	84.1199
9.39281	84.1845
9.37583	84.0559
9.35891	84.0367
9.34204	84.0788
9.32524	84.2635
9.3085	84.3913
9.29182	84.3984
9.27519	84.3769
9.25863	84.3684
9.24213	84.3468
9.22568	84.3358
9.2093	84.3506
9.19297	84.4242
9.17669	84.563
9.16048	84.5977
9.14433	84.601
9.12823	84.5706
9.11218	84.5399
9.0962	84.6123
9.08027	84.6369
9.06439	84.7002
9.04858	84.7766
9.03281	84.7525
9.0171	84.7813
9.00145	84.8716
8.98585	84.8868
8.9703	84.9145
8.9548	84.8919
8.93937	84.8798
8.92398	84.9373
8.90865	84.9847
8.89337	84.9884
8.87814	84.9508
8.86296	84.9482
8.84784	84.993
8.83277	84.9455
8.81774	84.8308
8.80277	84.8241
8.78786	84.9712
8.77298	85.0563
8.75816	85.1542
8.7434	85.0909
8.72868	84.9648
8.714	84.9648
8.69938	84.9702
8.68481	85.0198
8.67029	85.0536
8.65581	85.1343
8.64139	85.0996
8.62701	85.1567
8.61268	85.2204
8.5984	85.2168
8.58416	85.2615
8.56997	85.2971
8.55583	85.44
8.54174	85.5321
8.52769	85.4595
8.51368	85.4334
8.49973	85.4553
8.48582	85.5703
8.47195	85.5901
8.45813	85.5364
8.44436	85.6248
8.43062	85.7418
8.41693	85.8218
8.4033	85.8091
8.3897	85.8356
8.37614	85.9338
8.36264	85.9094
8.34917	85.8788
8.33574	85.8962
8.32236	85.9747
8.30903	86.0675
8.29573	86.1159
8.28248	86.1085
8.26927	86.1238
8.2561	86.142
8.24298	86.163
8.2299	86.2203
8.21685	86.2618
8.20385	86.3402
8.19089	86.3709
8.17797	86.3966
8.16509	86.3675
8.15225	86.4196
8.13946	86.499
8.1267	86.5579
8.11398	86.5694
8.10131	86.5634
8.08867	86.6129
8.07606	86.6967
8.0635	86.6883
8.05099	86.5717
8.0385	86.5079
8.02606	86.6133
8.01366	86.7476
8.00129	86.713
7.98896	86.6944
7.97667	86.7945
7.96442	86.9522
7.9522	87.0454
7.94002	87.0297
7.92788	86.9488
7.91578	87.015
7.90371	87.1315
7.89168	87.1786
7.87969	87.2835
7.86773	87.3474
7.85581	87.3484
7.84392	87.371
7.83207	87.3905
7.82026	87.4436
7.80849	87.4737
7.79674	87.5252
7.78503	87.5622
7.77337	87.5781
7.76173	87.61
7.75012	87.6505
7.73856	87.6607
7.72703	87.6364
7.71553	87.6298
7.70406	87.6626
7.69263	87.7193
7.68123	87.7374
7.66987	87.7135
7.65855	87.7116
7.64725	87.6794
7.63598	87.7001
7.62475	87.7197
7.61356	87.712
7.60239	87.7303
7.59126	87.8497
7.58017	87.8284
7.5691	87.7345
7.55806	87.6779
7.54707	87.6962
7.5361	87.7525
7.52516	87.7205
7.51425	87.7093
7.50338	87.7328
7.49253	87.7003
7.48172	87.7099
7.47094	87.7409
7.46019	87.7393
7.44947	87.6564
7.43879	87.5833
7.42813	87.5618
7.4175	87.5571
7.4069	87.5298
7.39634	87.4652
7.3858	87.4292
7.37529	87.4245
7.36482	87.3892
7.35437	87.3176
7.34396	87.3216
7.33357	87.3033
7.32321	87.204
7.31288	87.1492
7.30258	87.0238
7.29231	86.957
7.28207	87.0205
7.27185	86.9831
7.26167	86.9083
7.25152	86.8605
7.24139	86.7735
7.23129	86.7437
7.22122	86.7645
7.21117	86.8447
7.20116	86.8352
7.19117	86.8301
7.18121	86.9001
7.17128	86.9169
7.16137	86.8085
7.1515	86.8402
7.14164	86.8898
7.13182	86.7761
7.12203	86.7701
7.11225	86.8195
7.10251	86.7008
7.0928	86.6486
7.08311	86.7006
7.07344	86.7947
7.06381	86.8207
7.0542	86.931
7.04461	87.0393
7.03506	86.8626
7.02552	86.8379
7.01601	86.8704
7.00653	86.8218
6.99708	86.8162
6.98765	86.8128
6.97824	86.8016
6.96886	86.9066
6.95951	86.9954
6.95018	86.842
6.94087	86.8405
6.9316	86.8839
6.92234	86.9204
6.91311	86.8945
6.90391	86.9023
6.89473	86.846
6.88557	86.7956
6.87644	86.9005
6.86733	87.2285
6.85824	87.2565
6.84918	86.9067
6.84015	86.7509
6.83114	86.8807
6.82215	86.9415
6.81319	86.8539
6.80424	86.9128
6.79532	87.1091
6.78643	87.194
6.77756	87.068
6.76871	86.998
6.75989	86.9414
6.75109	86.9307
6.74231	86.9646
6.73355	86.9863
6.72482	87.1088
6.71611	87.2093
6.70742	87.1897
6.69875	87.0881
6.69011	87.2535
6.68149	87.4367
6.67289	87.3491
6.66431	87.2062
6.65576	87.1933
6.64722	87.52
6.63871	87.9313
6.63022	87.7752
6.62175	87.526
6.61331	87.5359
6.60488	87.5297
6.59648	87.6791
6.5881	87.8272
6.57974	87.9531
6.5714	88.0483
6.56308	87.9
6.55478	87.9222
6.54651	87.8582
6.53825	87.7307
6.53001	87.7531
6.5218	87.9779
6.51361	87.9401
6.50544	87.9858
6.49729	88.3849
6.48915	88.4295
6.48104	88.1993
6.47295	88.1269
6.46488	88.0143
6.45683	87.9505
6.4488	88.0283
6.44079	88.1257
6.4328	88.1916
6.42482	88.3027
6.41687	88.6872
6.40894	88.5702
6.40103	88.1201
6.39314	87.9549
6.38526	87.9119
6.37741	87.981
6.36957	88.081
6.36176	88.0334
6.35396	88.093
6.34618	88.3181
6.33843	88.1086
6.33069	87.8336
6.32297	87.8199
6.31527	87.8368
6.30758	87.8051
6.29992	87.7741
6.29227	87.7498
6.28465	87.6859
6.27704	87.6365
6.26945	87.6544
6.26188	87.7204
6.25432	87.743
6.24679	87.7003
6.23927	87.6431
6.23177	87.6519
6.22429	87.7346
6.21683	87.7759
6.20938	87.698
6.20195	87.6506
6.19454	87.7814
6.18715	88.0216
6.17978	87.8548
6.17242	87.5934
6.16508	87.6276
6.15776	87.6221
6.15045	87.5229
6.14317	87.582
6.1359	87.5938
6.12864	87.6934
6.12141	87.9771
6.11419	88.246
6.10699	88.1006
6.0998	87.8805
6.09263	87.8326
6.08549	87.8656
6.07835	88.0731
6.07123	88.2319
6.06413	88.0836
6.05705	88.2647
6.04998	88.7773
6.04293	88.5083
6.0359	88.118
6.02888	88.0151
6.02187	88.0587
6.01489	88.2209
6.00792	88.2107
6.00096	88.1691
5.99403	88.3761
5.98711	88.4293
5.9802	88.3026
5.97331	88.363
5.96644	88.2801
5.95958	88.0896
5.95274	88.1438
5.94591	88.2863
5.9391	88.612
5.9323	88.5326
5.92552	88.2234
5.91876	88.1938
5.91201	88.2127
5.90528	88.3016
5.89856	88.6439
5.89186	88.6301
5.88517	88.6825
5.8785	88.701
5.87184	88.4091
5.8652	88.4123
5.85857	88.3443
5.85196	88.2625
5.84536	88.2729
5.83878	88.3177
5.83221	88.4283
5.82566	88.5524
5.81912	88.4949
5.81259	88.3559
5.80608	88.3722
5.79959	88.415
5.79311	88.3762
5.78665	88.3712
5.78019	88.4106
5.77376	88.5352
5.76734	88.7971
5.76093	88.686
5.75453	88.495
5.74815	88.5366
5.74179	88.5305
5.73543	88.516
5.7291	88.4745
5.72277	88.4939
5.71646	88.6031
5.71017	88.6603
5.70389	88.5132
5.69762	88.4605
5.69136	88.5433
5.68513	88.5156
5.6789	88.5156
5.67268	88.5036
5.66648	88.4932
5.6603	88.6094
5.65413	88.624
5.64797	88.6075
5.64182	88.6869
5.63569	88.5927
5.62957	88.4882
5.62347	88.4609
5.61737	88.498
5.61129	88.4482
5.60522	88.4115
5.59917	88.3504
5.59313	88.2755
5.5871	88.2798
5.58109	88.3282
5.57509	88.236
5.5691	88.0937
5.56312	88.0952
5.55716	88.1705
5.55121	88.2118
5.54528	88.2046
5.53935	88.2787
5.53344	88.3908
5.52754	88.4456
5.52166	88.4384
5.51578	88.4153
5.50992	88.3774
5.50407	88.3893
5.49823	88.4233
5.49241	88.4907
5.4866	88.519
5.4808	88.5263
5.47501	88.4983
5.46923	88.5135
5.46347	88.5925
5.45772	88.5923
5.45198	88.5802
5.44625	88.5359
5.44054	88.5481
5.43484	88.5467
5.42914	88.5585
5.42347	88.6894
5.4178	88.6608
5.41214	88.5244
5.4065	88.4501
5.40087	88.4041
5.39525	88.4241
5.38964	88.4816
5.38404	88.5149
5.37846	88.5603
5.37288	88.5941
5.36732	88.5614
5.36177	88.5306
5.35623	88.5401
5.35071	88.5505
5.34519	88.526
5.33968	88.4918
5.33419	88.4723
5.32871	88.4466
5.32324	88.4726
5.31778	88.5353
5.31233	88.5455
5.30689	88.5443
5.30147	88.5285
5.29605	88.5099
5.29065	88.5158
5.28525	88.4828
5.27987	88.5349
5.2745	88.5637
5.26914	88.5164
5.26379	88.5627
5.25845	88.6112
5.25312	88.6012
5.24781	88.5892
5.2425	88.5651
5.23721	88.5675
5.23192	88.5792
5.22665	88.6093
5.22138	88.6261
5.21613	88.6295
5.21089	88.6616
5.20566	88.6998
5.20044	88.6996
5.19522	88.6319
5.19002	88.5589
5.18483	88.5719
5.17965	88.5768
5.17448	88.5848
5.16933	88.6131
5.16418	88.6469
5.15904	88.6311
5.15391	88.6155
5.14879	88.606
5.14368	88.5968
5.13859	88.5991
5.1335	88.6019
5.12842	88.6513
5.12335	88.7021
5.1183	88.6948
5.11325	88.6591
5.10821	88.6467
5.10318	88.6447
5.09817	88.6054
5.09316	88.6229
5.08816	88.6535
5.08317	88.6404
5.07819	88.6191
5.07322	88.6273
5.06826	88.6241
5.06331	88.6278
5.05837	88.6267
5.05344	88.6589
5.04852	88.6418
5.04361	88.5774
5.03871	88.6007
5.03382	88.6436
5.02894	88.6382
5.02406	88.6002
5.0192	88.6245
5.01435	88.6505
5.0095	88.6768
5.00467	88.6872
4.99984	88.6952
4.99502	88.6773
4.99021	88.6069
4.98542	88.6077
4.98063	88.6819
4.97585	88.6802
4.97108	88.6572
4.96632	88.6151
4.96156	88.6308
4.95682	88.6748
4.95209	88.72
4.94736	88.7179
4.94264	88.7045
4.93794	88.6856
4.93324	88.7002
4.92855	88.7266
4.92387	88.6716
4.9192	88.6383
4.91453	88.6405
4.90988	88.6522
4.90524	88.6472
4.9006	88.6772
4.89597	88.7144
4.89135	88.7211
4.88674	88.6917
4.88214	88.713
4.87755	88.7793
4.87296	88.8011
4.86839	88.743
4.86382	88.7236
4.85926	88.73
4.85471	88.6755
4.85017	88.6666
4.84564	88.7132
4.84111	88.7313
4.8366	88.7666
4.83209	88.7676
4.82759	88.773
4.8231	88.7414
4.81862	88.7634
4.81415	88.8223
4.80968	88.8221
4.80522	88.7503
4.80077	88.7177
4.79633	88.7448
4.7919	88.7672
4.78747	88.7599
4.78306	88.7604
4.77865	88.7379
4.77425	88.686
4.76986	88.7165
4.76547	88.7183
4.7611	88.6831
4.75673	88.6619
4.75237	88.6973
4.74802	88.7705
4.74367	88.7692
4.73934	88.7255
4.73501	88.6834
4.73069	88.7034
4.72638	88.6838
4.72207	88.6221
4.71777	88.6646
4.71348	88.7178
4.7092	88.7102
4.70493	88.7325
4.70066	88.7321
4.69641	88.7143
4.69216	88.6866
4.68791	88.682
4.68368	88.6831
4.67945	88.7239
4.67523	88.7298
4.67102	88.7396
4.66682	88.7451
4.66262	88.7207
4.65843	88.6475
4.65425	88.6219
4.65007	88.6656
4.64591	88.7327
4.64175	88.7797
4.6376	88.746
4.63345	88.6762
4.62932	88.6578
4.62519	88.6662
4.62106	88.715
4.61695	88.6861
4.61284	88.723
4.60874	88.7443
4.60465	88.6771
4.60056	88.6579
4.59648	88.6878
4.59241	88.6896
4.58835	88.6657
4.58429	88.6733
4.58024	88.71
4.5762	88.7291
4.57216	88.7769
4.56814	88.7088
4.56411	88.6428
4.5601	88.6762
4.55609	88.7213
4.55209	88.7305
4.5481	88.759
4.54411	88.7903
4.54013	88.837
4.53616	88.8237
4.5322	88.7471
4.52824	88.6957
4.52429	88.7132
4.52034	88.7203
4.51641	88.6967
4.51247	88.7208
4.50855	88.7549
4.50463	88.7219
4.50072	88.6908
4.49682	88.7001
4.49292	88.7006
4.48903	88.7178
4.48515	88.7522
4.48127	88.7865
4.4774	88.78
4.47354	88.715
4.46968	88.661
4.46584	88.6812
4.46199	88.7078
4.45815	88.7116
4.45432	88.6834
4.4505	88.7149
4.44668	88.7431
4.44287	88.7795
4.43907	88.7863
4.43527	88.7743
4.43148	88.7441
4.4277	88.6676
4.42392	88.6766
4.42015	88.7333
4.41638	88.7461
4.41262	88.7662
4.40887	88.7584
4.40513	88.6953
4.40139	88.6802
4.39765	88.7088
4.39393	88.7252
4.39021	88.7367
4.38649	88.7679
4.38278	88.7431
4.37908	88.6779
4.37539	88.6869
4.3717	88.6968
4.36801	88.703
4.36434	88.7597
4.36067	88.7448
4.357	88.6726
4.35335	88.6254
4.34969	88.6174
4.34605	88.6107
4.34241	88.6632
4.33877	88.6694
4.33514	88.6181
4.33152	88.5814
4.32791	88.5758
4.3243	88.5677
4.32069	88.6044
4.3171	88.5731
4.31351	88.4675
4.30992	88.3665
4.30634	88.3002
4.30277	88.2365
4.2992	88.2143
4.29564	88.2036
4.29208	88.1609
4.28853	88.1243
4.28499	88.1248
4.28145	88.0632
4.27792	88.0077
4.27439	88.0075
4.27087	88.0634
4.26735	88.1414
4.26384	88.2684
4.26034	88.4424
4.25684	88.5545
4.25335	88.4228
4.24986	88.2283
4.24638	88.0757
4.24291	87.9608
4.23944	87.8908
4.23598	87.802
4.23252	87.7893
4.22906	87.7835
4.22562	87.8741
4.22218	88.0417
4.21874	88.112
4.21531	88.1862
4.21189	88.3806
4.20847	88.5114
4.20506	88.5965
4.20165	88.6247
4.19825	88.5954
4.19485	88.6289
4.19146	88.6772
4.18807	88.7057
4.18469	88.7142
4.18132	88.6444
4.17795	88.5854
4.17458	88.6037
4.17123	88.6062
4.16787	88.689
4.16453	88.724
4.16118	88.6953
4.15785	88.638
4.15451	88.6233
4.15119	88.6
4.14787	88.5783
4.14455	88.6122
4.14124	88.5763
4.13794	88.5666
4.13464	88.6249
4.13134	88.6391
4.12805	88.6373
4.12477	88.6683
4.12149	88.6861
4.11822	88.6762
4.11495	88.6656
4.11168	88.6528
4.10843	88.6803
4.10517	88.6334
4.10192	88.6187
4.09868	88.6384
4.09545	88.5459
4.09221	88.4911
4.08899	88.5263
4.08576	88.5713
4.08255	88.6229
4.07933	88.6251
4.07613	88.6289
4.07292	88.6089
4.06973	88.5998
4.06654	88.6374
4.06335	88.6359
4.06017	88.5966
4.05699	88.5511
4.05382	88.5244
4.05065	88.5321
4.04749	88.5413
4.04433	88.5436
4.04118	88.5845
4.03803	88.6575
4.03489	88.6064
4.03175	88.4921
4.02862	88.4744
4.02549	88.4979
4.02237	88.5397
4.01925	88.5379
4.01614	88.4738
4.01303	88.3804
4.00993	88.3805
4.00683	88.3776
4.00373	88.366
4.00064	88.3497
3.99756	88.2945
3.99448	88.2812
3.9914	88.2654
3.98833	88.2478
3.98527	88.2038
3.98221	88.2006
3.97915	88.2476
3.9761	88.2507
3.97305	88.1694
3.97001	88.1028
3.96697	88.1506
3.96394	88.182
3.96091	88.1968
3.95789	88.2073
3.95487	88.2351
3.95186	88.221
3.94885	88.1775
3.94584	88.1948
3.94284	88.3
3.93984	88.3939
3.93685	88.4204
3.93386	88.3542
3.93088	88.2683
3.9279	88.2555
3.92493	88.3301
3.92196	88.364
3.919	88.352
3.91604	88.3926
3.91308	88.4553
3.91013	88.408
3.90718	88.3517
3.90424	88.3998
3.9013	88.4326
3.89837	88.4631
3.89544	88.4351
3.89252	88.4197
3.8896	88.4521
3.88668	88.4079
3.88377	88.3377
3.88086	88.3242
3.87796	88.394
3.87506	88.435
3.87217	88.4665
3.86928	88.3545
3.86639	88.2889
3.86351	88.3238
3.86064	88.337
3.85776	88.312
3.8549	88.297
3.85203	88.3363
3.84917	88.3821
3.84631	88.4204
3.84346	88.4877
3.84062	88.4816
3.83777	88.4214
3.83494	88.4143
3.8321	88.4303
3.82927	88.4507
3.82644	88.4416
3.82362	88.4061
3.82081	88.3919
3.81799	88.4655
3.81518	88.4539
3.81238	88.4301
3.80958	88.4531
3.80678	88.455
3.80399	88.4448
3.8012	88.4562
3.79841	88.4702
3.79563	88.4165
3.79286	88.4009
3.79008	88.4677
3.78731	88.422
3.78455	88.4458
3.78179	88.5068
3.77903	88.5115
3.77628	88.4596
3.77353	88.4331
3.77079	88.4812
3.76805	88.5256
3.76531	88.4874
3.76258	88.4838
3.75985	88.5043
3.75713	88.4747
3.7544	88.4361
3.75169	88.4589
3.74898	88.4937
3.74627	88.4407
3.74356	88.3978
3.74086	88.4369
3.73816	88.4939
3.73547	88.5284
3.73278	88.5098
3.7301	88.4566
3.72741	88.4619
3.72474	88.5151
3.72206	88.5063
3.71939	88.5074
3.71673	88.4449
3.71406	88.3713
3.71141	88.4253
3.70875	88.4786
3.7061	88.5049
3.70345	88.4932
3.70081	88.4711
3.69817	88.5049
3.69553	88.5444
3.6929	88.5057
3.69027	88.4609
3.68765	88.4575
3.68503	88.4989
3.68241	88.4895
3.6798	88.4722
3.67719	88.4671
3.67458	88.466
3.67198	88.4172
3.66938	88.3875
3.66678	88.3782
3.66419	88.3446
3.66161	88.3842
3.65902	88.4218
3.65644	88.409
3.65387	88.4387
3.65129	88.4244
3.64872	88.4037
3.64616	88.4115
3.64359	88.508
3.64103	88.4452
3.63848	88.4046
3.63593	88.416
3.63338	88.3746
3.63084	88.3709
3.6283	88.4921
3.62576	88.5029
3.62322	88.3988
3.62069	88.3657
3.61817	88.3523
3.61564	88.2929
3.61312	88.3266
3.61061	88.3516
3.6081	88.33
3.60559	88.3377
3.60308	88.3447
3.60058	88.3755
3.59808	88.3623
3.59558	88.3633
3.59309	88.3944
3.59061	88.3626
3.58812	88.318
3.58564	88.3333
3.58316	88.3486
3.58069	88.2721
3.57822	88.2589
3.57575	88.2648
3.57328	88.2375
3.57082	88.3123
3.56836	88.3449
3.56591	88.3117
3.56346	88.2945
3.56101	88.3283
3.55857	88.3169
3.55613	88.2592
3.55369	88.3546
3.55126	88.3776
3.54883	88.3298
3.5464	88.3565
3.54397	88.3705
3.54155	88.2803
3.53914	88.2044
3.53672	88.1852
3.53431	88.1854
3.5319	88.2246
3.5295	88.2545
3.5271	88.2552
3.5247	88.2342
3.52231	88.2196
3.51991	88.19
3.51753	88.1539
3.51514	88.1498
3.51276	88.0729
3.51038	87.9712
3.50801	87.995
3.50563	87.9938
3.50327	87.9207
3.5009	87.9009
3.49854	87.9372
3.49618	88.0027
3.49382	87.9434
3.49147	87.864
3.48912	87.8642
3.48677	87.8439
3.48443	87.8741
3.48209	87.9752
3.47975	87.969
3.47742	87.9933
