Name: Hydroxyapophyllite KCa_4Si_8O_20(OH,F).8H_2O
Type: Mineral
Class: Silicates
Subclass: Phyllosilicates
Particle Size: 0-45um
Sample No.: PS-22A
Owner: JPL
Wavelength range: VNIR-SWIR
Origin: India, Maharashtra, Poona.
Collected by:  Burminco
Description: 





Measurement: Hemispherical reflectance
First Column: X
Second Column: Y
X Units: Wavelength (micrometers)
Y Units: Reflectance (percent)
First X Value: 2.500
Last X Value: 0.400
Number of X Values: 2101
Additional information: ps22aa.txt

2.500  38.903033
2.499  38.987251
2.498  38.736062
2.497  38.935417
2.496  38.351480
2.495  38.519696
2.494  38.350609
2.493  38.452509
2.492  38.297621
2.491  37.887109
2.490  37.511237
2.489  37.558978
2.488  37.257946
2.487  37.098950
2.486  36.735330
2.485  36.701035
2.484  36.139237
2.483  36.039884
2.482  35.661909
2.481  35.492079
2.480  35.213242
2.479  34.988580
2.478  34.676441
2.477  34.575957
2.476  34.230519
2.475  34.064460
2.474  33.862720
2.473  33.747509
2.472  33.489317
2.471  33.325433
2.470  33.171930
2.469  33.038888
2.468  32.762361
2.467  32.806175
2.466  32.666609
2.465  32.703773
2.464  32.558611
2.463  32.765163
2.462  32.556520
2.461  32.588844
2.460  32.432433
2.459  32.566381
2.458  32.638982
2.457  32.744006
2.456  32.797456
2.455  32.905691
2.454  32.901167
2.453  33.089851
2.452  33.268540
2.451  33.420242
2.450  33.562552
2.449  33.868583
2.448  33.935876
2.447  34.227411
2.446  34.476758
2.445  34.740222
2.444  34.907734
2.443  35.233435
2.442  35.393762
2.441  35.679338
2.440  35.846012
2.439  36.195244
2.438  36.349803
2.437  36.573352
2.436  36.651116
2.435  36.835297
2.434  36.796707
2.433  36.926162
2.432  36.781727
2.431  36.812143
2.430  36.710855
2.429  36.722713
2.428  36.494653
2.427  36.312085
2.426  36.089556
2.425  35.831387
2.424  35.488900
2.423  35.220977
2.422  34.864164
2.421  34.621188
2.420  34.266665
2.419  33.891338
2.418  33.505055
2.417  33.340787
2.416  32.874086
2.415  32.523430
2.414  32.237829
2.413  32.041019
2.412  31.712216
2.411  31.561309
2.410  31.233467
2.409  31.178164
2.408  31.019133
2.407  30.863696
2.406  30.760272
2.405  30.685006
2.404  30.601220
2.403  30.572632
2.402  30.574148
2.401  30.578487
2.400  30.457789
2.399  30.536366
2.398  30.463075
2.397  30.506077
2.396  30.583715
2.395  30.660269
2.394  30.656493
2.393  30.736247
2.392  30.811424
2.391  31.016020
2.390  31.145339
2.389  31.310603
2.388  31.427369
2.387  31.580350
2.386  31.795723
2.385  32.106295
2.384  32.396604
2.383  32.699371
2.382  33.014225
2.381  33.365116
2.380  33.696933
2.379  34.176723
2.378  34.669094
2.377  35.164845
2.376  35.619862
2.375  36.199508
2.374  36.783774
2.373  37.416441
2.372  38.018743
2.371  38.695711
2.370  39.408105
2.369  40.063472
2.368  40.735657
2.367  41.526611
2.366  42.240457
2.365  42.969451
2.364  43.774883
2.363  44.594792
2.362  45.306209
2.361  45.997533
2.360  46.745518
2.359  47.423211
2.358  48.099468
2.357  48.771520
2.356  49.374470
2.355  49.999536
2.354  50.614935
2.353  51.131749
2.352  51.594553
2.351  52.126753
2.350  52.657611
2.349  53.092016
2.348  53.489272
2.347  53.837726
2.346  54.178552
2.345  54.537637
2.344  54.775451
2.343  55.012116
2.342  55.260964
2.341  55.470151
2.340  55.734409
2.339  55.914194
2.338  56.087512
2.337  56.237065
2.336  56.356942
2.335  56.453503
2.334  56.549828
2.333  56.647591
2.332  56.750386
2.331  56.829156
2.330  56.838837
2.329  56.885942
2.328  56.991701
2.327  57.020422
2.326  57.071942
2.325  57.069574
2.324  57.057840
2.323  57.061436
2.322  57.045903
2.321  56.997835
2.320  57.020970
2.319  56.993988
2.318  56.887879
2.317  56.798269
2.316  56.779795
2.315  56.705273
2.314  56.660488
2.313  56.606329
2.312  56.588976
2.311  56.612725
2.310  56.556480
2.309  56.452014
2.308  56.429573
2.307  56.491638
2.306  56.519400
2.305  56.476331
2.304  56.558885
2.303  56.621274
2.302  56.675711
2.301  56.703250
2.300  56.860348
2.299  56.886623
2.298  57.016436
2.297  57.112176
2.296  57.199691
2.295  57.316072
2.294  57.414512
2.293  57.559398
2.292  57.737620
2.291  57.771877
2.290  57.838979
2.289  57.951404
2.288  58.051947
2.287  58.079647
2.286  58.163696
2.285  58.274296
2.284  58.342357
2.283  58.391559
2.282  58.423246
2.281  58.433606
2.280  58.495470
2.279  58.529310
2.278  58.648607
2.277  58.639234
2.276  58.685631
2.275  58.766376
2.274  58.752405
2.273  58.790705
2.272  58.826899
2.271  58.819739
2.270  58.902329
2.269  58.947257
2.268  59.000045
2.267  58.912901
2.266  59.008285
2.265  59.024522
2.264  59.022362
2.263  59.025883
2.262  59.029896
2.261  59.020029
2.260  59.044874
2.259  59.029279
2.258  59.002804
2.257  58.994228
2.256  59.078648
2.255  59.053174
2.254  59.068691
2.253  58.890931
2.252  58.939992
2.251  59.035269
2.250  59.018323
2.249  58.973446
2.248  58.962954
2.247  58.912327
2.246  58.893055
2.245  58.824279
2.244  58.729997
2.243  58.764199
2.242  58.714336
2.241  58.710070
2.240  58.631645
2.239  58.634513
2.238  58.595294
2.237  58.582753
2.236  58.595255
2.235  58.509289
2.234  58.475916
2.233  58.463449
2.232  58.462865
2.231  58.333048
2.230  58.312287
2.229  58.230795
2.228  58.227140
2.227  58.172357
2.226  58.142078
2.225  58.038086
2.224  58.172410
2.223  57.946476
2.222  57.904657
2.221  57.818341
2.220  57.863338
2.219  57.746423
2.218  57.681807
2.217  57.663138
2.216  57.548690
2.215  57.416401
2.214  57.441605
2.213  57.361522
2.212  57.396433
2.211  57.171878
2.210  57.152391
2.209  57.006699
2.208  56.999333
2.207  56.876669
2.206  56.854864
2.205  56.712845
2.204  56.655627
2.203  56.607944
2.202  56.615147
2.201  56.550693
2.200  56.401006
2.199  56.304482
2.198  56.245131
2.197  56.128875
2.196  56.104262
2.195  56.027523
2.194  55.918314
2.193  55.755350
2.192  55.877596
2.191  55.692209
2.190  55.710127
2.189  55.617996
2.188  55.609318
2.187  55.555265
2.186  55.482071
2.185  55.512851
2.184  55.503692
2.183  55.432989
2.182  55.378338
2.181  55.375372
2.180  55.372350
2.179  55.308853
2.178  55.221946
2.177  55.212071
2.176  55.157159
2.175  54.994114
2.174  55.090618
2.173  54.963996
2.172  54.984215
2.171  54.887706
2.170  54.881401
2.169  54.749226
2.168  54.728126
2.167  54.624950
2.166  54.609321
2.165  54.515753
2.164  54.434268
2.163  54.388032
2.162  54.293474
2.161  54.219968
2.160  54.156459
2.159  54.064215
2.158  54.061271
2.157  53.915816
2.156  53.888727
2.155  53.742655
2.154  53.757126
2.153  53.626602
2.152  53.604431
2.151  53.517881
2.150  53.407596
2.149  53.337530
2.148  53.205026
2.147  53.139776
2.146  53.080310
2.145  52.904961
2.144  52.917692
2.143  52.803217
2.142  52.820093
2.141  52.777844
2.140  52.830419
2.139  52.774801
2.138  52.775616
2.137  52.787211
2.136  52.826233
2.135  52.843164
2.134  52.921821
2.133  52.975225
2.132  52.968722
2.131  52.960333
2.130  53.073893
2.129  53.061725
2.128  53.118836
2.127  53.185987
2.126  53.254533
2.125  53.258580
2.124  53.300624
2.123  53.320899
2.122  53.439261
2.121  53.521735
2.120  53.611454
2.119  53.687503
2.118  53.755096
2.117  53.799577
2.116  53.903473
2.115  53.976264
2.114  54.051267
2.113  54.191655
2.112  54.281549
2.111  54.273727
2.110  54.291766
2.109  54.364080
2.108  54.461822
2.107  54.561990
2.106  54.607850
2.105  54.647248
2.104  54.670395
2.103  54.739954
2.102  54.902135
2.101  54.972004
2.100  54.992479
2.099  55.013884
2.098  55.076471
2.097  55.079605
2.096  55.130283
2.095  55.223642
2.094  55.275722
2.093  55.318816
2.092  55.329606
2.091  55.304350
2.090  55.327458
2.089  55.308067
2.088  55.308851
2.087  55.255440
2.086  55.258302
2.085  55.264460
2.084  55.223661
2.083  55.200257
2.082  55.175685
2.081  55.128297
2.080  55.120154
2.079  55.093557
2.078  55.016073
2.077  54.964410
2.076  54.978307
2.075  54.900888
2.074  54.856251
2.073  54.837414
2.072  54.831946
2.071  54.838594
2.070  54.797896
2.069  54.799597
2.068  54.806514
2.067  54.779652
2.066  54.728181
2.065  54.705459
2.064  54.706994
2.063  54.731266
2.062  54.787097
2.061  54.792803
2.060  54.784690
2.059  54.810139
2.058  54.813022
2.057  54.865191
2.056  54.802034
2.055  54.812341
2.054  54.809806
2.053  54.849166
2.052  54.886787
2.051  54.875819
2.050  54.885237
2.049  54.896162
2.048  54.880027
2.047  54.908083
2.046  54.888710
2.045  54.902325
2.044  54.937392
2.043  54.965106
2.042  54.948517
2.041  54.941565
2.040  54.930542
2.039  54.942769
2.038  54.955957
2.037  54.993276
2.036  54.986113
2.035  54.950356
2.034  54.931688
2.033  54.945909
2.032  54.956556
2.031  54.924029
2.030  54.972917
2.029  54.964539
2.028  54.896161
2.027  54.938296
2.026  54.975267
2.025  54.895070
2.024  54.864113
2.023  54.842527
2.022  54.817023
2.021  54.774137
2.020  54.720658
2.019  54.756487
2.018  54.751341
2.017  54.735606
2.016  54.685307
2.015  54.686957
2.014  54.630218
2.013  54.613464
2.012  54.602288
2.011  54.599827
2.010  54.574315
2.009  54.560557
2.008  54.516802
2.007  54.518214
2.006  54.418660
2.005  54.464788
2.004  54.447778
2.003  54.422010
2.002  54.329054
2.001  54.372305
2.000  54.296827
1.999  54.333343
1.998  54.214057
1.997  54.258709
1.996  54.202711
1.995  54.246283
1.994  54.281723
1.993  54.197473
1.992  54.207250
1.991  54.215224
1.990  54.182025
1.989  54.283187
1.988  54.183887
1.987  54.232001
1.986  54.171952
1.985  54.245617
1.984  54.272289
1.983  54.366510
1.982  54.251791
1.981  54.361031
1.980  54.348167
1.979  54.358188
1.978  54.393510
1.977  54.411425
1.976  54.381660
1.975  54.417030
1.974  54.304905
1.973  54.505102
1.972  54.405037
1.971  54.478129
1.970  54.433986
1.969  54.520641
1.968  54.483753
1.967  54.503165
1.966  54.414995
1.965  54.436853
1.964  54.428903
1.963  54.431200
1.962  54.426526
1.961  54.408654
1.960  54.299876
1.959  54.395072
1.958  54.254048
1.957  54.314907
1.956  54.234214
1.955  54.167427
1.954  54.081676
1.953  54.030158
1.952  53.962802
1.951  53.922436
1.950  53.810346
1.949  53.802225
1.948  53.616779
1.947  53.464642
1.946  53.354702
1.945  53.279598
1.944  53.013530
1.943  52.783042
1.942  52.561720
1.941  52.373111
1.940  51.987863
1.939  51.745306
1.938  51.222229
1.937  50.929050
1.936  50.413190
1.935  49.999539
1.934  49.468659
1.933  48.921531
1.932  48.201327
1.931  47.527350
1.930  46.760433
1.929  45.969581
1.928  44.928421
1.927  43.949753
1.926  42.621585
1.925  41.558101
1.924  40.142050
1.923  38.761206
1.922  37.301781
1.921  35.952038
1.920  34.535079
1.919  33.232854
1.918  31.848050
1.917  30.802910
1.916  29.932471
1.915  29.405018
1.914  29.080249
1.913  29.170453
1.912  29.347616
1.911  29.933851
1.910  30.648165
1.909  31.795083
1.908  32.846342
1.907  34.275589
1.906  35.653354
1.905  37.253854
1.904  38.868898
1.903  40.543853
1.902  42.196234
1.901  43.897796
1.900  45.508477
1.899  47.018861
1.898  48.328894
1.897  49.725347
1.896  50.850554
1.895  51.935686
1.894  52.814618
1.893  53.801220
1.892  54.448016
1.891  55.171582
1.890  55.676783
1.889  56.286235
1.888  56.657774
1.887  57.177268
1.886  57.524249
1.885  57.896275
1.884  58.030903
1.883  58.357484
1.882  58.588631
1.881  58.885093
1.880  59.140329
1.879  59.271816
1.878  59.483083
1.877  59.616271
1.876  59.697070
1.875  59.888288
1.874  60.053223
1.873  60.185470
1.872  60.276054
1.871  60.500938
1.870  60.686303
1.869  60.820796
1.868  60.954761
1.867  61.108506
1.866  61.293515
1.865  61.354764
1.864  61.471450
1.863  61.647084
1.862  61.702599
1.861  61.855096
1.860  61.857119
1.859  61.984207
1.858  62.074703
1.857  62.170049
1.856  62.233911
1.855  62.371463
1.854  62.430092
1.853  62.483458
1.852  62.501784
1.851  62.527162
1.850  62.573467
1.849  62.643401
1.848  62.590813
1.847  62.655957
1.846  62.683870
1.845  62.721054
1.844  62.680184
1.843  62.755260
1.842  62.747830
1.841  62.705861
1.840  62.762124
1.839  62.728876
1.838  62.695568
1.837  62.694202
1.836  62.668840
1.835  62.684571
1.834  62.713091
1.833  62.747004
1.832  62.743813
1.831  62.705499
1.830  62.673067
1.829  62.692345
1.828  62.740367
1.827  62.735407
1.826  62.639518
1.825  62.651622
1.824  62.659467
1.823  62.655031
1.822  62.633141
1.821  62.654841
1.820  62.654108
1.819  62.669393
1.818  62.622883
1.817  62.617037
1.816  62.596677
1.815  62.604568
1.814  62.581629
1.813  62.611988
1.812  62.580104
1.811  62.603654
1.810  62.637544
1.809  62.648048
1.808  62.604859
1.807  62.592035
1.806  62.624511
1.805  62.611463
1.804  62.584316
1.803  62.586017
1.802  62.563080
1.801  62.578208
1.800  62.590125
1.799  62.597716
1.798  62.559537
1.797  62.557797
1.796  62.585695
1.795  62.580007
1.794  62.566294
1.793  62.592457
1.792  62.650742
1.791  62.655759
1.790  62.642772
1.789  62.642097
1.788  62.642842
1.787  62.669330
1.786  62.662082
1.785  62.619488
1.784  62.625142
1.783  62.725643
1.782  62.706791
1.781  62.699120
1.780  62.737587
1.779  62.713850
1.778  62.704481
1.777  62.760471
1.776  62.821816
1.775  62.842155
1.774  62.817790
1.773  62.802424
1.772  62.824814
1.771  62.848258
1.770  62.889511
1.769  62.865629
1.768  62.856237
1.767  62.913570
1.766  62.971152
1.765  63.004779
1.764  62.967459
1.763  62.934410
1.762  63.064121
1.761  63.098904
1.760  63.090083
1.759  63.153195
1.758  63.174473
1.757  63.190021
1.756  63.237222
1.755  63.206681
1.754  63.214181
1.753  63.283334
1.752  63.317562
1.751  63.357485
1.750  63.436749
1.749  63.444679
1.748  63.460869
1.747  63.483608
1.746  63.517729
1.745  63.516942
1.744  63.627690
1.743  63.745417
1.742  63.751366
1.741  63.770825
1.740  63.830141
1.739  63.823561
1.738  63.921416
1.737  63.993692
1.736  64.066664
1.735  64.108745
1.734  64.168704
1.733  64.212944
1.732  64.288486
1.731  64.313969
1.730  64.318001
1.729  64.316389
1.728  64.342524
1.727  64.400697
1.726  64.438763
1.725  64.417596
1.724  64.449376
1.723  64.418243
1.722  64.492969
1.721  64.509614
1.720  64.589539
1.719  64.635219
1.718  64.732199
1.717  64.803879
1.716  64.835973
1.715  64.931728
1.714  64.956140
1.713  65.122226
1.712  65.260661
1.711  65.326629
1.710  65.488598
1.709  65.571940
1.708  65.666246
1.707  65.724314
1.706  65.961352
1.705  65.955137
1.704  66.136595
1.703  66.238071
1.702  66.335838
1.701  66.449952
1.700  66.583726
1.699  66.772847
1.698  66.872932
1.697  66.998592
1.696  67.156978
1.695  67.224874
1.694  67.430046
1.693  67.487010
1.692  67.614195
1.691  67.687657
1.690  67.950111
1.689  67.961505
1.688  68.134800
1.687  68.267665
1.686  68.358972
1.685  68.479525
1.684  68.524443
1.683  68.667861
1.682  68.764453
1.681  68.867312
1.680  68.916170
1.679  69.014003
1.678  69.110773
1.677  69.260270
1.676  69.359826
1.675  69.419414
1.674  69.517877
1.673  69.527600
1.672  69.609269
1.671  69.737764
1.670  69.900400
1.669  69.994951
1.668  69.959407
1.667  70.039435
1.666  70.205090
1.665  70.247207
1.664  70.307975
1.663  70.404314
1.662  70.570384
1.661  70.617978
1.660  70.782788
1.659  70.836667
1.658  70.923050
1.657  70.915755
1.656  71.127901
1.655  71.129441
1.654  71.275659
1.653  71.379002
1.652  71.396492
1.651  71.514333
1.650  71.617720
1.649  71.695679
1.648  71.934386
1.647  71.917458
1.646  72.034472
1.645  72.127464
1.644  72.285510
1.643  72.267487
1.642  72.369732
1.641  72.475629
1.640  72.673090
1.639  72.676955
1.638  72.868494
1.637  72.882813
1.636  73.038185
1.635  73.120301
1.634  73.121993
1.633  73.300828
1.632  73.485835
1.631  73.420555
1.630  73.569111
1.629  73.672227
1.628  73.772990
1.627  73.834481
1.626  73.956401
1.625  74.092895
1.624  74.206378
1.623  74.189811
1.622  74.348109
1.621  74.367999
1.620  74.530461
1.619  74.562274
1.618  74.632041
1.617  74.740885
1.616  74.863986
1.615  74.842679
1.614  74.991556
1.613  75.027721
1.612  75.128082
1.611  75.190395
1.610  75.347713
1.609  75.300939
1.608  75.428308
1.607  75.527189
1.606  75.595781
1.605  75.679199
1.604  75.756024
1.603  75.727458
1.602  75.878709
1.601  75.976110
1.600  76.007863
1.599  76.151821
1.598  76.185273
1.597  76.227160
1.596  76.265783
1.595  76.358033
1.594  76.442582
1.593  76.441205
1.592  76.536169
1.591  76.609176
1.590  76.688383
1.589  76.746211
1.588  76.713243
1.587  76.791747
1.586  76.903384
1.585  76.892915
1.584  77.006464
1.583  77.009938
1.582  77.000030
1.581  77.095798
1.580  77.101974
1.579  77.193269
1.578  77.189873
1.577  77.217641
1.576  77.291069
1.575  77.330150
1.574  77.354708
1.573  77.405291
1.572  77.421701
1.571  77.447902
1.570  77.392655
1.569  77.455434
1.568  77.430763
1.567  77.557213
1.566  77.497153
1.565  77.471339
1.564  77.479834
1.563  77.534306
1.562  77.496579
1.561  77.440156
1.560  77.446567
1.559  77.441855
1.558  77.405212
1.557  77.393444
1.556  77.391531
1.555  77.395460
1.554  77.304558
1.553  77.213607
1.552  77.233571
1.551  77.239196
1.550  77.172881
1.549  77.088000
1.548  77.058201
1.547  77.056595
1.546  77.011776
1.545  76.937585
1.544  76.892252
1.543  76.786768
1.542  76.670457
1.541  76.624742
1.540  76.578205
1.539  76.432745
1.538  76.276960
1.537  76.234068
1.536  76.178446
1.535  76.008700
1.534  75.913119
1.533  75.795374
1.532  75.606965
1.531  75.455242
1.530  75.252275
1.529  75.073966
1.528  74.894227
1.527  74.677671
1.526  74.485805
1.525  74.257064
1.524  74.051964
1.523  73.931965
1.522  73.872727
1.521  73.831384
1.520  73.793004
1.519  73.796101
1.518  73.803112
1.517  73.850589
1.516  73.911356
1.515  73.953510
1.514  74.004234
1.513  74.039793
1.512  74.163847
1.511  74.208209
1.510  74.275602
1.509  74.397798
1.508  74.391493
1.507  74.387417
1.506  74.449950
1.505  74.483099
1.504  74.538014
1.503  74.549479
1.502  74.574920
1.501  74.651146
1.500  74.631021
1.499  74.609683
1.498  74.667667
1.497  74.747223
1.496  74.797847
1.495  74.772036
1.494  74.779240
1.493  74.828364
1.492  74.832065
1.491  74.907184
1.490  74.965587
1.489  74.946603
1.488  74.928770
1.487  74.957654
1.486  74.992495
1.485  75.024600
1.484  75.068556
1.483  75.096555
1.482  75.059210
1.481  75.070068
1.480  75.057917
1.479  75.007923
1.478  75.000489
1.477  74.959924
1.476  74.896558
1.475  74.771261
1.474  74.700717
1.473  74.644646
1.472  74.599180
1.471  74.497774
1.470  74.413457
1.469  74.321360
1.468  74.231294
1.467  74.133679
1.466  73.900604
1.465  73.658798
1.464  73.459192
1.463  73.178414
1.462  72.832369
1.461  72.412596
1.460  72.025632
1.459  71.596046
1.458  71.117889
1.457  70.593680
1.456  69.995611
1.455  69.331762
1.454  68.644153
1.453  67.900652
1.452  66.963783
1.451  65.880263
1.450  64.608115
1.449  63.285058
1.448  61.828989
1.447  60.474557
1.446  59.389251
1.445  58.772433
1.444  58.548345
1.443  59.026212
1.442  59.940696
1.441  61.280743
1.440  62.648584
1.439  64.091277
1.438  65.320634
1.437  66.385108
1.436  67.246975
1.435  68.081709
1.434  68.655290
1.433  69.281724
1.432  69.848157
1.431  70.385918
1.430  70.961819
1.429  71.578113
1.428  72.098161
1.427  72.734379
1.426  73.206873
1.425  73.680882
1.424  74.172438
1.423  74.644889
1.422  75.167715
1.421  75.577066
1.420  76.042123
