Name: Chlorite
Type: Mineral
Class: Silicates
Subclass: Phyllosilicates
Particle Size: 125-500um
Sample No.: PS-12F
Owner: JPL
Wavelength range: IR
Origin: USA, New Mexico
Collected by Ward's
Description: 





Measurement: Hemispherical reflectance
First Column: X
Second Column: Y
X Units:  Wavelength (micrometers)
Y Units:  Reflectance (percent)
First X Value: 15.3853
Last X Value: 2.00032
Number of X Values: 2256
Additional information: ps12fa.txt
 
15.3853	3.03056
15.3397	2.72068
15.2945	2.38498
15.2495	2.89307
15.2048	2.88993
15.1603	2.87754
15.1161	3.13998
15.0722	3.24288
15.0285	2.85023
14.9851	2.60828
14.9419	2.98862
14.8989	2.95865
14.8563	2.79166
14.8138	2.82919
14.7716	2.6471
14.7296	2.29246
14.6879	2.0496
14.6464	2.04888
14.6052	2.31248
14.5641	2.37273
14.5233	2.34288
14.4828	2.14052
14.4424	1.99821
14.4023	2.02991
14.3624	1.78231
14.3227	1.43985
14.2833	1.47362
14.244	1.72198
14.205	1.85024
14.1662	1.84175
14.1276	1.86242
14.0892	2.0328
14.051	1.93683
14.0131	1.95748
13.9753	2.01964
13.9377	1.94828
13.9004	1.99489
13.8632	1.98598
13.8262	2.01654
13.7895	2.00745
13.7529	2.0811
13.7165	2.09386
13.6803	2.35741
13.6443	2.40247
13.6085	2.35367
13.5729	2.48561
13.5374	2.5129
13.5022	2.57568
13.4671	2.7042
13.4322	2.68633
13.3975	2.69369
13.363	2.75698
13.3286	2.61997
13.2944	2.66339
13.2604	2.77229
13.2266	2.59216
13.193	2.40758
13.1595	2.46252
13.1262	2.5198
13.093	2.64751
13.06	2.52929
13.0272	2.33577
12.9946	2.4449
12.9621	2.54965
12.9298	2.55829
12.8976	2.62215
12.8656	2.59254
12.8337	2.54061
12.8021	2.37833
12.7705	2.19436
12.7391	2.10601
12.7079	2.05598
12.6769	2.10774
12.6459	2.21915
12.6152	2.25818
12.5845	2.09813
12.5541	2.0291
12.5238	2.13626
12.4936	2.10155
12.4635	1.96078
12.4337	1.9286
12.4039	1.9536
12.3743	1.88825
12.3448	1.82869
12.3155	1.90022
12.2863	1.89069
12.2573	1.86838
12.2284	1.7793
12.1996	1.74709
12.171	1.70957
12.1425	1.63345
12.1141	1.55529
12.0859	1.56295
12.0578	1.56374
12.0298	1.6131
12.0019	1.69735
11.9742	1.65445
11.9466	1.65664
11.9192	1.64765
11.8918	1.6439
11.8646	1.8379
11.8375	1.91149
11.8106	1.91844
11.7837	1.99237
11.757	2.09888
11.7304	2.18392
11.7039	2.12219
11.6776	2.03904
11.6513	1.92872
11.6252	1.9651
11.5992	2.0975
11.5733	2.153
11.5475	2.24197
11.5219	2.28371
11.4963	2.39604
11.4709	2.43721
11.4455	2.5231
11.4203	2.66957
11.3952	2.71762
11.3702	2.67964
11.3454	2.66758
11.3206	2.71672
11.2959	2.69896
11.2714	2.74122
11.2469	3.01426
11.2226	3.1837
11.1983	3.01616
11.1742	2.9544
11.1502	3.10244
11.1263	3.11764
11.1024	3.18373
11.0787	3.24088
11.0551	3.36724
11.0316	3.48806
11.0081	3.51294
10.9848	3.66099
10.9616	3.77896
10.9385	3.73175
10.9154	3.79829
10.8925	3.87203
10.8697	4.03877
10.8469	4.23349
10.8243	4.41575
10.8017	4.51751
10.7793	4.56952
10.7569	4.69706
10.7346	4.83862
10.7125	5.0386
10.6904	5.25963
10.6684	5.2887
10.6465	5.47055
10.6247	5.65889
10.6029	5.80847
10.5813	5.99417
10.5597	6.18178
10.5383	6.37229
10.5169	6.59681
10.4956	6.8599
10.4744	7.12437
10.4533	7.25744
10.4323	7.41338
10.4113	7.777
10.3904	8.069
10.3697	8.14827
10.349	8.279
10.3284	8.54091
10.3078	8.75149
10.2874	8.76779
10.267	8.8296
10.2467	9.07903
10.2265	9.44681
10.2064	9.76288
10.1863	9.89962
10.1663	10.095
10.1464	10.3464
10.1266	10.5761
10.1069	10.8792
10.0872	11.2875
10.0676	11.704
10.0481	11.8723
10.0287	12.0353
10.0093	12.3557
9.99005	12.5259
9.97084	12.5899
9.95169	12.6428
9.93263	12.6885
9.91364	12.7005
9.89472	12.8739
9.87587	12.9772
9.8571	12.9747
9.83839	12.9451
9.81976	12.9295
9.80119	12.7499
9.78271	12.5205
9.76428	12.3834
9.74592	12.3902
9.72764	12.3391
9.70943	12.2171
9.69128	12.015
9.6732	11.7074
9.65518	11.5628
9.63724	11.547
9.61935	11.5293
9.60155	11.3836
9.5838	11.1103
9.56611	10.9564
9.5485	10.8106
9.53094	10.7883
9.51345	10.7307
9.49604	10.5965
9.47867	10.4743
9.46137	10.4026
9.44414	10.2534
9.42697	9.95453
9.40986	9.59334
9.39281	9.13351
9.37583	8.58058
9.35891	7.94969
9.34204	7.36265
9.32524	6.8412
9.3085	6.48232
9.29182	6.12294
9.27519	5.51534
9.25863	4.88901
9.24213	4.54657
9.22568	4.35817
9.2093	4.05797
9.19297	3.82283
9.17669	3.63992
9.16048	3.53546
9.14433	3.34423
9.12823	3.08635
9.11218	3.0284
9.0962	2.89034
9.08027	2.73849
9.06439	2.65989
9.04858	2.54698
9.03281	2.44284
9.0171	2.40208
9.00145	2.4655
8.98585	2.46078
8.9703	2.41926
8.9548	2.36814
8.93937	2.41266
8.92398	2.32174
8.90865	2.25169
8.89337	2.24161
8.87814	2.32615
8.86296	2.3129
8.84784	2.07019
8.83277	1.89534
8.81774	1.87551
8.80277	1.98225
8.78786	2.03014
8.77298	2.00706
8.75816	1.94797
8.7434	1.9784
8.72868	2.00685
8.714	1.96619
8.69938	1.86939
8.68481	1.86222
8.67029	1.87579
8.65581	1.74704
8.64139	1.55089
8.62701	1.59826
8.61268	1.70025
8.5984	1.79307
8.58416	1.90587
8.56997	1.90682
8.55583	2.0885
8.54174	2.16301
8.52769	2.05963
8.51368	2.10454
8.49973	2.27815
8.48582	2.31226
8.47195	2.20016
8.45813	2.32936
8.44436	2.48458
8.43062	2.30403
8.41693	2.29963
8.4033	2.45316
8.3897	2.54642
8.37614	2.5545
8.36264	2.52473
8.34917	2.50485
8.33574	2.54718
8.32236	2.63829
8.30903	2.75296
8.29573	2.68945
8.28248	2.56916
8.26927	2.51168
8.2561	2.53569
8.24298	2.71432
8.2299	2.91663
8.21685	2.97809
8.20385	2.90436
8.19089	2.84655
8.17797	2.70781
8.16509	2.76427
8.15225	2.91607
8.13946	2.87808
8.1267	2.7408
8.11398	2.64447
8.10131	2.48178
8.08867	2.34699
8.07606	2.34112
8.0635	2.29218
8.05099	2.29307
8.0385	2.17503
8.02606	2.02413
8.01366	1.97236
8.00129	2.05097
7.98896	2.07745
7.97667	1.98589
7.96442	1.94598
7.9522	1.90985
7.94002	1.86411
7.92788	1.8174
7.91578	1.81789
7.90371	1.82513
7.89168	1.82169
7.87969	1.86698
7.86773	1.90601
7.85581	1.87576
7.84392	1.79469
7.83207	1.77538
7.82026	1.74552
7.80849	1.81734
7.79674	1.86539
7.78503	1.87819
7.77337	1.91369
7.76173	1.87786
7.75012	1.88769
7.73856	1.84046
7.72703	1.84869
7.71553	1.85113
7.70406	1.8231
7.69263	1.88992
7.68123	1.90656
7.66987	1.95409
7.65855	2.01288
7.64725	1.95884
7.63598	1.87574
7.62475	1.96234
7.61356	2.01908
7.60239	2.03052
7.59126	1.97133
7.58017	1.90783
7.5691	1.96813
7.55806	2.03566
7.54707	2.02759
7.5361	2.03367
7.52516	2.01888
7.51425	2.08786
7.50338	2.11582
7.49253	2.09037
7.48172	2.11946
7.47094	2.12366
7.46019	2.20025
7.44947	2.1975
7.43879	2.14906
7.42813	2.11661
7.4175	2.15338
7.4069	2.18445
7.39634	2.17882
7.3858	2.18478
7.37529	2.24957
7.36482	2.31548
7.35437	2.26708
7.34396	2.3022
7.33357	2.35193
7.32321	2.41623
7.31288	2.43478
7.30258	2.35012
7.29231	2.28307
7.28207	2.25804
7.27185	2.27611
7.26167	2.3798
7.25152	2.46919
7.24139	2.50833
7.23129	2.52006
7.22122	2.53751
7.21117	2.57504
7.20116	2.55633
7.19117	2.50136
7.18121	2.5563
7.17128	2.60226
7.16137	2.54515
7.1515	2.5879
7.14164	2.68333
7.13182	2.69175
7.12203	2.7285
7.11225	2.70853
7.10251	2.69677
7.0928	2.74602
7.08311	2.70422
7.07344	2.66241
7.06381	2.68689
7.0542	2.73986
7.04461	2.77431
7.03506	2.80741
7.02552	2.80285
7.01601	2.76877
7.00653	2.82627
6.99708	2.83812
6.98765	2.79402
6.97824	2.80326
6.96886	2.78957
6.95951	2.76608
6.95018	2.81438
6.94087	2.79676
6.9316	2.88235
6.92234	2.97225
6.91311	2.95994
6.90391	2.82316
6.89473	2.81258
6.88557	2.95264
6.87644	2.88884
6.86733	2.75338
6.85824	2.83456
6.84918	2.8755
6.84015	2.92712
6.83114	2.88607
6.82215	2.81908
6.81319	2.86287
6.80424	2.87287
6.79532	2.82673
6.78643	2.82225
6.77756	2.92172
6.76871	2.87509
6.75989	2.82018
6.75109	2.85025
6.74231	2.79044
6.73355	2.74455
6.72482	2.78077
6.71611	2.76646
6.70742	2.75365
6.69875	2.77519
6.69011	2.78152
6.68149	2.82932
6.67289	2.83308
6.66431	2.80833
6.65576	2.75299
6.64722	2.76744
6.63871	2.78766
6.63022	2.8355
6.62175	2.81755
6.61331	2.74437
6.60488	2.74621
6.59648	2.82072
6.5881	2.85374
6.57974	2.83783
6.5714	2.81316
6.56308	2.75416
6.55478	2.68299
6.54651	2.65819
6.53825	2.65037
6.53001	2.6404
6.5218	2.58148
6.51361	2.63467
6.50544	2.72174
6.49729	2.73474
6.48915	2.78333
6.48104	2.74599
6.47295	2.7036
6.46488	2.63934
6.45683	2.60037
6.4488	2.63326
6.44079	2.61621
6.4328	2.66335
6.42482	2.75773
6.41687	2.79456
6.40894	2.75417
6.40103	2.69931
6.39314	2.67223
6.38526	2.68129
6.37741	2.61998
6.36957	2.56308
6.36176	2.62153
6.35396	2.65548
6.34618	2.59838
6.33843	2.59108
6.33069	2.61009
6.32297	2.58983
6.31527	2.54202
6.30758	2.52024
6.29992	2.5271
6.29227	2.55281
6.28465	2.60313
6.27704	2.62816
6.26945	2.59857
6.26188	2.60465
6.25432	2.67444
6.24679	2.5918
6.23927	2.53208
6.23177	2.56675
6.22429	2.58712
6.21683	2.56123
6.20938	2.58519
6.20195	2.65248
6.19454	2.58737
6.18715	2.51077
6.17978	2.55428
6.17242	2.58448
6.16508	2.61069
6.15776	2.61444
6.15045	2.61277
6.14317	2.67898
6.1359	2.73845
6.12864	2.78854
6.12141	2.76746
6.11419	2.65023
6.10699	2.62922
6.0998	2.61908
6.09263	2.60513
6.08549	2.68513
6.07835	2.76653
6.07123	2.76392
6.06413	2.78903
6.05705	2.80917
6.04998	2.83975
6.04293	2.80538
6.0359	2.79768
6.02888	2.82049
6.02187	2.78506
6.01489	2.76009
6.00792	2.76165
6.00096	2.76764
5.99403	2.80926
5.98711	2.79746
5.9802	2.80256
5.97331	2.85538
5.96644	2.83158
5.95958	2.83008
5.95274	2.87691
5.94591	2.91314
5.9391	2.94562
5.9323	3.02034
5.92552	3.01005
5.91876	2.99409
5.91201	3.04592
5.90528	3.01747
5.89856	3.05099
5.89186	3.07952
5.88517	3.02328
5.8785	3.05718
5.87184	3.0947
5.8652	3.13219
5.85857	3.15686
5.85196	3.14961
5.84536	3.08679
5.83878	3.10517
5.83221	3.14122
5.82566	3.15528
5.81912	3.18408
5.81259	3.26193
5.80608	3.33298
5.79959	3.35728
5.79311	3.41091
5.78665	3.34731
5.78019	3.33681
5.77376	3.42771
5.76734	3.45956
5.76093	3.48121
5.75453	3.49484
5.74815	3.50172
5.74179	3.55188
5.73543	3.65844
5.7291	3.66337
5.72277	3.6004
5.71646	3.60682
5.71017	3.59977
5.70389	3.66062
5.69762	3.71058
5.69136	3.67909
5.68513	3.6488
5.6789	3.65235
5.67268	3.64656
5.66648	3.666
5.6603	3.6895
5.65413	3.71385
5.64797	3.73736
5.64182	3.72381
5.63569	3.73826
5.62957	3.71633
5.62347	3.68393
5.61737	3.68904
5.61129	3.695
5.60522	3.72583
5.59917	3.73293
5.59313	3.68602
5.5871	3.70611
5.58109	3.81555
5.57509	3.85646
5.5691	3.86006
5.56312	3.85538
5.55716	3.88661
5.55121	3.91589
5.54528	3.94508
5.53935	3.94188
5.53344	3.94832
5.52754	3.95891
5.52166	3.9338
5.51578	4.02729
5.50992	4.08336
5.50407	4.10934
5.49823	4.10245
5.49241	4.04598
5.4866	4.04896
5.4808	4.16546
5.47501	4.25341
5.46923	4.19902
5.46347	4.14507
5.45772	4.1952
5.45198	4.2367
5.44625	4.20511
5.44054	4.23551
5.43484	4.23316
5.42914	4.23362
5.42347	4.27432
5.4178	4.27717
5.41214	4.2361
5.4065	4.23297
5.40087	4.19399
5.39525	4.1577
5.38964	4.14396
5.38404	4.12868
5.37846	4.22334
5.37288	4.26137
5.36732	4.20914
5.36177	4.18726
5.35623	4.16704
5.35071	4.11386
5.34519	4.16873
5.33968	4.14783
5.33419	4.11732
5.32871	4.17704
5.32324	4.24314
5.31778	4.27481
5.31233	4.27149
5.30689	4.22093
5.30147	4.15686
5.29605	4.15866
5.29065	4.22439
5.28525	4.30762
5.27987	4.35456
5.2745	4.38423
5.26914	4.37115
5.26379	4.32314
5.25845	4.26382
5.25312	4.28439
5.24781	4.37938
5.2425	4.43058
5.23721	4.39869
5.23192	4.43424
5.22665	4.4699
5.22138	4.4377
5.21613	4.46473
5.21089	4.55973
5.20566	4.50573
5.20044	4.41992
5.19522	4.49238
5.19002	4.54087
5.18483	4.52248
5.17965	4.52226
5.17448	4.5219
5.16933	4.55267
5.16418	4.55119
5.15904	4.55325
5.15391	4.57102
5.14879	4.46035
5.14368	4.47374
5.13859	4.57601
5.1335	4.57153
5.12842	4.56985
5.12335	4.61652
5.1183	4.59538
5.11325	4.55083
5.10821	4.5616
5.10318	4.64734
5.09817	4.66186
5.09316	4.65071
5.08816	4.64262
5.08317	4.62271
5.07819	4.62368
5.07322	4.66891
5.06826	4.66989
5.06331	4.60892
5.05837	4.64947
5.05344	4.80187
5.04852	4.75821
5.04361	4.68211
5.03871	4.71851
5.03382	4.6706
5.02894	4.64356
5.02406	4.71388
5.0192	4.66843
5.01435	4.68197
5.0095	4.77999
5.00467	4.77304
4.99984	4.73982
4.99502	4.77164
4.99021	4.74842
4.98542	4.71745
4.98063	4.78758
4.97585	4.79638
4.97108	4.83307
4.96632	4.94752
4.96156	5.02095
4.95682	5.08786
4.95209	5.02342
4.94736	5.01942
4.94264	5.07758
4.93794	5.15983
4.93324	5.17839
4.92855	5.2026
4.92387	5.26785
4.9192	5.32599
4.91453	5.3554
4.90988	5.45448
4.90524	5.5025
4.9006	5.50735
4.89597	5.58417
4.89135	5.66557
4.88674	5.6948
4.88214	5.75503
4.87755	5.76976
4.87296	5.7878
4.86839	5.8887
4.86382	5.973
4.85926	6.10312
4.85471	6.21041
4.85017	6.1673
4.84564	6.11857
4.84111	6.15674
4.8366	6.22518
4.83209	6.3129
4.82759	6.46289
4.8231	6.49204
4.81862	6.50925
4.81415	6.57724
4.80968	6.61871
4.80522	6.67355
4.80077	6.7256
4.79633	6.8017
4.7919	6.85034
4.78747	6.88611
4.78306	6.97627
4.77865	7.02452
4.77425	7.10848
4.76986	7.16057
4.76547	7.17605
4.7611	7.26482
4.75673	7.35459
4.75237	7.46769
4.74802	7.59313
4.74367	7.69607
4.73934	7.76362
4.73501	7.77748
4.73069	7.85603
4.72638	7.92996
4.72207	8.06499
4.71777	8.10136
4.71348	8.10188
4.7092	8.20275
4.70493	8.26006
4.70066	8.30262
4.69641	8.36822
4.69216	8.42442
4.68791	8.52227
4.68368	8.57624
4.67945	8.58634
4.67523	8.61036
4.67102	8.74186
4.66682	8.78608
4.66262	8.78433
4.65843	8.90317
4.65425	8.97244
4.65007	9.02326
4.64591	9.15449
4.64175	9.18396
4.6376	9.2453
4.63345	9.39161
4.62932	9.52262
4.62519	9.56356
4.62106	9.54359
4.61695	9.58408
4.61284	9.6733
4.60874	9.86602
4.60465	9.89601
4.60056	9.95292
4.59648	10.111
4.59241	10.2886
4.58835	10.4303
4.58429	10.5355
4.58024	10.6399
4.5762	10.7106
4.57216	10.7628
4.56814	10.8002
4.56411	10.8385
4.5601	10.9836
4.55609	11.0834
4.55209	11.1689
4.5481	11.3332
4.54411	11.4383
4.54013	11.4216
4.53616	11.4523
4.5322	11.5574
4.52824	11.6649
4.52429	11.7509
4.52034	11.7896
4.51641	11.8268
4.51247	11.8259
4.50855	11.9141
4.50463	11.9683
4.50072	11.952
4.49682	12.0309
4.49292	12.1497
4.48903	12.2257
4.48515	12.2977
4.48127	12.3208
4.4774	12.3666
4.47354	12.4376
4.46968	12.479
4.46584	12.5043
4.46199	12.6228
4.45815	12.7789
4.45432	12.8016
4.4505	12.847
4.44668	12.9609
4.44287	13.0297
4.43907	13.1013
4.43527	13.1349
4.43148	13.2302
4.4277	13.3186
4.42392	13.4116
4.42015	13.4097
4.41638	13.4429
4.41262	13.5414
4.40887	13.6035
4.40513	13.6222
4.40139	13.7239
4.39765	13.8313
4.39393	13.9884
4.39021	14.0688
4.38649	14.0918
4.38278	14.1103
4.37908	14.1315
4.37539	14.2552
4.3717	14.3224
4.36801	14.3199
4.36434	14.4105
4.36067	14.5352
4.357	14.6486
4.35335	14.7425
4.34969	14.804
4.34605	14.8241
4.34241	14.869
4.33877	14.9446
4.33514	14.9967
4.33152	15.0324
4.32791	15.0993
4.3243	15.2404
4.32069	15.2934
4.3171	15.2586
4.31351	15.2817
4.30992	15.3397
4.30634	15.3476
4.30277	15.3797
4.2992	15.5018
4.29564	15.5625
4.29208	15.5741
4.28853	15.596
4.28499	15.6406
4.28145	15.7067
4.27792	15.801
4.27439	15.8474
4.27087	15.9725
4.26735	15.9974
4.26384	16.0027
4.26034	16.0697
4.25684	16.0767
4.25335	16.1045
4.24986	16.1698
4.24638	16.2148
4.24291	16.1994
4.23944	16.2692
4.23598	16.4026
4.23252	16.4245
4.22906	16.4199
4.22562	16.3731
4.22218	16.4432
4.21874	16.607
4.21531	16.669
4.21189	16.6795
4.20847	16.7244
4.20506	16.7214
4.20165	16.6465
4.19825	16.6843
4.19485	16.71
4.19146	16.7181
4.18807	16.7939
4.18469	16.8825
4.18132	16.9144
4.17795	16.911
4.17458	16.9657
4.17123	17.0211
4.16787	17.0408
4.16453	17.0803
4.16118	17.0996
4.15785	17.1638
4.15451	17.1608
4.15119	17.1483
4.14787	17.1812
4.14455	17.2651
4.14124	17.3093
4.13794	17.3351
4.13464	17.3692
4.13134	17.4171
4.12805	17.414
4.12477	17.3676
4.12149	17.351
4.11822	17.3613
4.11495	17.4783
4.11168	17.5438
4.10843	17.5802
4.10517	17.6289
4.10192	17.62
4.09868	17.6335
4.09545	17.657
4.09221	17.631
4.08899	17.619
4.08576	17.6464
4.08255	17.661
4.07933	17.638
4.07613	17.6235
4.07292	17.6607
4.06973	17.748
4.06654	17.8016
4.06335	17.8088
4.06017	17.7982
4.05699	17.7715
4.05382	17.7628
4.05065	17.7661
4.04749	17.7645
4.04433	17.7937
4.04118	17.783
4.03803	17.7496
4.03489	17.7431
4.03175	17.7673
4.02862	17.8309
4.02549	17.8657
4.02237	17.7739
4.01925	17.6591
4.01614	17.6804
4.01303	17.7476
4.00993	17.6789
4.00683	17.6689
4.00373	17.7811
4.00064	17.7639
3.99756	17.8118
3.99448	17.8707
3.9914	17.7907
3.98833	17.7857
3.98527	17.774
3.98221	17.8025
3.97915	17.8301
3.9761	17.7456
3.97305	17.713
3.97001	17.7324
3.96697	17.7411
3.96394	17.6954
3.96091	17.6604
3.95789	17.6724
3.95487	17.6913
3.95186	17.7194
3.94885	17.7216
3.94584	17.6986
3.94284	17.7012
3.93984	17.719
3.93685	17.6334
3.93386	17.5782
3.93088	17.5494
3.9279	17.5548
3.92493	17.6198
3.92196	17.6688
3.919	17.6065
3.91604	17.5487
3.91308	17.5417
3.91013	17.5195
3.90718	17.4527
3.90424	17.4578
3.9013	17.5142
3.89837	17.6091
3.89544	17.5921
3.89252	17.4716
3.8896	17.3653
3.88668	17.3008
3.88377	17.3235
3.88086	17.3485
3.87796	17.3288
3.87506	17.2569
3.87217	17.2265
3.86928	17.1764
3.86639	17.1625
3.86351	17.1802
3.86064	17.0988
3.85776	17.0461
3.8549	17.0437
3.85203	17.0512
3.84917	16.9884
3.84631	16.9195
3.84346	16.9561
3.84062	16.9839
3.83777	16.9428
3.83494	16.911
3.8321	16.8642
3.82927	16.8109
3.82644	16.7503
3.82362	16.7572
3.82081	16.7699
3.81799	16.7092
3.81518	16.6919
3.81238	16.7014
3.80958	16.6633
3.80678	16.6385
3.80399	16.6484
3.8012	16.6178
3.79841	16.5562
3.79563	16.4886
3.79286	16.3896
3.79008	16.2561
3.78731	16.202
3.78455	16.2448
3.78179	16.2621
3.77903	16.1663
3.77628	16.1773
3.77353	16.1928
3.77079	16.1365
3.76805	16.1169
3.76531	16.1193
3.76258	16.0659
3.75985	15.968
3.75713	15.9589
3.7544	15.9646
3.75169	15.947
3.74898	15.9034
3.74627	15.827
3.74356	15.728
3.74086	15.675
3.73816	15.7215
3.73547	15.712
3.73278	15.6715
3.7301	15.5834
3.72741	15.5538
3.72474	15.5283
3.72206	15.4381
3.71939	15.3929
3.71673	15.4057
3.71406	15.3192
3.71141	15.3143
3.70875	15.3963
3.7061	15.3918
3.70345	15.3064
3.70081	15.2544
3.69817	15.1914
3.69553	15.1612
3.6929	15.1456
3.69027	15.0121
3.68765	15.0511
3.68503	15.1095
3.68241	14.9775
3.6798	14.8859
3.67719	14.9085
3.67458	14.8636
3.67198	14.823
3.66938	14.8397
3.66678	14.8235
3.66419	14.7168
3.66161	14.5772
3.65902	14.5575
3.65644	14.5625
3.65387	14.4682
3.65129	14.3196
3.64872	14.2703
3.64616	14.3209
3.64359	14.3029
3.64103	14.262
3.63848	14.2012
3.63593	14.1199
3.63338	14.1091
3.63084	14.1753
3.6283	14.1362
3.62576	14.0013
3.62322	13.8939
3.62069	13.8366
3.61817	13.7804
3.61564	13.8061
3.61312	13.7494
3.61061	13.6829
3.6081	13.6457
3.60559	13.61
3.60308	13.5952
3.60058	13.5524
3.59808	13.5
3.59558	13.3716
3.59309	13.3009
3.59061	13.2847
3.58812	13.1805
3.58564	13.0341
3.58316	12.9583
3.58069	12.9112
3.57822	12.8368
3.57575	12.7777
3.57328	12.7527
3.57082	12.688
3.56836	12.6152
3.56591	12.5544
3.56346	12.5747
3.56101	12.5733
3.55857	12.518
3.55613	12.4223
3.55369	12.3152
3.55126	12.3004
3.54883	12.2238
3.5464	12.0813
3.54397	12.0653
3.54155	12.1142
3.53914	12.1098
3.53672	12.1026
3.53431	12.0434
3.5319	11.9296
3.5295	11.9583
3.5271	12.0335
3.5247	11.9294
3.52231	11.7899
3.51991	11.7676
3.51753	11.8121
3.51514	11.8409
3.51276	11.7447
3.51038	11.6045
3.50801	11.571
3.50563	11.5008
3.50327	11.4038
3.5009	11.3659
3.49854	11.3707
3.49618	11.4242
3.49382	11.4088
3.49147	11.3871
3.48912	11.3838
3.48677	11.334
3.48443	11.2359
3.48209	11.1786
3.47975	11.122
3.47742	11.1099
3.47509	11.0913
3.47276	11.0289
3.47044	11.0003
3.46812	10.9368
3.4658	10.9217
3.46348	10.9381
3.46117	10.9113
