Name: Red Slate
Type: Rock
Class: Metamorphic
Subclass:  Slate 
Particle Size: Solid surface
Sample No.: Ward91.txt
Owner: JPL
Wavelength range:  VNIR SWIR IR 
Origin: Ward's Collection of American Rocks.  Sample locality - Granville, Washington County, New York.  Collected by - JPL.
Collected by:  Ward's Natural Science
Description: A fine, red, fissile rock.  Geologic age - Cambrian





Measurement: Hemispherical reflectance
First Column: X
Second Column: Y
X Units: Wavelength (micrometers)
Y Units: Reflectance (percent)
First X Value: 2.500
Last X Value: 0.400
Number of X Values: 2101
Additional information: None

2.500  15.547163
2.499  15.400232
2.498  15.572274
2.497  15.766217
2.496  15.031769
2.495  15.688486
2.494  15.322292
2.493  15.508727
2.492  15.493649
2.491  15.632013
2.490  15.478072
2.489  15.594858
2.488  15.540326
2.487  15.643132
2.486  15.217864
2.485  15.651038
2.484  15.369513
2.483  15.636714
2.482  15.438247
2.481  15.513212
2.480  15.468043
2.479  15.562688
2.478  15.392885
2.477  15.456828
2.476  15.367599
2.475  15.669370
2.474  15.437062
2.473  15.582828
2.472  15.439696
2.471  15.550853
2.470  15.352907
2.469  15.508651
2.468  15.420579
2.467  15.463393
2.466  15.421048
2.465  15.578576
2.464  15.270495
2.463  15.625767
2.462  15.361139
2.461  15.565753
2.460  15.382530
2.459  15.689279
2.458  15.370344
2.457  15.492268
2.456  15.432937
2.455  15.461352
2.454  15.521060
2.453  15.469940
2.452  15.421198
2.451  15.466601
2.450  15.457540
2.449  15.505604
2.448  15.492466
2.447  15.571916
2.446  15.420146
2.445  15.579167
2.444  15.453113
2.443  15.635688
2.442  15.484910
2.441  15.487180
2.440  15.439378
2.439  15.554463
2.438  15.431436
2.437  15.569549
2.436  15.541275
2.435  15.684543
2.434  15.454986
2.433  15.601844
2.432  15.622198
2.431  15.678269
2.430  15.620003
2.429  15.578689
2.428  15.628439
2.427  15.726561
2.426  15.694583
2.425  15.806911
2.424  15.737056
2.423  15.743994
2.422  15.625301
2.421  15.695231
2.420  15.762785
2.419  15.785751
2.418  15.757915
2.417  15.805652
2.416  15.804780
2.415  15.866394
2.414  15.850055
2.413  15.862373
2.412  15.841245
2.411  15.881528
2.410  15.855012
2.409  15.894878
2.408  15.887318
2.407  16.054769
2.406  15.847538
2.405  15.888304
2.404  15.892076
2.403  15.957297
2.402  15.897665
2.401  15.932713
2.400  15.921973
2.399  15.919749
2.398  15.934281
2.397  16.007177
2.396  15.955120
2.395  15.935371
2.394  15.899476
2.393  15.979070
2.392  15.898618
2.391  15.888519
2.390  15.926643
2.389  15.971175
2.388  15.896093
2.387  15.911998
2.386  15.879250
2.385  15.876164
2.384  15.816060
2.383  15.836744
2.382  15.881997
2.381  15.901438
2.380  15.848138
2.379  15.876628
2.378  15.834159
2.377  15.825462
2.376  15.815799
2.375  15.834947
2.374  15.830940
2.373  15.784265
2.372  15.806144
2.371  15.789398
2.370  15.728331
2.369  15.743048
2.368  15.728638
2.367  15.735200
2.366  15.696633
2.365  15.699218
2.364  15.669336
2.363  15.674356
2.362  15.669144
2.361  15.612110
2.360  15.619049
2.359  15.674687
2.358  15.619999
2.357  15.563916
2.356  15.559703
2.355  15.522443
2.354  15.512620
2.353  15.554850
2.352  15.562516
2.351  15.503939
2.350  15.497619
2.349  15.522545
2.348  15.537804
2.347  15.537859
2.346  15.540363
2.345  15.531271
2.344  15.528494
2.343  15.538130
2.342  15.582243
2.341  15.609057
2.340  15.611017
2.339  15.622943
2.338  15.698811
2.337  15.692114
2.336  15.712843
2.335  15.703185
2.334  15.803852
2.333  15.797099
2.332  15.832442
2.331  15.830240
2.330  15.791581
2.329  15.840444
2.328  15.919402
2.327  15.906267
2.326  15.921870
2.325  15.923712
2.324  16.028471
2.323  16.038191
2.322  16.114547
2.321  16.149180
2.320  16.176579
2.319  16.179985
2.318  16.282294
2.317  16.235836
2.316  16.286772
2.315  16.262551
2.314  16.299617
2.313  16.319433
2.312  16.370889
2.311  16.324933
2.310  16.437949
2.309  16.507523
2.308  16.536900
2.307  16.487376
2.306  16.495254
2.305  16.471990
2.304  16.535429
2.303  16.541173
2.302  16.560064
2.301  16.472996
2.300  16.580702
2.299  16.611274
2.298  16.573114
2.297  16.538029
2.296  16.625222
2.295  16.630294
2.294  16.614640
2.293  16.585708
2.292  16.669295
2.291  16.598865
2.290  16.598233
2.289  16.591038
2.288  16.671995
2.287  16.643458
2.286  16.664522
2.285  16.606853
2.284  16.634855
2.283  16.676959
2.282  16.656303
2.281  16.613395
2.280  16.607684
2.279  16.642270
2.278  16.637159
2.277  16.550438
2.276  16.584097
2.275  16.605559
2.274  16.610969
2.273  16.517607
2.272  16.547697
2.271  16.432223
2.270  16.562193
2.269  16.462810
2.268  16.440510
2.267  16.433722
2.266  16.388826
2.265  16.301271
2.264  16.397939
2.263  16.247346
2.262  16.304016
2.261  16.212971
2.260  16.229853
2.259  16.074278
2.258  16.097215
2.257  15.981383
2.256  16.049397
2.255  15.932779
2.254  16.042765
2.253  15.940499
2.252  15.982408
2.251  15.872677
2.250  16.027557
2.249  15.899614
2.248  15.983966
2.247  15.847483
2.246  15.857476
2.245  15.886695
2.244  15.925979
2.243  15.854965
2.242  15.888345
2.241  15.768459
2.240  15.869809
2.239  15.785209
2.238  15.880856
2.237  15.786268
2.236  15.779236
2.235  15.676931
2.234  15.785264
2.233  15.664730
2.232  15.674156
2.231  15.596689
2.230  15.607988
2.229  15.517745
2.228  15.620197
2.227  15.508864
2.226  15.606199
2.225  15.498853
2.224  15.616664
2.223  15.578931
2.222  15.648760
2.221  15.595034
2.220  15.691132
2.219  15.718509
2.218  15.851292
2.217  15.806356
2.216  15.930689
2.215  15.885747
2.214  16.000345
2.213  16.079984
2.212  16.253162
2.211  16.042966
2.210  16.412684
2.209  16.306720
2.208  16.429674
2.207  16.446358
2.206  16.603469
2.205  16.559020
2.204  16.697587
2.203  16.541555
2.202  16.795759
2.201  16.747757
2.200  16.829885
2.199  16.839221
2.198  16.944140
2.197  16.959892
2.196  16.971590
2.195  16.922804
2.194  17.023137
2.193  17.024715
2.192  17.061927
2.191  17.019344
2.190  17.124558
2.189  17.069941
2.188  17.174303
2.187  17.153773
2.186  17.237428
2.185  17.208821
2.184  17.233002
2.183  17.192405
2.182  17.339187
2.181  17.188793
2.180  17.290577
2.179  17.256112
2.178  17.310755
2.177  17.253181
2.176  17.364179
2.175  17.296641
2.174  17.320279
2.173  17.302704
2.172  17.385635
2.171  17.357359
2.170  17.423464
2.169  17.355754
2.168  17.428741
2.167  17.341932
2.166  17.456813
2.165  17.368466
2.164  17.462512
2.163  17.396607
2.162  17.467012
2.161  17.417572
2.160  17.494693
2.159  17.432459
2.158  17.547402
2.157  17.394653
2.156  17.510245
2.155  17.543555
2.154  17.504704
2.153  17.406992
2.152  17.502483
2.151  17.525753
2.150  17.487852
2.149  17.420393
2.148  17.550425
2.147  17.486981
2.146  17.506473
2.145  17.404331
2.144  17.521806
2.143  17.473614
2.142  17.460237
2.141  17.421998
2.140  17.473898
2.139  17.422531
2.138  17.436570
2.137  17.381947
2.136  17.475705
2.135  17.403742
2.134  17.399250
2.133  17.416353
2.132  17.481569
2.131  17.378494
2.130  17.386707
2.129  17.393496
2.128  17.317327
2.127  17.326514
2.126  17.403005
2.125  17.356858
2.124  17.331074
2.123  17.346106
2.122  17.402458
2.121  17.251987
2.120  17.311322
2.119  17.198366
2.118  17.288820
2.117  17.245243
2.116  17.263895
2.115  17.218865
2.114  17.309900
2.113  17.222709
2.112  17.268088
2.111  17.229719
2.110  17.241191
2.109  17.250931
2.108  17.267536
2.107  17.235261
2.106  17.244847
2.105  17.207231
2.104  17.233481
2.103  17.249419
2.102  17.313550
2.101  17.260011
2.100  17.251851
2.099  17.220151
2.098  17.201417
2.097  17.223908
2.096  17.276307
2.095  17.272421
2.094  17.276597
2.093  17.223366
2.092  17.284668
2.091  17.262638
2.090  17.315691
2.089  17.318706
2.088  17.339067
2.087  17.325035
2.086  17.361505
2.085  17.382693
2.084  17.415521
2.083  17.340806
2.082  17.298142
2.081  17.379339
2.080  17.398736
2.079  17.329429
2.078  17.358898
2.077  17.400639
2.076  17.405028
2.075  17.413308
2.074  17.415716
2.073  17.419043
2.072  17.454215
2.071  17.479432
2.070  17.455215
2.069  17.470798
2.068  17.461511
2.067  17.423550
2.066  17.465572
2.065  17.491861
2.064  17.455412
2.063  17.463343
2.062  17.470538
2.061  17.463364
2.060  17.472903
2.059  17.529114
2.058  17.544607
2.057  17.517338
2.056  17.459381
2.055  17.454617
2.054  17.483343
2.053  17.477397
2.052  17.463565
2.051  17.509578
2.050  17.515825
2.049  17.555906
2.048  17.535900
2.047  17.539447
2.046  17.558585
2.045  17.606037
2.044  17.573178
2.043  17.553728
2.042  17.536313
2.041  17.571130
2.040  17.558634
2.039  17.579595
2.038  17.556521
2.037  17.563058
2.036  17.586984
2.035  17.579891
2.034  17.611537
2.033  17.644466
2.032  17.649801
2.031  17.583496
2.030  17.554235
2.029  17.617848
2.028  17.600516
2.027  17.613225
2.026  17.583854
2.025  17.616566
2.024  17.546465
2.023  17.584087
2.022  17.616078
2.021  17.633597
2.020  17.549280
2.019  17.611187
2.018  17.596555
2.017  17.632012
2.016  17.578151
2.015  17.590319
2.014  17.577414
2.013  17.591074
2.012  17.567147
2.011  17.580880
2.010  17.554843
2.009  17.657080
2.008  17.615694
2.007  17.661092
2.006  17.581003
2.005  17.648743
2.004  17.594743
2.003  17.623296
2.002  17.604114
2.001  17.628383
2.000  17.637472
1.999  17.686434
1.998  17.614008
1.997  17.668133
1.996  17.602767
1.995  17.740289
1.994  17.687144
1.993  17.664129
1.992  17.559857
1.991  17.717255
1.990  17.597410
1.989  17.694326
1.988  17.647749
1.987  17.727090
1.986  17.634604
1.985  17.728028
1.984  17.646481
1.983  17.732081
1.982  17.634035
1.981  17.791330
1.980  17.673245
1.979  17.738017
1.978  17.701726
1.977  17.785333
1.976  17.684008
1.975  17.775892
1.974  17.698363
1.973  17.811734
1.972  17.785567
1.971  17.795048
1.970  17.733311
1.969  17.788092
1.968  17.730631
1.967  17.884857
1.966  17.758241
1.965  17.779414
1.964  17.701505
1.963  17.860785
1.962  17.768774
1.961  17.893069
1.960  17.706741
1.959  17.875169
1.958  17.786791
1.957  17.889390
1.956  17.757506
1.955  17.878235
1.954  17.805471
1.953  17.851135
1.952  17.799808
1.951  17.879207
1.950  17.814220
1.949  17.935852
1.948  17.838456
1.947  17.907280
1.946  17.898509
1.945  18.012531
1.944  17.789225
1.943  17.921273
1.942  17.855712
1.941  17.883637
1.940  17.866145
1.939  17.951954
1.938  17.907521
1.937  18.073369
1.936  17.847163
1.935  17.961419
1.934  17.978886
1.933  17.983713
1.932  18.037428
1.931  17.984159
1.930  17.906047
1.929  18.059301
1.928  17.893863
1.927  18.027236
1.926  17.721656
1.925  18.097276
1.924  17.916499
1.923  18.024065
1.922  17.881208
1.921  17.964525
1.920  17.875202
1.919  17.979540
1.918  17.861173
1.917  18.025243
1.916  17.905003
1.915  17.981403
1.914  17.949297
1.913  17.971457
1.912  17.922870
1.911  17.999265
1.910  17.890989
1.909  17.971394
1.908  17.949275
1.907  17.986895
1.906  17.936900
1.905  18.000535
1.904  17.963975
1.903  18.038408
1.902  17.958031
1.901  18.079813
1.900  17.905140
1.899  18.042128
1.898  17.977015
1.897  18.076269
1.896  18.013928
1.895  18.171692
1.894  18.008011
1.893  18.150035
1.892  18.100336
1.891  18.148080
1.890  18.082880
1.889  18.169269
1.888  18.112691
1.887  18.108608
1.886  18.074831
1.885  18.182397
1.884  18.070852
1.883  18.143947
1.882  18.103870
1.881  18.195736
1.880  18.100699
1.879  18.273175
1.878  18.150074
1.877  18.274557
1.876  18.180412
1.875  18.345202
1.874  18.152178
1.873  18.258068
1.872  18.190667
1.871  18.270650
1.870  18.123190
1.869  18.180352
1.868  18.165475
1.867  18.198016
1.866  18.199796
1.865  18.221015
1.864  18.188202
1.863  18.271860
1.862  18.241066
1.861  18.274072
1.860  18.239977
1.859  18.293322
1.858  18.249866
1.857  18.271528
1.856  18.212585
1.855  18.255997
1.854  18.264331
1.853  18.384452
1.852  18.275242
1.851  18.284667
1.850  18.276264
1.849  18.347656
1.848  18.288630
1.847  18.334465
1.846  18.293577
1.845  18.397106
1.844  18.324615
1.843  18.315416
1.842  18.297193
1.841  18.333262
1.840  18.308316
1.839  18.350722
1.838  18.269894
1.837  18.323973
1.836  18.319175
1.835  18.379402
1.834  18.320760
1.833  18.351748
1.832  18.346887
1.831  18.349563
1.830  18.392907
1.829  18.404604
1.828  18.332723
1.827  18.343681
1.826  18.380328
1.825  18.399573
1.824  18.380915
1.823  18.374539
1.822  18.343721
1.821  18.420737
1.820  18.386521
1.819  18.416447
1.818  18.368673
1.817  18.357264
1.816  18.365049
1.815  18.454213
1.814  18.497088
1.813  18.471267
1.812  18.409786
1.811  18.429486
1.810  18.403869
1.809  18.447318
1.808  18.477853
1.807  18.470136
1.806  18.467334
1.805  18.483023
1.804  18.445087
1.803  18.431333
1.802  18.419177
1.801  18.445263
1.800  18.437019
1.799  18.463589
1.798  18.524790
1.797  18.538987
1.796  18.488908
1.795  18.480760
1.794  18.516585
1.793  18.540711
1.792  18.513664
1.791  18.497514
1.790  18.524430
1.789  18.544337
1.788  18.487253
1.787  18.504469
1.786  18.535218
1.785  18.524323
1.784  18.535932
1.783  18.541168
1.782  18.549902
1.781  18.568005
1.780  18.565942
1.779  18.583045
1.778  18.562480
1.777  18.518527
1.776  18.527175
1.775  18.539262
1.774  18.591366
1.773  18.547713
1.772  18.542441
1.771  18.538866
1.770  18.570451
1.769  18.577289
1.768  18.593947
1.767  18.632505
1.766  18.643950
1.765  18.592050
1.764  18.624440
1.763  18.608685
1.762  18.633627
1.761  18.587126
1.760  18.643847
1.759  18.647031
1.758  18.691590
1.757  18.642957
1.756  18.597777
1.755  18.622753
1.754  18.727552
1.753  18.705780
1.752  18.703286
1.751  18.668682
1.750  18.699397
1.749  18.687255
1.748  18.696760
1.747  18.701211
1.746  18.729167
1.745  18.694128
1.744  18.718865
1.743  18.738916
1.742  18.785263
1.741  18.741862
1.740  18.790202
1.739  18.769944
1.738  18.788007
1.737  18.746996
1.736  18.825631
1.735  18.758188
1.734  18.825558
1.733  18.785254
1.732  18.795016
1.731  18.807348
1.730  18.842056
1.729  18.797851
1.728  18.834072
1.727  18.724207
1.726  18.787079
1.725  18.800778
1.724  18.819216
1.723  18.738253
1.722  18.868663
1.721  18.840185
1.720  18.857275
1.719  18.845596
1.718  18.886184
1.717  18.866273
1.716  18.841391
1.715  18.830793
1.714  18.883094
1.713  18.847833
1.712  18.889546
1.711  18.835786
1.710  18.897803
1.709  18.885037
1.708  19.009083
1.707  18.854395
1.706  18.943210
1.705  18.889777
1.704  18.902361
1.703  18.871246
1.702  18.883052
1.701  18.914446
1.700  18.969598
1.699  18.870910
1.698  18.967942
1.697  18.872930
1.696  18.951220
1.695  18.881605
1.694  18.975638
1.693  18.976542
1.692  18.932033
1.691  18.891810
1.690  19.026938
1.689  18.919518
1.688  19.001034
1.687  18.975758
1.686  18.967495
1.685  18.980185
1.684  19.081549
1.683  18.891075
1.682  19.066096
1.681  19.014262
1.680  19.028083
1.679  18.941506
1.678  19.010505
1.677  19.019738
1.676  19.083651
1.675  19.016702
1.674  19.143695
1.673  19.064200
1.672  19.110055
1.671  19.021541
1.670  19.117760
1.669  19.190937
1.668  18.950155
1.667  19.045447
1.666  19.182647
1.665  19.067101
1.664  19.074541
1.663  19.055720
1.662  19.137701
1.661  19.126765
1.660  19.187782
1.659  19.042825
1.658  19.154246
1.657  19.062988
1.656  19.286451
1.655  19.093691
1.654  19.291377
1.653  19.094189
1.652  19.247910
1.651  19.145138
1.650  19.239124
1.649  19.095710
1.648  19.292551
1.647  19.145185
1.646  19.217844
1.645  19.168338
1.644  19.294537
1.643  19.153803
1.642  19.376395
1.641  19.095604
1.640  19.345235
1.639  19.223707
1.638  19.288032
1.637  19.234855
1.636  19.297586
1.635  19.174885
1.634  19.339701
1.633  19.247243
1.632  19.325263
1.631  19.287734
1.630  19.238656
1.629  19.274877
1.628  19.382412
1.627  19.305987
1.626  19.258989
1.625  19.337934
1.624  19.354671
1.623  19.318594
1.622  19.436605
1.621  19.414824
1.620  19.437222
1.619  19.375813
1.618  19.438707
1.617  19.340815
1.616  19.413704
1.615  19.359380
1.614  19.471265
1.613  19.378882
1.612  19.451108
1.611  19.433376
1.610  19.472238
1.609  19.420107
1.608  19.506902
1.607  19.376418
1.606  19.496838
1.605  19.448138
1.604  19.467220
1.603  19.443668
1.602  19.521096
1.601  19.479652
1.600  19.594613
1.599  19.490582
1.598  19.490283
1.597  19.454013
1.596  19.582995
1.595  19.484286
1.594  19.563234
1.593  19.454520
1.592  19.576071
1.591  19.523012
1.590  19.560206
1.589  19.523509
1.588  19.640526
1.587  19.525259
1.586  19.611902
1.585  19.561154
1.584  19.634075
1.583  19.595713
1.582  19.578782
1.581  19.580825
1.580  19.662895
1.579  19.592286
1.578  19.677956
1.577  19.635455
1.576  19.687240
1.575  19.690005
1.574  19.688322
1.573  19.675170
1.572  19.754858
1.571  19.691958
1.570  19.688291
1.569  19.726711
1.568  19.759696
1.567  19.676077
1.566  19.752799
1.565  19.699133
1.564  19.711053
1.563  19.704800
1.562  19.775807
1.561  19.746121
1.560  19.812124
1.559  19.742943
1.558  19.793697
1.557  19.815584
1.556  19.818476
1.555  19.749653
1.554  19.772116
1.553  19.808328
1.552  19.854210
1.551  19.783833
1.550  19.873969
1.549  19.792290
1.548  19.868437
1.547  19.866986
1.546  19.901232
1.545  19.883461
1.544  19.901731
1.543  19.862957
1.542  19.914469
1.541  19.952151
1.540  19.931619
1.539  19.895383
1.538  19.959296
1.537  19.943855
1.536  19.953819
1.535  19.916413
1.534  19.981729
1.533  19.965232
1.532  19.999905
1.531  20.022684
1.530  20.029904
1.529  20.005912
1.528  20.072943
1.527  20.061694
1.526  20.034386
1.525  20.033846
1.524  20.051590
1.523  20.052518
1.522  20.049129
1.521  20.081903
1.520  20.114941
1.519  20.114999
1.518  20.134012
1.517  20.086305
1.516  20.135888
1.515  20.134828
1.514  20.153393
1.513  20.209423
1.512  20.236910
1.511  20.194250
1.510  20.182293
1.509  20.157036
1.508  20.191224
1.507  20.210907
1.506  20.215725
1.505  20.183148
1.504  20.177711
1.503  20.222552
1.502  20.278262
1.501  20.300713
1.500  20.253384
1.499  20.264448
1.498  20.280867
1.497  20.262573
1.496  20.293738
1.495  20.334611
1.494  20.359206
1.493  20.371814
1.492  20.384564
1.491  20.364121
1.490  20.334233
1.489  20.363440
1.488  20.369710
1.487  20.401374
1.486  20.386213
1.485  20.420208
1.484  20.446015
1.483  20.453567
1.482  20.394422
1.481  20.411271
1.480  20.432010
1.479  20.409179
1.478  20.412005
1.477  20.483857
1.476  20.503416
1.475  20.481806
1.474  20.500865
1.473  20.547140
1.472  20.544247
1.471  20.569049
1.470  20.544325
1.469  20.546121
1.468  20.578857
1.467  20.574212
1.466  20.567368
1.465  20.610992
1.464  20.562694
1.463  20.578519
1.462  20.588188
1.461  20.625987
1.460  20.587168
1.459  20.652242
1.458  20.655929
1.457  20.688283
1.456  20.649067
1.455  20.690819
1.454  20.709505
1.453  20.700419
1.452  20.692282
1.451  20.732961
1.450  20.704494
1.449  20.769495
1.448  20.741236
1.447  20.763090
1.446  20.708912
1.445  20.780936
1.444  20.730685
1.443  20.709127
1.442  20.775666
1.441  20.774136
1.440  20.692476
1.439  20.777788
1.438  20.705079
1.437  20.744710
1.436  20.707345
1.435  20.774336
1.434  20.668730
1.433  20.727223
1.432  20.681935
1.431  20.691814
1.430  20.688509
1.429  20.677381
1.428  20.651725
1.427  20.697739
