Name: Brass plate
Type: Manmade materials
Class: Reflectance target
Subclass: 
Particle Size: Solid
Sample No.: SN: ILF-17464-2-1
Owner: JPL
Wavelength range: IR
Origin: Labsphere, P.O. Box 70, Shaker Street, North Sutton, NH 03260
(603) 927-4266
Description: Measurement made at center left. Field Brass 2.
Measured Oct. 30th 1997 to Nov. 2nd 1997.




Measurement: Hemispherical Reflectance
First Column: X
Second Column: Y
X Units: Wavelength (micrometers)
Y Units: Reflectence (percent)
First X Value: 15.3853
Last X Value: 2.00032
Number of X Values: 2256
Additional information: None.
 
15.3853	90.9359
15.3397	90.7133
15.2945	90.8771
15.2495	91.0917
15.2048	91.1277
15.1603	91.1726
15.1161	91.1937
15.0722	91.1588
15.0285	91.0412
14.9851	90.548
14.9419	90.6028
14.8989	90.946
14.8563	91.0864
14.8138	91.0394
14.7716	90.9247
14.7296	91.0203
14.6879	91.1802
14.6464	91.0985
14.6052	91.0066
14.5641	90.9694
14.5233	90.9975
14.4828	91.0294
14.4424	91.0718
14.4023	91.1024
14.3624	91.0184
14.3227	91.0445
14.2833	91.0179
14.244	90.8991
14.205	90.9537
14.1662	91.0228
14.1276	91.1142
14.0892	91.1939
14.051	91.0754
14.0131	90.978
13.9753	90.956
13.9377	90.9446
13.9004	91.0991
13.8632	91.1145
13.8262	90.9561
13.7895	90.9111
13.7529	90.942
13.7165	90.9732
13.6803	90.9655
13.6443	90.964
13.6085	91.1039
13.5729	91.193
13.5374	91.191
13.5022	90.8934
13.4671	90.7567
13.4322	90.8631
13.3975	90.8525
13.363	90.8592
13.3286	90.9819
13.2944	91.077
13.2604	91.0763
13.2266	90.9724
13.193	90.9212
13.1595	90.9805
13.1262	91.0445
13.093	90.9714
13.06	90.8003
13.0272	90.7711
12.9946	90.8492
12.9621	90.9437
12.9298	90.9674
12.8976	90.8743
12.8656	90.7987
12.8337	90.7798
12.8021	90.6997
12.7705	90.6404
12.7391	90.5947
12.7079	90.6021
12.6769	90.6232
12.6459	90.5511
12.6152	90.567
12.5845	90.5986
12.5541	90.6061
12.5238	90.5617
12.4936	90.544
12.4635	90.5694
12.4337	90.5695
12.4039	90.5544
12.3743	90.5972
12.3448	90.5978
12.3155	90.608
12.2863	90.5728
12.2573	90.5387
12.2284	90.6173
12.1996	90.582
12.171	90.5155
12.1425	90.499
12.1141	90.4393
12.0859	90.475
12.0578	90.5467
12.0298	90.5197
12.0019	90.4849
11.9742	90.5151
11.9466	90.5805
11.9192	90.5942
11.8918	90.5928
11.8646	90.5505
11.8375	90.5307
11.8106	90.5509
11.7837	90.4748
11.757	90.5309
11.7304	90.6946
11.7039	90.676
11.6776	90.4746
11.6513	90.4022
11.6252	90.5314
11.5992	90.5531
11.5733	90.5878
11.5475	90.6307
11.5219	90.6007
11.4963	90.6221
11.4709	90.5854
11.4455	90.5844
11.4203	90.6393
11.3952	90.6113
11.3702	90.5481
11.3454	90.5575
11.3206	90.562
11.2959	90.541
11.2714	90.5162
11.2469	90.5057
11.2226	90.4399
11.1983	90.3971
11.1742	90.2972
11.1502	90.3023
11.1263	90.4047
11.1024	90.4688
11.0787	90.3718
11.0551	90.3669
11.0316	90.4101
11.0081	90.3491
10.9848	90.2454
10.9616	90.2775
10.9385	90.3768
10.9154	90.4145
10.8925	90.4411
10.8697	90.3668
10.8469	90.3241
10.8243	90.2923
10.8017	90.1466
10.7793	90.1909
10.7569	90.3477
10.7346	90.4167
10.7125	90.3456
10.6904	90.2593
10.6684	90.2206
10.6465	90.2635
10.6247	90.2436
10.6029	90.186
10.5813	90.2428
10.5597	90.3095
10.5383	90.2653
10.5169	90.2459
10.4956	90.2299
10.4744	90.231
10.4533	90.2318
10.4323	90.241
10.4113	90.2081
10.3904	90.2018
10.3697	90.2586
10.349	90.2982
10.3284	90.2593
10.3078	90.2046
10.2874	90.1587
10.267	90.1409
10.2467	90.2231
10.2265	90.2979
10.2064	90.2787
10.1863	90.216
10.1663	90.1847
10.1464	90.177
10.1266	90.1985
10.1069	90.1385
10.0872	90.1363
10.0676	90.2487
10.0481	90.3089
10.0287	90.2271
10.0093	90.1365
9.99005	90.0741
9.97084	90.0104
9.95169	90.0898
9.93263	90.0755
9.91364	90.0011
9.89472	90.027
9.87587	90.0163
9.8571	89.9827
9.83839	90.0127
9.81976	90.0473
9.80119	90.007
9.78271	89.9652
9.76428	89.9799
9.74592	89.9899
9.72764	89.9474
9.70943	89.9573
9.69128	89.9486
9.6732	89.9972
9.65518	90.0434
9.63724	89.9736
9.61935	89.8317
9.60155	89.7909
9.5838	89.8597
9.56611	89.9166
9.5485	89.9511
9.53094	89.9611
9.51345	89.8623
9.49604	89.8337
9.47867	89.976
9.46137	89.9981
9.44414	89.9147
9.42697	89.8635
9.40986	89.8807
9.39281	89.9239
9.37583	89.9769
9.35891	90.0301
9.34204	89.982
9.32524	89.9051
9.3085	89.9189
9.29182	90.0081
9.27519	90.1158
9.25863	90.0933
9.24213	90.0738
9.22568	90.0294
9.2093	90.0468
9.19297	90.032
9.17669	89.9422
9.16048	89.9827
9.14433	90.1016
9.12823	90.127
9.11218	90.1515
9.0962	90.2264
9.08027	90.2617
9.06439	90.2962
9.04858	90.3595
9.03281	90.3649
9.0171	90.3639
9.00145	90.4013
8.98585	90.3917
8.9703	90.4218
8.9548	90.5094
8.93937	90.4653
8.92398	90.3824
8.90865	90.4563
8.89337	90.485
8.87814	90.4733
8.86296	90.4337
8.84784	90.3331
8.83277	90.2187
8.81774	90.1749
8.80277	90.3025
8.78786	90.3538
8.77298	90.3162
8.75816	90.3214
8.7434	90.3028
8.72868	90.1733
8.714	90.0908
8.69938	90.1621
8.68481	90.2718
8.67029	90.3422
8.65581	90.287
8.64139	90.1307
8.62701	90.1698
8.61268	90.3053
8.5984	90.3409
8.58416	90.3159
8.56997	90.2571
8.55583	90.2338
8.54174	90.2962
8.52769	90.3203
8.51368	90.3807
8.49973	90.4112
8.48582	90.3997
8.47195	90.3773
8.45813	90.3813
8.44436	90.346
8.43062	90.3497
8.41693	90.3304
8.4033	90.2906
8.3897	90.2838
8.37614	90.2586
8.36264	90.2561
8.34917	90.285
8.33574	90.3003
8.32236	90.3551
8.30903	90.3625
8.29573	90.3081
8.28248	90.2764
8.26927	90.2597
8.2561	90.2626
8.24298	90.2821
8.2299	90.2547
8.21685	90.2719
8.20385	90.2922
8.19089	90.26
8.17797	90.3278
8.16509	90.4178
8.15225	90.3343
8.13946	90.2243
8.1267	90.2775
8.11398	90.4074
8.10131	90.4703
8.08867	90.3435
8.07606	90.2505
8.0635	90.355
8.05099	90.4639
8.0385	90.4519
8.02606	90.405
8.01366	90.4634
8.00129	90.5608
7.98896	90.6681
7.97667	90.7315
7.96442	90.6805
7.9522	90.6557
7.94002	90.6954
7.92788	90.7642
7.91578	90.7666
7.90371	90.8422
7.89168	90.9944
7.87969	91.0065
7.86773	91.076
7.85581	91.1918
7.84392	91.1818
7.83207	91.1847
7.82026	91.2686
7.80849	91.3052
7.79674	91.3082
7.78503	91.317
7.77337	91.3532
7.76173	91.4365
7.75012	91.4886
7.73856	91.4992
7.72703	91.4993
7.71553	91.5013
7.70406	91.5115
7.69263	91.4933
7.68123	91.4804
7.66987	91.4937
7.65855	91.522
7.64725	91.5459
7.63598	91.5753
7.62475	91.6056
7.61356	91.6352
7.60239	91.6083
7.59126	91.601
7.58017	91.6313
7.5691	91.6073
7.55806	91.6025
7.54707	91.6327
7.5361	91.6854
7.52516	91.7067
7.51425	91.6597
7.50338	91.5828
7.49253	91.6398
7.48172	91.7427
7.47094	91.7499
7.46019	91.76
7.44947	91.7266
7.43879	91.7004
7.42813	91.7408
7.4175	91.7875
7.4069	91.8413
7.39634	91.8327
7.3858	91.7899
7.37529	91.7792
7.36482	91.8022
7.35437	91.7843
7.34396	91.7879
7.33357	91.7941
7.32321	91.7583
7.31288	91.7317
7.30258	91.7228
7.29231	91.7402
7.28207	91.7559
7.27185	91.7485
7.26167	91.747
7.25152	91.7155
7.24139	91.6638
7.23129	91.7004
7.22122	91.6716
7.21117	91.6749
7.20116	91.7181
7.19117	91.7355
7.18121	91.7039
7.17128	91.723
7.16137	91.6982
7.1515	91.7264
7.14164	91.7258
7.13182	91.6072
7.12203	91.6003
7.11225	91.6478
7.10251	91.6442
7.0928	91.6246
7.08311	91.6335
7.07344	91.6204
7.06381	91.6422
7.0542	91.7938
7.04461	91.8913
7.03506	91.7107
7.02552	91.7107
7.01601	91.8174
7.00653	91.8043
6.99708	91.8028
6.98765	91.7444
6.97824	91.7511
6.96886	91.9182
6.95951	92.066
6.95018	91.9442
6.94087	91.885
6.9316	91.8766
6.92234	91.8732
6.91311	91.878
6.90391	91.9278
6.89473	91.8352
6.88557	91.8307
6.87644	91.9332
6.86733	92.2385
6.85824	92.2124
6.84918	91.9439
6.84015	91.8403
6.83114	91.9061
6.82215	91.909
6.81319	91.798
6.80424	91.8412
6.79532	92.0418
6.78643	92.1191
6.77756	92.012
6.76871	91.9137
6.75989	91.7905
6.75109	91.755
6.74231	91.7856
6.73355	91.8557
6.72482	91.905
6.71611	91.9066
6.70742	91.9296
6.69875	91.8705
6.69011	91.8669
6.68149	91.9106
6.67289	91.8263
6.66431	91.7759
6.65576	91.7948
6.64722	91.9968
6.63871	92.2889
6.63022	92.1795
6.62175	91.9348
6.61331	91.8278
6.60488	91.8553
6.59648	91.9036
6.5881	91.8838
6.57974	91.9474
6.5714	92.0768
6.56308	91.9512
6.55478	91.9442
6.54651	91.9354
6.53825	91.8548
6.53001	91.854
6.5218	91.9641
6.51361	91.8874
6.50544	91.9246
6.49729	92.2275
6.48915	92.2538
6.48104	92.0575
6.47295	91.8322
6.46488	91.6694
6.45683	91.6346
6.4488	91.693
6.44079	91.8128
6.4328	91.8888
6.42482	91.9943
6.41687	92.2801
6.40894	92.1163
6.40103	91.7233
6.39314	91.6594
6.38526	91.6284
6.37741	91.6316
6.36957	91.6754
6.36176	91.5637
6.35396	91.569
6.34618	91.7307
6.33843	91.6021
6.33069	91.3867
6.32297	91.4213
6.31527	91.4992
6.30758	91.431
6.29992	91.3431
6.29227	91.3467
6.28465	91.2849
6.27704	91.1971
6.26945	91.1999
6.26188	91.2614
6.25432	91.2947
6.24679	91.2453
6.23927	91.2605
6.23177	91.2822
6.22429	91.2211
6.21683	91.2389
6.20938	91.3142
6.20195	91.336
6.19454	91.4226
6.18715	91.5934
6.17978	91.4168
6.17242	91.2592
6.16508	91.2631
6.15776	91.2331
6.15045	91.1587
6.14317	91.181
6.1359	91.2961
6.12864	91.4266
6.12141	91.569
6.11419	91.7455
6.10699	91.6644
6.0998	91.5923
6.09263	91.6131
6.08549	91.6614
6.07835	91.8203
6.07123	91.868
6.06413	91.7617
6.05705	92.0126
6.04998	92.434
6.04293	92.1334
6.0359	91.7824
6.02888	91.6938
6.02187	91.7846
6.01489	91.8729
6.00792	91.7806
6.00096	91.7405
5.99403	91.8612
5.98711	91.9573
5.9802	91.9446
5.97331	91.9512
5.96644	91.96
5.95958	91.8147
5.95274	91.7924
5.94591	91.9685
5.9391	92.3041
5.9323	92.1745
5.92552	91.8406
5.91876	91.7458
5.91201	91.8099
5.90528	91.9435
5.89856	92.1283
5.89186	92.0629
5.88517	92.1758
5.8785	92.2361
5.87184	91.8897
5.8652	91.8531
5.85857	91.8652
5.85196	91.8537
5.84536	91.809
5.83878	91.8122
5.83221	91.9336
5.82566	92.0782
5.81912	92.0142
5.81259	91.8181
5.80608	91.7445
5.79959	91.7268
5.79311	91.6655
5.78665	91.6635
5.78019	91.7437
5.77376	91.94
5.76734	92.2181
5.76093	92.0574
5.75453	91.869
5.74815	91.9226
5.74179	91.8436
5.73543	91.7734
5.7291	91.7407
5.72277	91.7529
5.71646	91.8405
5.71017	91.8451
5.70389	91.7122
5.69762	91.7015
5.69136	91.7458
5.68513	91.6575
5.6789	91.6725
5.67268	91.6707
5.66648	91.6073
5.6603	91.6659
5.65413	91.7169
5.64797	91.7387
5.64182	91.7933
5.63569	91.6847
5.62957	91.633
5.62347	91.6105
5.61737	91.6285
5.61129	91.624
5.60522	91.6365
5.59917	91.623
5.59313	91.6102
5.5871	91.6827
5.58109	91.7907
5.57509	91.7495
5.5691	91.6627
5.56312	91.6718
5.55716	91.6303
5.55121	91.6016
5.54528	91.5791
5.53935	91.563
5.53344	91.5481
5.52754	91.5494
5.52166	91.5851
5.51578	91.5593
5.50992	91.5288
5.50407	91.5416
5.49823	91.5208
5.49241	91.5533
5.4866	91.5687
5.4808	91.5674
5.47501	91.5839
5.46923	91.6158
5.46347	91.6208
5.45772	91.5315
5.45198	91.5098
5.44625	91.4954
5.44054	91.4712
5.43484	91.4843
5.42914	91.5493
5.42347	91.6331
5.4178	91.6316
5.41214	91.5545
5.4065	91.491
5.40087	91.4712
5.39525	91.4692
5.38964	91.5085
5.38404	91.5383
5.37846	91.5126
5.37288	91.4726
5.36732	91.4646
5.36177	91.4562
5.35623	91.4754
5.35071	91.4593
5.34519	91.4063
5.33968	91.4071
5.33419	91.4573
5.32871	91.5081
5.32324	91.532
5.31778	91.5322
5.31233	91.49
5.30689	91.4368
5.30147	91.3996
5.29605	91.4383
5.29065	91.4535
5.28525	91.4534
5.27987	91.5117
5.2745	91.5281
5.26914	91.5236
5.26379	91.5071
5.25845	91.4961
5.25312	91.4617
5.24781	91.4736
5.2425	91.5083
5.23721	91.4939
5.23192	91.4324
5.22665	91.4143
5.22138	91.4769
5.21613	91.5839
5.21089	91.5818
5.20566	91.5584
5.20044	91.5501
5.19522	91.5239
5.19002	91.5157
5.18483	91.5017
5.17965	91.4831
5.17448	91.4882
5.16933	91.4842
5.16418	91.5076
5.15904	91.5048
5.15391	91.4727
5.14879	91.4994
5.14368	91.5332
5.13859	91.5334
5.1335	91.5382
5.12842	91.5396
5.12335	91.4926
5.1183	91.5219
5.11325	91.5549
5.10821	91.5729
5.10318	91.6113
5.09817	91.5972
5.09316	91.5085
5.08816	91.5089
5.08317	91.5309
5.07819	91.5044
5.07322	91.5083
5.06826	91.5386
5.06331	91.563
5.05837	91.5402
5.05344	91.5189
5.04852	91.5351
5.04361	91.5494
5.03871	91.5432
5.03382	91.5454
5.02894	91.5432
5.02406	91.5279
5.0192	91.5348
5.01435	91.5386
5.0095	91.5057
5.00467	91.4865
4.99984	91.5406
4.99502	91.5334
4.99021	91.5044
4.98542	91.5312
4.98063	91.5254
4.97585	91.4838
4.97108	91.5151
4.96632	91.5698
4.96156	91.5804
4.95682	91.5664
4.95209	91.5723
4.94736	91.5888
4.94264	91.5431
4.93794	91.514
4.93324	91.5249
4.92855	91.5291
4.92387	91.5443
4.9192	91.54
4.91453	91.5533
4.90988	91.5613
4.90524	91.5639
4.9006	91.5681
4.89597	91.5423
4.89135	91.5282
4.88674	91.6063
4.88214	91.5928
4.87755	91.5928
4.87296	91.6007
4.86839	91.5679
4.86382	91.5288
4.85926	91.5308
4.85471	91.5935
4.85017	91.6003
4.84564	91.5233
4.84111	91.4865
4.8366	91.558
4.83209	91.6381
4.82759	91.5983
4.8231	91.5573
4.81862	91.5146
4.81415	91.4967
4.80968	91.5802
4.80522	91.6213
4.80077	91.5724
4.79633	91.5605
4.7919	91.5867
4.78747	91.6342
4.78306	91.6369
4.77865	91.6186
4.77425	91.5839
4.76986	91.5512
4.76547	91.5087
4.7611	91.495
4.75673	91.5776
4.75237	91.606
4.74802	91.575
4.74367	91.5555
4.73934	91.5627
4.73501	91.609
4.73069	91.589
4.72638	91.5061
4.72207	91.5456
4.71777	91.5932
4.71348	91.5449
4.7092	91.5734
4.70493	91.6216
4.70066	91.6055
4.69641	91.5666
4.69216	91.5327
4.68791	91.5026
4.68368	91.5277
4.67945	91.544
4.67523	91.5797
4.67102	91.6157
4.66682	91.5961
4.66262	91.5568
4.65843	91.5414
4.65425	91.5582
4.65007	91.5963
4.64591	91.569
4.64175	91.5626
4.6376	91.6068
4.63345	91.5628
4.62932	91.5437
4.62519	91.545
4.62106	91.5463
4.61695	91.5434
4.61284	91.5061
4.60874	91.501
4.60465	91.6057
4.60056	91.6126
4.59648	91.5605
4.59241	91.6343
4.58835	91.5827
4.58429	91.5175
4.58024	91.585
4.5762	91.5765
4.57216	91.5381
4.56814	91.5252
4.56411	91.4954
4.5601	91.5095
4.55609	91.5599
4.55209	91.5439
4.5481	91.5703
4.54411	91.5932
4.54013	91.5328
4.53616	91.5145
4.5322	91.5311
4.52824	91.4924
4.52429	91.5266
4.52034	91.6629
4.51641	91.6911
4.51247	91.5885
4.50855	91.5415
4.50463	91.5575
4.50072	91.5673
4.49682	91.5766
4.49292	91.5369
4.48903	91.4981
4.48515	91.504
4.48127	91.4535
4.4774	91.5031
4.47354	91.5751
4.46968	91.4966
4.46584	91.5009
4.46199	91.52
4.45815	91.5071
4.45432	91.5163
4.4505	91.5488
4.44668	91.5611
4.44287	91.5457
4.43907	91.5098
4.43527	91.5287
4.43148	91.5429
4.4277	91.5412
4.42392	91.5806
4.42015	91.5498
4.41638	91.5512
4.41262	91.537
4.40887	91.4686
4.40513	91.4728
4.40139	91.4843
4.39765	91.484
4.39393	91.4817
4.39021	91.4716
4.38649	91.4957
4.38278	91.525
4.37908	91.5254
4.37539	91.5274
4.3717	91.5509
4.36801	91.532
4.36434	91.4629
4.36067	91.4603
4.357	91.4908
4.35335	91.4822
4.34969	91.4239
4.34605	91.3952
4.34241	91.4081
4.33877	91.3825
4.33514	91.3343
4.33152	91.3318
4.32791	91.2851
4.3243	91.2344
4.32069	91.2214
4.3171	91.1597
4.31351	91.0994
4.30992	91.0477
4.30634	90.9202
4.30277	90.8377
4.2992	90.7549
4.29564	90.6285
4.29208	90.5371
4.28853	90.5132
4.28499	90.5286
4.28145	90.5221
4.27792	90.4772
4.27439	90.4429
4.27087	90.4837
4.26735	90.6635
4.26384	90.8045
4.26034	90.9884
4.25684	91.1614
4.25335	91.0486
4.24986	90.7846
4.24638	90.4588
4.24291	90.1661
4.23944	90.0627
4.23598	90.0689
4.23252	90.0206
4.22906	89.9841
4.22562	90.1136
4.22218	90.3541
4.21874	90.5912
4.21531	90.8226
4.21189	91.0637
4.20847	91.2305
4.20506	91.3176
4.20165	91.4017
4.19825	91.4664
4.19485	91.46
4.19146	91.4502
4.18807	91.4662
4.18469	91.4474
4.18132	91.4096
4.17795	91.4202
4.17458	91.456
4.17123	91.4713
4.16787	91.4882
4.16453	91.5334
4.16118	91.5507
4.15785	91.5384
4.15451	91.515
4.15119	91.5234
4.14787	91.5454
4.14455	91.5084
4.14124	91.4424
4.13794	91.4166
4.13464	91.4489
4.13134	91.4978
4.12805	91.4887
4.12477	91.5031
4.12149	91.5502
4.11822	91.566
4.11495	91.4855
4.11168	91.4161
4.10843	91.4091
4.10517	91.4241
4.10192	91.4645
4.09868	91.4764
4.09545	91.4545
4.09221	91.4819
4.08899	91.5439
4.08576	91.5495
4.08255	91.5205
4.07933	91.509
4.07613	91.4226
4.07292	91.3253
4.06973	91.343
4.06654	91.4168
4.06335	91.4775
4.06017	91.5186
4.05699	91.5039
4.05382	91.4999
4.05065	91.5224
4.04749	91.5605
4.04433	91.5541
4.04118	91.4494
4.03803	91.426
4.03489	91.5076
4.03175	91.501
4.02862	91.4735
4.02549	91.4728
4.02237	91.4236
4.01925	91.4479
4.01614	91.4692
4.01303	91.4681
4.00993	91.4329
4.00683	91.4599
4.00373	91.5099
4.00064	91.5044
3.99756	91.4999
3.99448	91.5227
3.9914	91.5112
3.98833	91.5082
3.98527	91.4957
3.98221	91.4779
3.97915	91.4378
3.9761	91.4514
3.97305	91.491
3.97001	91.4998
3.96697	91.5087
3.96394	91.4619
3.96091	91.4663
3.95789	91.4973
3.95487	91.4499
3.95186	91.447
3.94885	91.4905
3.94584	91.5124
3.94284	91.5384
3.93984	91.5295
3.93685	91.5072
3.93386	91.4798
3.93088	91.4385
3.9279	91.408
3.92493	91.4405
3.92196	91.5084
3.919	91.5222
3.91604	91.5033
3.91308	91.5117
3.91013	91.502
3.90718	91.3863
3.90424	91.3236
3.9013	91.3971
3.89837	91.4908
3.89544	91.4805
3.89252	91.5049
3.8896	91.5501
3.88668	91.5176
3.88377	91.478
3.88086	91.448
3.87796	91.4123
3.87506	91.4014
3.87217	91.4002
3.86928	91.463
3.86639	91.468
3.86351	91.3777
3.86064	91.3596
3.85776	91.3727
3.8549	91.3551
3.85203	91.4824
3.84917	91.5108
3.84631	91.4101
3.84346	91.3901
3.84062	91.4179
3.83777	91.3864
3.83494	91.4096
3.8321	91.4558
3.82927	91.4512
3.82644	91.4163
3.82362	91.3594
3.82081	91.3653
3.81799	91.3882
3.81518	91.4091
3.81238	91.411
3.80958	91.4144
3.80678	91.4417
3.80399	91.5137
3.8012	91.5571
3.79841	91.4906
3.79563	91.4761
3.79286	91.4461
3.79008	91.3988
3.78731	91.4359
3.78455	91.4308
3.78179	91.4162
3.77903	91.416
3.77628	91.4191
3.77353	91.4265
3.77079	91.4729
3.76805	91.4895
3.76531	91.4637
3.76258	91.4406
3.75985	91.398
3.75713	91.3933
3.7544	91.4362
3.75169	91.448
3.74898	91.4082
3.74627	91.3681
3.74356	91.3977
3.74086	91.4422
3.73816	91.4782
3.73547	91.4569
3.73278	91.4657
3.7301	91.4355
3.72741	91.3495
3.72474	91.3458
3.72206	91.3568
3.71939	91.3935
3.71673	91.4399
3.71406	91.416
3.71141	91.4132
3.70875	91.4023
3.7061	91.4266
3.70345	91.492
3.70081	91.5088
3.69817	91.4859
3.69553	91.4682
3.6929	91.4631
3.69027	91.4287
3.68765	91.4444
3.68503	91.4584
3.68241	91.4605
3.6798	91.4618
3.67719	91.401
3.67458	91.4094
3.67198	91.4115
3.66938	91.368
3.66678	91.3598
3.66419	91.3961
3.66161	91.4423
3.65902	91.4635
3.65644	91.4376
3.65387	91.4339
3.65129	91.4331
3.64872	91.4025
3.64616	91.374
3.64359	91.4179
3.64103	91.4364
3.63848	91.4264
3.63593	91.3677
3.63338	91.3293
3.63084	91.3424
3.6283	91.4093
3.62576	91.4275
3.62322	91.453
3.62069	91.489
3.61817	91.4312
3.61564	91.4709
3.61312	91.5873
3.61061	91.5503
3.6081	91.4323
3.60559	91.4175
3.60308	91.4113
3.60058	91.339
3.59808	91.3569
3.59558	91.4174
3.59309	91.4623
3.59061	91.4419
3.58812	91.3822
3.58564	91.365
3.58316	91.3763
3.58069	91.4061
3.57822	91.4812
3.57575	91.4892
3.57328	91.3894
3.57082	91.3323
3.56836	91.3529
3.56591	91.4473
3.56346	91.4686
3.56101	91.4776
3.55857	91.489
3.55613	91.4752
3.55369	91.4462
3.55126	91.4078
3.54883	91.374
3.5464	91.384
3.54397	91.4311
3.54155	91.4304
3.53914	91.409
3.53672	91.3963
3.53431	91.3859
3.5319	91.4103
3.5295	91.4083
3.5271	91.3759
3.5247	91.4529
3.52231	91.5254
3.51991	91.5317
3.51753	91.5727
3.51514	91.57
3.51276	91.6248
3.51038	91.6824
3.50801	91.608
3.50563	91.514
3.50327	91.5079
3.5009	91.5274
3.49854	91.5428
3.49618	91.5344
3.49382	91.5477
3.49147	91.5169
3.48912	91.4977
3.48677	91.5001
3.48443	91.4751
3.48209	91.4757
3.47975	91.4578
