Name: Quartz SiO_2
Type: Mineral
Class: Silicates
Subclass: Tectosilicates
Particle Size: 45-125um
Sample No.: TS-1A
Owner: JPL
Wavelength range: VNIR-SWIR
Origin: USA, Arkansas, Montgomery County, Mount Ida.
Collected by:  Burminco
Description: Rock crystal





Measurement: Hemispherical reflectance
First Column: X
Second Column: Y
X Units: Wavelength (micrometers)
Y Units: Reflectance (percent)
First X Value: 2.500
Last X Value: 0.400
Number of X Values: 2101
Additional information: ts01aa.txt

2.500  83.169552
2.499  82.975542
2.498  82.986623
2.497  82.955915
2.496  83.145312
2.495  83.134559
2.494  82.792929
2.493  82.885595
2.492  82.752277
2.491  83.115067
2.490  83.015287
2.489  82.986057
2.488  83.001289
2.487  83.030548
2.486  82.851156
2.485  83.120984
2.484  82.998958
2.483  82.939843
2.482  83.220086
2.481  83.092986
2.480  83.118787
2.479  83.046169
2.478  83.128036
2.477  83.191692
2.476  83.079506
2.475  83.069561
2.474  82.979674
2.473  82.933036
2.472  82.960755
2.471  83.118301
2.470  83.156176
2.469  83.139556
2.468  83.155277
2.467  83.248534
2.466  83.255647
2.465  83.257814
2.464  83.244742
2.463  83.387469
2.462  83.320364
2.461  83.258675
2.460  83.415152
2.459  83.426773
2.458  83.339990
2.457  83.408592
2.456  83.388467
2.455  83.433018
2.454  83.372640
2.453  83.359987
2.452  83.399221
2.451  83.388077
2.450  83.474343
2.449  83.561105
2.448  83.579706
2.447  83.592964
2.446  83.573796
2.445  83.581349
2.444  83.628608
2.443  83.616100
2.442  83.582415
2.441  83.645946
2.440  83.734032
2.439  83.725445
2.438  83.644627
2.437  83.803336
2.436  83.703895
2.435  83.721398
2.434  83.706933
2.433  83.755914
2.432  83.716685
2.431  83.818255
2.430  83.859162
2.429  83.795145
2.428  83.945110
2.427  83.854964
2.426  83.880098
2.425  83.873158
2.424  83.843425
2.423  83.812664
2.422  83.838420
2.421  83.847595
2.420  83.990542
2.419  84.062605
2.418  83.997083
2.417  84.097108
2.416  84.130286
2.415  84.067487
2.414  84.105037
2.413  84.058159
2.412  84.138158
2.411  84.212184
2.410  84.158919
2.409  84.210676
2.408  84.237880
2.407  84.181489
2.406  84.125088
2.405  84.107851
2.404  84.203625
2.403  84.267963
2.402  84.277512
2.401  84.237508
2.400  84.208333
2.399  84.258138
2.398  84.325082
2.397  84.307298
2.396  84.267538
2.395  84.241028
2.394  84.280343
2.393  84.390145
2.392  84.347493
2.391  84.409861
2.390  84.406599
2.389  84.373816
2.388  84.420102
2.387  84.412761
2.386  84.433337
2.385  84.546714
2.384  84.484572
2.383  84.471384
2.382  84.520691
2.381  84.557131
2.380  84.527919
2.379  84.595797
2.378  84.555996
2.377  84.532412
2.376  84.568133
2.375  84.616256
2.374  84.708943
2.373  84.788367
2.372  84.767082
2.371  84.652556
2.370  84.688752
2.369  84.752072
2.368  84.727149
2.367  84.714183
2.366  84.764947
2.365  84.859671
2.364  84.912494
2.363  84.919155
2.362  84.848995
2.361  84.877849
2.360  84.925820
2.359  84.927590
2.358  84.935769
2.357  84.928228
2.356  84.914020
2.355  84.948016
2.354  84.958241
2.353  85.006367
2.352  85.061875
2.351  85.043796
2.350  85.068959
2.349  85.054567
2.348  85.056858
2.347  85.028041
2.346  85.030734
2.345  85.060357
2.344  85.041703
2.343  85.049539
2.342  85.097231
2.341  85.094914
2.340  85.051648
2.339  85.011225
2.338  85.056367
2.337  85.104347
2.336  85.000108
2.335  84.969369
2.334  85.036488
2.333  85.039486
2.332  85.073714
2.331  85.052674
2.330  85.046197
2.329  85.081599
2.328  85.101876
2.327  85.088588
2.326  85.084169
2.325  85.047985
2.324  85.030627
2.323  85.001229
2.322  85.077690
2.321  85.082531
2.320  85.061320
2.319  85.027926
2.318  84.975541
2.317  85.038278
2.316  85.057920
2.315  84.961367
2.314  85.019268
2.313  84.998519
2.312  85.034420
2.311  84.988115
2.310  84.968646
2.309  84.979683
2.308  84.951893
2.307  84.964843
2.306  84.964711
2.305  85.008006
2.304  85.005472
2.303  84.991833
2.302  85.024118
2.301  85.019717
2.300  85.033221
2.299  85.013410
2.298  85.033321
2.297  85.003285
2.296  85.006508
2.295  84.968117
2.294  85.013544
2.293  84.994079
2.292  84.960013
2.291  84.986837
2.290  84.979234
2.289  84.955238
2.288  84.932986
2.287  85.030514
2.286  84.958051
2.285  84.971507
2.284  84.974348
2.283  84.968572
2.282  84.890652
2.281  84.987132
2.280  84.974370
2.279  84.911602
2.278  84.954229
2.277  84.937622
2.276  84.876074
2.275  84.904196
2.274  84.923778
2.273  84.889281
2.272  84.866071
2.271  84.873288
2.270  84.916916
2.269  84.868027
2.268  84.906047
2.267  84.870703
2.266  84.823573
2.265  84.955341
2.264  84.937163
2.263  84.967690
2.262  84.918814
2.261  84.941512
2.260  84.942208
2.259  84.893254
2.258  84.800799
2.257  84.855612
2.256  84.954335
2.255  84.924689
2.254  84.858741
2.253  84.936095
2.252  84.994780
2.251  84.973916
2.250  84.909737
2.249  84.901012
2.248  84.903371
2.247  84.879479
2.246  84.920067
2.245  84.873848
2.244  84.904140
2.243  84.945640
2.242  84.913386
2.241  84.906656
2.240  84.926003
2.239  84.853989
2.238  84.963823
2.237  85.001672
2.236  84.923396
2.235  84.950865
2.234  84.902491
2.233  84.958366
2.232  84.944295
2.231  85.006772
2.230  84.924627
2.229  84.978901
2.228  84.960381
2.227  84.991126
2.226  85.028574
2.225  84.958742
2.224  85.069603
2.223  84.976392
2.222  85.028461
2.221  84.940959
2.220  84.951200
2.219  85.040885
2.218  84.974640
2.217  85.005566
2.216  85.005289
2.215  85.059032
2.214  84.989297
2.213  85.058134
2.212  85.117892
2.211  85.128848
2.210  85.141503
2.209  85.086031
2.208  85.157670
2.207  85.066810
2.206  85.169640
2.205  85.270277
2.204  85.322640
2.203  85.321871
2.202  85.319119
2.201  85.375333
2.200  85.273174
2.199  85.294349
2.198  85.342261
2.197  85.357132
2.196  85.487032
2.195  85.349237
2.194  85.443213
2.193  85.446718
2.192  85.423408
2.191  85.464967
2.190  85.374949
2.189  85.449201
2.188  85.583042
2.187  85.525408
2.186  85.575363
2.185  85.608418
2.184  85.638289
2.183  85.656933
2.182  85.636034
2.181  85.661485
2.180  85.720541
2.179  85.698130
2.178  85.699071
2.177  85.770954
2.176  85.810511
2.175  85.714576
2.174  85.821388
2.173  85.819508
2.172  85.923528
2.171  85.940782
2.170  85.949117
2.169  86.023963
2.168  86.059675
2.167  86.081231
2.166  86.052543
2.165  86.039913
2.164  86.102332
2.163  86.108780
2.162  86.251350
2.161  86.130387
2.160  86.240787
2.159  86.226127
2.158  86.179632
2.157  86.260046
2.156  86.342237
2.155  86.346998
2.154  86.341406
2.153  86.390069
2.152  86.388554
2.151  86.438279
2.150  86.395039
2.149  86.429324
2.148  86.498752
2.147  86.510074
2.146  86.481637
2.145  86.513489
2.144  86.461776
2.143  86.459669
2.142  86.538484
2.141  86.493008
2.140  86.430846
2.139  86.478140
2.138  86.490735
2.137  86.341022
2.136  86.389588
2.135  86.384515
2.134  86.372012
2.133  86.339158
2.132  86.363835
2.131  86.262203
2.130  86.242417
2.129  86.244188
2.128  86.240024
2.127  86.164513
2.126  86.168934
2.125  86.070999
2.124  86.075515
2.123  86.028972
2.122  85.988546
2.121  85.927541
2.120  85.895740
2.119  85.800807
2.118  85.772525
2.117  85.790670
2.116  85.726934
2.115  85.720876
2.114  85.616091
2.113  85.588375
2.112  85.602185
2.111  85.524685
2.110  85.399771
2.109  85.350037
2.108  85.328933
2.107  85.290503
2.106  85.246684
2.105  85.230635
2.104  85.207841
2.103  85.165349
2.102  85.126833
2.101  85.012183
2.100  84.958357
2.099  85.001930
2.098  85.087933
2.097  85.094977
2.096  85.111273
2.095  85.123926
2.094  85.108839
2.093  85.097152
2.092  85.109356
2.091  85.095429
2.090  85.087483
2.089  85.186345
2.088  85.189841
2.087  85.164715
2.086  85.151909
2.085  85.174545
2.084  85.214599
2.083  85.149367
2.082  85.173937
2.081  85.284213
2.080  85.313409
2.079  85.305997
2.078  85.325291
2.077  85.336057
2.076  85.300000
2.075  85.298221
2.074  85.361673
2.073  85.406588
2.072  85.302926
2.071  85.269381
2.070  85.328490
2.069  85.402847
2.068  85.423223
2.067  85.426698
2.066  85.440685
2.065  85.418869
2.064  85.446145
2.063  85.486820
2.062  85.482235
2.061  85.494499
2.060  85.534746
2.059  85.577589
2.058  85.564901
2.057  85.586230
2.056  85.602405
2.055  85.586126
2.054  85.628350
2.053  85.627012
2.052  85.612471
2.051  85.652523
2.050  85.674555
2.049  85.646290
2.048  85.613778
2.047  85.690381
2.046  85.719377
2.045  85.731826
2.044  85.733044
2.043  85.721673
2.042  85.694513
2.041  85.753839
2.040  85.738850
2.039  85.732809
2.038  85.798114
2.037  85.714723
2.036  85.707450
2.035  85.779076
2.034  85.837852
2.033  85.842529
2.032  85.744533
2.031  85.783203
2.030  85.801259
2.029  85.770609
2.028  85.722924
2.027  85.761835
2.026  85.778545
2.025  85.804923
2.024  85.799986
2.023  85.777142
2.022  85.812715
2.021  85.859547
2.020  85.816147
2.019  85.837249
2.018  85.863920
2.017  85.764845
2.016  85.766224
2.015  85.814318
2.014  85.780737
2.013  85.762744
2.012  85.758965
2.011  85.735586
2.010  85.729780
2.009  85.777334
2.008  85.761079
2.007  85.749036
2.006  85.802640
2.005  85.749809
2.004  85.762046
2.003  85.776387
2.002  85.832578
2.001  85.804582
2.000  85.729141
1.999  85.692207
1.998  85.755424
1.997  85.792897
1.996  85.643130
1.995  85.655367
1.994  85.675887
1.993  85.605570
1.992  85.578573
1.991  85.586829
1.990  85.551835
1.989  85.570470
1.988  85.494636
1.987  85.530014
1.986  85.534720
1.985  85.499428
1.984  85.407026
1.983  85.445542
1.982  85.491823
1.981  85.494801
1.980  85.434345
1.979  85.395928
1.978  85.408707
1.977  85.371866
1.976  85.389565
1.975  85.389487
1.974  85.379954
1.973  85.390292
1.972  85.350404
1.971  85.364042
1.970  85.400428
1.969  85.306292
1.968  85.190193
1.967  85.182229
1.966  85.319076
1.965  85.289907
1.964  85.364233
1.963  85.351674
1.962  85.289680
1.961  85.185962
1.960  85.290807
1.959  85.296713
1.958  85.200716
1.957  85.164544
1.956  85.305827
1.955  85.241607
1.954  85.280661
1.953  85.220591
1.952  85.241651
1.951  85.205220
1.950  85.235189
1.949  85.214426
1.948  85.198040
1.947  85.203810
1.946  85.170334
1.945  85.183194
1.944  85.220514
1.943  85.255550
1.942  85.262611
1.941  85.214889
1.940  85.118844
1.939  85.232146
1.938  85.245060
1.937  85.234881
1.936  85.172843
1.935  85.229670
1.934  85.242134
1.933  85.119935
1.932  85.212643
1.931  85.296447
1.930  85.292450
1.929  85.276037
1.928  85.319697
1.927  85.343361
1.926  85.281407
1.925  85.341970
1.924  85.313439
1.923  85.376308
1.922  85.284093
1.921  85.295381
1.920  85.286595
1.919  85.247216
1.918  85.444823
1.917  85.322134
1.916  85.326829
1.915  85.430599
1.914  85.416607
1.913  85.515163
1.912  85.514159
1.911  85.495903
1.910  85.443143
1.909  85.422139
1.908  85.401542
1.907  85.427715
1.906  85.543190
1.905  85.605637
1.904  85.650505
1.903  85.628392
1.902  85.650768
1.901  85.669879
1.900  85.589019
1.899  85.705396
1.898  85.688875
1.897  85.780503
1.896  85.752843
1.895  85.790563
1.894  85.798184
1.893  85.828604
1.892  85.837631
1.891  85.873352
1.890  85.851675
1.889  85.910871
1.888  85.950716
1.887  85.962404
1.886  85.962290
1.885  85.989604
1.884  85.973298
1.883  85.979970
1.882  86.035049
1.881  86.155933
1.880  86.137671
1.879  86.132941
1.878  86.153372
1.877  86.137249
1.876  86.066389
1.875  86.100754
1.874  86.132452
1.873  86.144005
1.872  86.116063
1.871  86.217697
1.870  86.164223
1.869  86.171230
1.868  86.152386
1.867  86.131462
1.866  86.150285
1.865  86.194777
1.864  86.193801
1.863  86.216843
1.862  86.154800
1.861  86.210535
1.860  86.174422
1.859  86.225047
1.858  86.266630
1.857  86.260582
1.856  86.181587
1.855  86.270200
1.854  86.295117
1.853  86.317452
1.852  86.321800
1.851  86.305770
1.850  86.231577
1.849  86.210430
1.848  86.323738
1.847  86.339225
1.846  86.242360
1.845  86.240958
1.844  86.306548
1.843  86.277164
1.842  86.336150
1.841  86.278752
1.840  86.226914
1.839  86.275650
1.838  86.288495
1.837  86.329103
1.836  86.291286
1.835  86.252423
1.834  86.275851
1.833  86.241203
1.832  86.297621
1.831  86.294253
1.830  86.234554
1.829  86.266020
1.828  86.234995
1.827  86.312622
1.826  86.251003
1.825  86.271144
1.824  86.294674
1.823  86.274485
1.822  86.348753
1.821  86.326298
1.820  86.364152
1.819  86.361836
1.818  86.339287
1.817  86.305109
1.816  86.270279
1.815  86.258783
1.814  86.317326
1.813  86.294902
1.812  86.270378
1.811  86.363245
1.810  86.323204
1.809  86.307805
1.808  86.296357
1.807  86.311252
1.806  86.360261
1.805  86.359977
1.804  86.359609
1.803  86.345238
1.802  86.384809
1.801  86.411696
1.800  86.372608
1.799  86.335142
1.798  86.320407
1.797  86.342518
1.796  86.350693
1.795  86.295544
1.794  86.325769
1.793  86.337834
1.792  86.297986
1.791  86.346387
1.790  86.376508
1.789  86.294163
1.788  86.215337
1.787  86.252708
1.786  86.291074
1.785  86.299388
1.784  86.291777
1.783  86.270891
1.782  86.251464
1.781  86.272070
1.780  86.296283
1.779  86.274259
1.778  86.269882
1.777  86.227907
1.776  86.238691
1.775  86.290617
1.774  86.236173
1.773  86.238391
1.772  86.238921
1.771  86.236617
1.770  86.237599
1.769  86.272413
1.768  86.256399
1.767  86.198170
1.766  86.172707
1.765  86.155135
1.764  86.226727
1.763  86.234399
1.762  86.210055
1.761  86.233784
1.760  86.242894
1.759  86.248489
1.758  86.217564
1.757  86.239012
1.756  86.252051
1.755  86.249618
1.754  86.264477
1.753  86.248808
1.752  86.219968
1.751  86.190683
1.750  86.233899
1.749  86.300430
1.748  86.280969
1.747  86.233203
1.746  86.222666
1.745  86.280638
1.744  86.306018
1.743  86.310122
1.742  86.274585
1.741  86.219118
1.740  86.280140
1.739  86.318072
1.738  86.309316
1.737  86.357117
1.736  86.369355
1.735  86.352656
1.734  86.326026
1.733  86.343228
1.732  86.277510
1.731  86.318670
1.730  86.260105
1.729  86.297104
1.728  86.266316
1.727  86.269471
1.726  86.294031
1.725  86.305269
1.724  86.410905
1.723  86.350777
1.722  86.351008
1.721  86.287395
1.720  86.335886
1.719  86.367536
1.718  86.339750
1.717  86.368653
1.716  86.329075
1.715  86.302460
1.714  86.368404
1.713  86.387887
1.712  86.290225
1.711  86.304262
1.710  86.266932
1.709  86.332875
1.708  86.334841
1.707  86.266148
1.706  86.263005
1.705  86.306401
1.704  86.304841
1.703  86.346170
1.702  86.293250
1.701  86.269661
1.700  86.283417
1.699  86.308111
1.698  86.349360
1.697  86.318663
1.696  86.300177
1.695  86.259194
1.694  86.323004
1.693  86.296891
1.692  86.298078
1.691  86.290307
1.690  86.285378
1.689  86.242663
1.688  86.255224
1.687  86.172607
1.686  86.285720
1.685  86.245306
1.684  86.233524
1.683  86.210608
1.682  86.282044
1.681  86.240639
1.680  86.331806
1.679  86.259264
1.678  86.290583
1.677  86.294202
1.676  86.294057
1.675  86.273013
1.674  86.284590
1.673  86.193107
1.672  86.229874
1.671  86.183785
1.670  86.208446
1.669  86.287808
1.668  86.221842
1.667  86.285644
1.666  86.270659
1.665  86.289275
1.664  86.265242
1.663  86.202663
1.662  86.303005
1.661  86.321436
1.660  86.297989
1.659  86.201769
1.658  86.210539
1.657  86.250714
1.656  86.300373
1.655  86.135746
1.654  86.295507
1.653  86.171088
1.652  86.298868
1.651  86.246090
1.650  86.197992
1.649  86.273189
1.648  86.246761
1.647  86.141574
1.646  86.173888
1.645  86.200420
1.644  86.275978
1.643  86.181401
1.642  86.250075
1.641  86.330526
1.640  86.244308
1.639  86.158913
1.638  86.223329
1.637  86.221104
1.636  86.275938
1.635  86.203619
1.634  86.247507
1.633  86.248552
1.632  86.176710
1.631  86.192293
1.630  86.274784
1.629  86.268003
1.628  86.177445
1.627  86.163150
1.626  86.260976
1.625  86.230732
1.624  86.263363
1.623  86.154406
1.622  86.214195
1.621  86.164617
1.620  86.218773
1.619  86.250376
1.618  86.146707
1.617  86.205650
1.616  86.161612
1.615  86.299927
1.614  86.214078
1.613  86.226656
1.612  86.208303
1.611  86.245788
1.610  86.231489
1.609  86.173455
1.608  86.182418
1.607  86.162838
1.606  86.249276
1.605  86.208706
1.604  86.152049
1.603  86.226064
1.602  86.225391
1.601  86.258010
1.600  86.286958
1.599  86.269923
1.598  86.299702
1.597  86.241376
1.596  86.187018
1.595  86.285455
1.594  86.292353
1.593  86.166994
1.592  86.196407
1.591  86.252869
1.590  86.243572
1.589  86.176585
1.588  86.211973
1.587  86.206984
1.586  86.225566
1.585  86.188268
1.584  86.215779
1.583  86.171593
1.582  86.238605
1.581  86.148266
1.580  86.250265
1.579  86.185401
1.578  86.228719
1.577  86.235618
1.576  86.256537
1.575  86.161910
1.574  86.105151
1.573  86.137837
1.572  86.240842
1.571  86.149934
1.570  86.153503
1.569  86.161566
1.568  86.129702
1.567  86.149181
1.566  86.147222
1.565  86.157923
1.564  86.204462
1.563  86.163738
1.562  86.182460
1.561  86.194491
1.560  86.143787
1.559  86.167581
1.558  86.107478
1.557  86.157343
1.556  86.188913
1.555  86.183383
1.554  86.180999
1.553  86.214580
1.552  86.149715
1.551  86.044459
1.550  86.064170
1.549  86.057002
1.548  86.065879
1.547  86.047167
1.546  86.101727
1.545  86.107657
1.544  86.069968
1.543  86.059362
1.542  86.099664
1.541  86.109674
1.540  86.077483
1.539  86.051985
1.538  86.114442
1.537  86.086043
1.536  86.060256
1.535  86.084546
1.534  86.138971
1.533  86.115181
1.532  86.073465
1.531  86.046935
1.530  86.072561
1.529  86.061155
1.528  86.061124
1.527  86.029646
1.526  86.105001
1.525  86.114092
1.524  86.080218
1.523  86.083992
1.522  86.068202
1.521  86.113809
1.520  86.072931
1.519  85.995394
1.518  86.033419
1.517  86.040343
1.516  86.039745
1.515  86.046538
1.514  86.062404
1.513  86.092578
1.512  86.024844
1.511  86.017305
1.510  86.046386
1.509  85.970186
1.508  85.960825
1.507  86.005508
1.506  85.991417
1.505  86.003502
1.504  86.094331
1.503  86.047008
1.502  85.942977
1.501  85.923036
1.500  85.928116
1.499  85.958534
1.498  85.987279
1.497  85.931945
1.496  85.894344
1.495  85.922050
1.494  85.926699
1.493  85.983198
1.492  86.019092
1.491  86.000809
1.490  85.926251
1.489  85.927583
1.488  85.938847
1.487  85.924070
1.486  85.919115
1.485  85.934543
1.484  85.969698
1.483  85.960756
1.482  85.877163
1.481  85.873515
1.480  85.914885
1.479  85.939430
1.478  85.975202
1.477  85.980255
1.476  85.989537
1.475  85.941404
1.474  85.881269
1.473  85.917118
1.472  85.962279
1.471  85.952088
1.470  85.922770
1.469  85.893796
1.468  85.908275
1.467  85.966907
1.466  85.941248
1.465  85.958108
1.464  85.990423
1.463  85.989766
1.462  85.932636
1.461  85.893916
1.460  85.899286
1.459  85.915435
1.458  85.958017
1.457  85.963794
1.456  85.880165
1.455  85.851090
1.454  85.878134
1.453  85.899391
1.452  85.871316
1.451  85.911779
1.450  85.919966
1.449  85.908019
1.448  85.874914
1.447  85.814940
1.446  85.888444
1.445  85.916911
1.444  85.879859
1.443  85.875688
1.442  85.893451
1.441  85.937231
1.440  85.877936
1.439  85.886030
1.438  85.866695
1.437  85.893842
1.436  85.863391
1.435  85.908008
1.434  85.839115
1.433  85.857601
1.432  85.851010
1.431  85.905622
1.430  85.869090
1.429  85.913402
1.428  85.926446
1.427  85.899154
1.426  85.821288
1.425  85.911339
1.424  85.922433
1.423  85.875477
1.422  85.848632
1.421  85.870193
1.420  85.854802
