Name: Quartz SiO_2
Type: Mineral
Class: Silicates
Subclass: Tectosilicates
Particle Size: 45-125um
Sample No.: TS-1D
Owner: JPL
Wavelength range: VNIR-SWIR
Origin: USA, Coloradi, Buffalo.
Collected by:  Ward's
Description: Milky quartz





Measurement: Hemispherical reflectance
First Column: X
Second Column: Y
X Units: Wavelength (micrometers)
Y Units: Reflectance (percent)
First X Value: 2.500
Last X Value: 0.400
Number of X Values: 2101
Additional information: ts01da.txt

2.500  82.201655
2.499  82.216537
2.498  82.155653
2.497  82.028386
2.496  82.028692
2.495  82.113213
2.494  81.955156
2.493  82.053002
2.492  81.958732
2.491  82.089840
2.490  81.901523
2.489  82.069090
2.488  82.005887
2.487  81.826449
2.486  81.888727
2.485  82.021771
2.484  81.927886
2.483  82.070594
2.482  82.069678
2.481  82.131186
2.480  82.185079
2.479  82.277719
2.478  82.342262
2.477  82.076009
2.476  82.220587
2.475  82.231455
2.474  82.046547
2.473  82.243879
2.472  82.026076
2.471  82.111320
2.470  82.362451
2.469  82.307434
2.468  82.278095
2.467  82.178554
2.466  82.182043
2.465  82.286662
2.464  82.324113
2.463  82.438430
2.462  82.347248
2.461  82.310006
2.460  82.510681
2.459  82.479017
2.458  82.304875
2.457  82.413897
2.456  82.443445
2.455  82.518039
2.454  82.427717
2.453  82.367259
2.452  82.573319
2.451  82.395932
2.450  82.422308
2.449  82.370129
2.448  82.453386
2.447  82.594770
2.446  82.519366
2.445  82.456320
2.444  82.465593
2.443  82.626198
2.442  82.516254
2.441  82.499787
2.440  82.607917
2.439  82.555373
2.438  82.628688
2.437  82.712443
2.436  82.616350
2.435  82.682108
2.434  82.688718
2.433  82.689954
2.432  82.705897
2.431  82.781114
2.430  82.725371
2.429  82.705445
2.428  82.683084
2.427  82.691328
2.426  82.803839
2.425  82.767680
2.424  82.784992
2.423  82.800089
2.422  82.841590
2.421  82.839611
2.420  82.851485
2.419  82.874076
2.418  82.892625
2.417  82.863391
2.416  82.943851
2.415  83.015385
2.414  82.946071
2.413  83.052666
2.412  83.102984
2.411  83.012629
2.410  82.976718
2.409  83.037496
2.408  82.979864
2.407  83.100674
2.406  83.142191
2.405  83.116928
2.404  83.058171
2.403  83.029881
2.402  83.007555
2.401  83.143748
2.400  83.165329
2.399  83.180927
2.398  83.151449
2.397  83.124504
2.396  83.195120
2.395  83.157440
2.394  83.146465
2.393  83.260248
2.392  83.218605
2.391  83.268218
2.390  83.258506
2.389  83.282663
2.388  83.319044
2.387  83.273190
2.386  83.299815
2.385  83.407235
2.384  83.410441
2.383  83.407719
2.382  83.480737
2.381  83.546440
2.380  83.518595
2.379  83.483911
2.378  83.542065
2.377  83.499736
2.376  83.438064
2.375  83.530122
2.374  83.580654
2.373  83.567650
2.372  83.652677
2.371  83.708971
2.370  83.667759
2.369  83.675431
2.368  83.661675
2.367  83.706950
2.366  83.806758
2.365  83.740925
2.364  83.643685
2.363  83.694005
2.362  83.676418
2.361  83.703821
2.360  83.806918
2.359  83.840477
2.358  83.797558
2.357  83.809810
2.356  83.874941
2.355  83.931395
2.354  83.943251
2.353  83.807812
2.352  83.788294
2.351  83.853273
2.350  83.834886
2.349  83.857502
2.348  83.919611
2.347  83.920234
2.346  83.915261
2.345  83.963997
2.344  83.936254
2.343  83.898050
2.342  83.880970
2.341  83.927137
2.340  83.936464
2.339  83.910639
2.338  83.895267
2.337  83.949677
2.336  83.987717
2.335  83.907696
2.334  83.852511
2.333  83.862102
2.332  83.826304
2.331  83.881277
2.330  83.939315
2.329  83.913617
2.328  83.911305
2.327  83.892339
2.326  83.902515
2.325  83.937127
2.324  83.931489
2.323  83.903545
2.322  83.926790
2.321  83.886831
2.320  83.851148
2.319  83.878911
2.318  83.898657
2.317  83.922243
2.316  83.882891
2.315  83.814790
2.314  83.790519
2.313  83.833811
2.312  83.850674
2.311  83.832448
2.310  83.907069
2.309  83.899483
2.308  83.863195
2.307  83.901584
2.306  83.835858
2.305  83.874063
2.304  83.909803
2.303  83.912097
2.302  83.852049
2.301  83.857854
2.300  83.899295
2.299  83.878079
2.298  83.849712
2.297  83.920658
2.296  83.934189
2.295  83.936686
2.294  83.876738
2.293  83.838228
2.292  83.835435
2.291  83.880079
2.290  83.818768
2.289  83.845296
2.288  83.844542
2.287  83.851869
2.286  83.856916
2.285  83.833124
2.284  83.825772
2.283  83.769004
2.282  83.764979
2.281  83.858140
2.280  83.819186
2.279  83.805937
2.278  83.825792
2.277  83.824759
2.276  83.843184
2.275  83.844205
2.274  83.829340
2.273  83.794878
2.272  83.757510
2.271  83.846261
2.270  83.803776
2.269  83.815123
2.268  83.849270
2.267  83.795150
2.266  83.828126
2.265  83.800752
2.264  83.808747
2.263  83.861861
2.262  83.856593
2.261  83.833125
2.260  83.854082
2.259  83.742085
2.258  83.817165
2.257  83.881443
2.256  83.844476
2.255  83.855445
2.254  83.798504
2.253  83.812070
2.252  83.822221
2.251  83.851539
2.250  83.869368
2.249  83.913104
2.248  83.793578
2.247  83.859012
2.246  83.816758
2.245  83.839961
2.244  83.820892
2.243  83.895611
2.242  83.868534
2.241  83.799561
2.240  83.850183
2.239  83.880716
2.238  83.893783
2.237  83.894098
2.236  83.856549
2.235  83.971485
2.234  83.870031
2.233  83.878698
2.232  83.918048
2.231  83.982424
2.230  83.928727
2.229  83.956815
2.228  83.942084
2.227  83.930794
2.226  83.956018
2.225  83.949585
2.224  83.994470
2.223  84.026822
2.222  83.955788
2.221  83.942110
2.220  83.934812
2.219  84.030441
2.218  84.050885
2.217  83.999704
2.216  83.972588
2.215  84.079135
2.214  84.027490
2.213  84.147800
2.212  84.116205
2.211  84.059384
2.210  84.230174
2.209  84.006506
2.208  84.083400
2.207  84.167737
2.206  84.216007
2.205  84.135293
2.204  84.252551
2.203  84.243177
2.202  84.333744
2.201  84.247520
2.200  84.349118
2.199  84.399438
2.198  84.421594
2.197  84.279080
2.196  84.400794
2.195  84.319306
2.194  84.367422
2.193  84.374202
2.192  84.425200
2.191  84.389905
2.190  84.391607
2.189  84.452419
2.188  84.486850
2.187  84.526210
2.186  84.471980
2.185  84.429825
2.184  84.533599
2.183  84.538258
2.182  84.577534
2.181  84.707646
2.180  84.665463
2.179  84.770272
2.178  84.658917
2.177  84.667885
2.176  84.655561
2.175  84.702531
2.174  84.790871
2.173  84.704148
2.172  84.794173
2.171  84.862723
2.170  84.871000
2.169  84.913826
2.168  85.007515
2.167  85.022145
2.166  85.000569
2.165  85.041151
2.164  84.989099
2.163  85.047162
2.162  85.112475
2.161  85.152649
2.160  85.174216
2.159  85.073516
2.158  85.113626
2.157  85.195143
2.156  85.296655
2.155  85.274008
2.154  85.386529
2.153  85.269641
2.152  85.295309
2.151  85.220750
2.150  85.324925
2.149  85.355637
2.148  85.434941
2.147  85.358909
2.146  85.399822
2.145  85.409048
2.144  85.426571
2.143  85.387245
2.142  85.316759
2.141  85.286166
2.140  85.339657
2.139  85.327100
2.138  85.277300
2.137  85.318725
2.136  85.293824
2.135  85.283910
2.134  85.259666
2.133  85.173284
2.132  85.256838
2.131  85.296511
2.130  85.196588
2.129  85.052741
2.128  85.075474
2.127  85.013380
2.126  85.031525
2.125  85.081936
2.124  85.016728
2.123  84.873157
2.122  84.852168
2.121  84.844677
2.120  84.795349
2.119  84.721822
2.118  84.652791
2.117  84.642533
2.116  84.611573
2.115  84.530328
2.114  84.488156
2.113  84.508331
2.112  84.456037
2.111  84.383548
2.110  84.359307
2.109  84.313587
2.108  84.231527
2.107  84.230493
2.106  84.149507
2.105  84.065983
2.104  84.087111
2.103  84.128279
2.102  84.021639
2.101  83.946909
2.100  83.936485
2.099  83.882897
2.098  83.864303
2.097  83.930475
2.096  83.926117
2.095  83.931008
2.094  83.914342
2.093  83.939715
2.092  83.994016
2.091  83.995290
2.090  84.079814
2.089  84.119212
2.088  84.057986
2.087  84.032011
2.086  84.081773
2.085  84.024373
2.084  84.006968
2.083  84.099387
2.082  84.071706
2.081  84.058134
2.080  84.113830
2.079  84.129017
2.078  84.123065
2.077  84.197254
2.076  84.212739
2.075  84.234946
2.074  84.219093
2.073  84.130102
2.072  84.207712
2.071  84.286133
2.070  84.251207
2.069  84.272495
2.068  84.279125
2.067  84.298906
2.066  84.363503
2.065  84.337139
2.064  84.304826
2.063  84.311315
2.062  84.287323
2.061  84.318177
2.060  84.335571
2.059  84.275850
2.058  84.286475
2.057  84.378438
2.056  84.364085
2.055  84.397034
2.054  84.435197
2.053  84.446766
2.052  84.468425
2.051  84.439700
2.050  84.479930
2.049  84.526359
2.048  84.500554
2.047  84.450914
2.046  84.425917
2.045  84.492213
2.044  84.472828
2.043  84.465049
2.042  84.517314
2.041  84.524087
2.040  84.567493
2.039  84.583335
2.038  84.605629
2.037  84.515022
2.036  84.541208
2.035  84.529655
2.034  84.577634
2.033  84.586711
2.032  84.550729
2.031  84.571871
2.030  84.610944
2.029  84.598641
2.028  84.560056
2.027  84.554112
2.026  84.589360
2.025  84.495502
2.024  84.493972
2.023  84.517414
2.022  84.472516
2.021  84.574808
2.020  84.599857
2.019  84.559652
2.018  84.615179
2.017  84.531499
2.016  84.512307
2.015  84.600242
2.014  84.518612
2.013  84.506193
2.012  84.555847
2.011  84.540838
2.010  84.462305
2.009  84.525922
2.008  84.531525
2.007  84.542304
2.006  84.481173
2.005  84.520185
2.004  84.594019
2.003  84.481162
2.002  84.534832
2.001  84.543903
2.000  84.567920
1.999  84.538400
1.998  84.523783
1.997  84.485437
1.996  84.467340
1.995  84.470837
1.994  84.414392
1.993  84.333996
1.992  84.464318
1.991  84.456044
1.990  84.395016
1.989  84.283269
1.988  84.342240
1.987  84.332248
1.986  84.328147
1.985  84.328602
1.984  84.278603
1.983  84.315411
1.982  84.283510
1.981  84.271206
1.980  84.312823
1.979  84.304856
1.978  84.228481
1.977  84.265045
1.976  84.172133
1.975  84.155577
1.974  84.141481
1.973  84.106150
1.972  84.204414
1.971  84.112854
1.970  84.073344
1.969  84.129977
1.968  84.195130
1.967  84.096051
1.966  84.066646
1.965  84.080789
1.964  84.092777
1.963  84.100250
1.962  84.030465
1.961  84.014219
1.960  84.060795
1.959  84.152595
1.958  84.084109
1.957  84.127178
1.956  84.098914
1.955  84.063489
1.954  84.081261
1.953  83.989071
1.952  84.063149
1.951  83.968681
1.950  84.107120
1.949  84.048709
1.948  84.033850
1.947  84.087770
1.946  84.006656
1.945  84.024187
1.944  84.013140
1.943  84.111452
1.942  83.991047
1.941  84.065043
1.940  83.950884
1.939  84.070690
1.938  84.094807
1.937  83.997871
1.936  84.039110
1.935  84.063106
1.934  84.102305
1.933  84.154203
1.932  84.060123
1.931  84.042922
1.930  84.143552
1.929  84.127081
1.928  84.031311
1.927  84.133759
1.926  84.159718
1.925  84.168114
1.924  84.054145
1.923  84.234871
1.922  84.174106
1.921  84.065914
1.920  84.256148
1.919  84.200459
1.918  84.180021
1.917  84.294922
1.916  84.335762
1.915  84.253779
1.914  84.349512
1.913  84.330437
1.912  84.354693
1.911  84.284214
1.910  84.334551
1.909  84.482975
1.908  84.390210
1.907  84.343511
1.906  84.517333
1.905  84.512798
1.904  84.417644
1.903  84.398228
1.902  84.456943
1.901  84.511101
1.900  84.525762
1.899  84.539278
1.898  84.530637
1.897  84.638257
1.896  84.712012
1.895  84.670808
1.894  84.705719
1.893  84.674492
1.892  84.668478
1.891  84.716771
1.890  84.697503
1.889  84.735317
1.888  84.736034
1.887  84.749426
1.886  84.858990
1.885  84.851395
1.884  84.903710
1.883  84.900954
1.882  84.920995
1.881  84.936351
1.880  84.989195
1.879  84.953459
1.878  84.948293
1.877  84.920175
1.876  85.040648
1.875  84.972818
1.874  85.062028
1.873  85.010917
1.872  85.019842
1.871  85.099284
1.870  85.014811
1.869  85.058277
1.868  85.082809
1.867  85.018252
1.866  85.091879
1.865  85.075760
1.864  85.103378
1.863  85.095364
1.862  85.128494
1.861  85.110208
1.860  85.186866
1.859  85.157926
1.858  85.125839
1.857  85.094627
1.856  85.152224
1.855  85.156905
1.854  85.142771
1.853  85.193868
1.852  85.088975
1.851  85.078327
1.850  85.198603
1.849  85.192377
1.848  85.206554
1.847  85.143123
1.846  85.143650
1.845  85.172282
1.844  85.119649
1.843  85.096940
1.842  85.168878
1.841  85.198715
1.840  85.177955
1.839  85.152224
1.838  85.172620
1.837  85.153626
1.836  85.166655
1.835  85.150857
1.834  85.190791
1.833  85.101693
1.832  85.145572
1.831  85.167870
1.830  85.200573
1.829  85.226696
1.828  85.153883
1.827  85.160936
1.826  85.211669
1.825  85.232947
1.824  85.214065
1.823  85.221337
1.822  85.241308
1.821  85.246287
1.820  85.243383
1.819  85.177320
1.818  85.193684
1.817  85.209467
1.816  85.215342
1.815  85.201543
1.814  85.218540
1.813  85.248077
1.812  85.268073
1.811  85.250483
1.810  85.279360
1.809  85.251627
1.808  85.219892
1.807  85.274474
1.806  85.246967
1.805  85.250236
1.804  85.257256
1.803  85.210584
1.802  85.202298
1.801  85.262326
1.800  85.297211
1.799  85.240544
1.798  85.249328
1.797  85.254275
1.796  85.276866
1.795  85.273284
1.794  85.236743
1.793  85.224353
1.792  85.254264
1.791  85.276865
1.790  85.244760
1.789  85.233215
1.788  85.221889
1.787  85.242634
1.786  85.272252
1.785  85.256051
1.784  85.172281
1.783  85.131971
1.782  85.176764
1.781  85.246875
1.780  85.268965
1.779  85.246577
1.778  85.222842
1.777  85.225286
1.776  85.202518
1.775  85.128872
1.774  85.137493
1.773  85.113207
1.772  85.161432
1.771  85.202815
1.770  85.123719
1.769  85.160348
1.768  85.185665
1.767  85.140436
1.766  85.098783
1.765  85.131094
1.764  85.149858
1.763  85.161196
1.762  85.189862
1.761  85.179774
1.760  85.168777
1.759  85.233533
1.758  85.234216
1.757  85.189290
1.756  85.184772
1.755  85.233377
1.754  85.257057
1.753  85.253855
1.752  85.170174
1.751  85.135148
1.750  85.152663
1.749  85.243184
1.748  85.267260
1.747  85.219761
1.746  85.227998
1.745  85.255914
1.744  85.312390
1.743  85.225891
1.742  85.192220
1.741  85.269463
1.740  85.265687
1.739  85.274121
1.738  85.300788
1.737  85.259700
1.736  85.291907
1.735  85.262397
1.734  85.254521
1.733  85.287010
1.732  85.289710
1.731  85.315394
1.730  85.259651
1.729  85.322964
1.728  85.295585
1.727  85.277251
1.726  85.250214
1.725  85.333473
1.724  85.365158
1.723  85.345976
1.722  85.245970
1.721  85.282853
1.720  85.308762
1.719  85.297397
1.718  85.286118
1.717  85.349446
1.716  85.375267
1.715  85.420041
1.714  85.329538
1.713  85.219627
1.712  85.324530
1.711  85.313453
1.710  85.311468
1.709  85.327391
1.708  85.289542
1.707  85.317122
1.706  85.264410
1.705  85.258772
1.704  85.265648
1.703  85.271986
1.702  85.203574
1.701  85.244173
1.700  85.265908
1.699  85.267796
1.698  85.245357
1.697  85.226708
1.696  85.206754
1.695  85.276921
1.694  85.193352
1.693  85.206428
1.692  85.239606
1.691  85.193242
1.690  85.185643
1.689  85.274695
1.688  85.170101
1.687  85.265944
1.686  85.230244
1.685  85.286801
1.684  85.285319
1.683  85.223992
1.682  85.232506
1.681  85.225494
1.680  85.167101
1.679  85.181532
1.678  85.150431
1.677  85.272667
1.676  85.141013
1.675  85.175174
1.674  85.174788
1.673  85.266954
1.672  85.287395
1.671  85.216412
1.670  85.134314
1.669  85.179284
1.668  85.239660
1.667  85.247254
1.666  85.231382
1.665  85.243772
1.664  85.177413
1.663  85.167358
1.662  85.239520
1.661  85.192400
1.660  85.227318
1.659  85.269487
1.658  85.220131
1.657  85.141613
1.656  85.160023
1.655  85.269797
1.654  85.200799
1.653  85.151506
1.652  85.302559
1.651  85.195505
1.650  85.126806
1.649  85.230353
1.648  85.164979
1.647  85.099661
1.646  85.221397
1.645  85.253479
1.644  85.232456
1.643  85.196565
1.642  85.235127
1.641  85.165963
1.640  85.166092
1.639  85.230062
1.638  85.243925
1.637  85.332767
1.636  85.161990
1.635  85.203190
1.634  85.198264
1.633  85.248307
1.632  85.192963
1.631  85.209486
1.630  85.243765
1.629  85.198688
1.628  85.175857
1.627  85.173754
1.626  85.224289
1.625  85.171280
1.624  85.197831
1.623  85.230940
1.622  85.216698
1.621  85.056440
1.620  85.257096
1.619  85.173106
1.618  85.216649
1.617  85.326902
1.616  85.253356
1.615  85.309719
1.614  85.213390
1.613  85.222205
1.612  85.178560
1.611  85.221065
1.610  85.268867
1.609  85.205442
1.608  85.216966
1.607  85.187994
1.606  85.146919
1.605  85.239319
1.604  85.296067
1.603  85.197168
1.602  85.231704
1.601  85.242979
1.600  85.194669
1.599  85.312084
1.598  85.270526
1.597  85.149809
1.596  85.220719
1.595  85.208611
1.594  85.190033
1.593  85.252078
1.592  85.203663
1.591  85.187545
1.590  85.189783
1.589  85.262867
1.588  85.207734
1.587  85.243411
1.586  85.169475
1.585  85.207100
1.584  85.180110
1.583  85.172385
1.582  85.100732
1.581  85.122896
1.580  85.129410
1.579  85.160286
1.578  85.144199
1.577  85.177423
1.576  85.177269
1.575  85.231094
1.574  85.189394
1.573  85.166465
1.572  85.188154
1.571  85.190689
1.570  85.169652
1.569  85.172570
1.568  85.147832
1.567  85.145490
1.566  85.128848
1.565  85.107918
1.564  85.188026
1.563  85.161026
1.562  85.185691
1.561  85.177255
1.560  85.175835
1.559  85.266178
1.558  85.223879
1.557  85.129995
1.556  85.156837
1.555  85.124901
1.554  85.111409
1.553  85.191403
1.552  85.215567
1.551  85.165582
1.550  85.158177
1.549  85.154530
1.548  85.076870
1.547  85.063500
1.546  85.157071
1.545  85.159167
1.544  85.198268
1.543  85.225374
1.542  85.143128
1.541  85.134265
1.540  85.089027
1.539  85.080907
1.538  85.115465
1.537  85.117456
1.536  85.056356
1.535  85.081926
1.534  85.104741
1.533  85.135462
1.532  85.110805
1.531  85.122131
1.530  85.095465
1.529  85.065077
1.528  85.069948
1.527  85.079952
1.526  85.059030
1.525  85.063515
1.524  85.070036
1.523  85.052429
1.522  85.052151
1.521  85.069125
1.520  85.062414
1.519  85.064527
1.518  85.062678
1.517  85.071697
1.516  85.073610
1.515  85.133852
1.514  85.145015
1.513  85.127313
1.512  85.067512
1.511  85.008513
1.510  85.053733
1.509  85.022918
1.508  85.008033
1.507  85.038115
1.506  85.043397
1.505  85.043564
1.504  85.030362
1.503  85.049080
1.502  85.006965
1.501  84.991483
1.500  85.029897
1.499  85.013355
1.498  85.011089
1.497  84.998340
1.496  84.948602
1.495  85.010775
1.494  85.070559
1.493  85.024700
1.492  85.068545
1.491  85.055193
1.490  84.970893
1.489  84.979803
1.488  85.015089
1.487  85.021409
1.486  84.987011
1.485  84.937629
1.484  85.006926
1.483  85.061844
1.482  85.005438
1.481  85.033274
1.480  84.987477
1.479  84.944223
1.478  85.031882
1.477  84.982079
1.476  84.945774
1.475  84.973571
1.474  84.992101
1.473  84.992484
1.472  84.982951
1.471  84.994643
1.470  85.050624
1.469  84.991902
1.468  84.920058
1.467  84.917205
1.466  84.999915
1.465  84.976079
1.464  84.961347
1.463  84.994413
1.462  84.933221
1.461  84.956408
1.460  84.908887
1.459  84.891898
1.458  84.914085
1.457  84.992297
1.456  85.000754
1.455  84.962019
1.454  84.970418
1.453  85.030566
1.452  84.975332
1.451  84.957121
1.450  84.981617
1.449  84.957581
1.448  84.936319
1.447  84.922274
1.446  84.928252
1.445  84.916220
1.444  84.968912
1.443  84.951216
1.442  84.899720
1.441  84.950188
1.440  84.935268
1.439  84.945687
1.438  84.923737
1.437  84.934008
1.436  84.910404
1.435  84.889804
1.434  84.917799
1.433  84.993994
1.432  84.932186
1.431  84.969640
1.430  84.993440
1.429  84.934196
1.428  85.033771
1.427  84.992444
1.426  84.872350
1.425  84.848890
1.424  84.956309
1.423  84.853610
1.422  84.937022
1.421  84.919543
1.420  84.921713
1.419  84.995389
1.418  84.951775
