Name: Chlorite
Type: Mineral
Class: Silicates
Subclass: Phyllosilicates
Particle Size: 45-125um
Sample No.: PS-12E
Owner: JPL
Wavelength range: IR
Origin: USA, Vermont
Collected by Ward's
Description: 





Measurement: Hemispherical reflectance
First Column: X
Second Column: Y
X Units:  Wavelength (micrometers)
Y Units:  Reflectance (percent)
First X Value: 15.3853
Last X Value: 2.00032
Number of X Values: 2256
Additional information: ps12ea.txt
 
15.3853	6.22916
15.3397	6.55889
15.2945	6.44853
15.2495	6.48678
15.2048	6.65741
15.1603	6.51962
15.1161	6.19725
15.0722	5.89432
15.0285	5.64351
14.9851	5.52831
14.9419	5.2557
14.8989	4.91887
14.8563	4.83034
14.8138	4.63203
14.7716	4.55079
14.7296	4.54444
14.6879	4.46886
14.6464	4.28144
14.6052	4.04521
14.5641	3.84701
14.5233	3.8275
14.4828	3.76258
14.4424	3.54465
14.4023	3.44531
14.3624	3.39659
14.3227	3.26381
14.2833	3.09163
14.244	2.92419
14.205	2.89515
14.1662	2.98882
14.1276	2.90318
14.0892	2.92469
14.051	3.12183
14.0131	3.13005
13.9753	3.16824
13.9377	3.22153
13.9004	3.28358
13.8632	3.21008
13.8262	3.09213
13.7895	3.04376
13.7529	3.23592
13.7165	3.17129
13.6803	3.09175
13.6443	3.3709
13.6085	3.37171
13.5729	3.36248
13.5374	3.63465
13.5022	3.5252
13.4671	3.25478
13.4322	3.36073
13.3975	3.544
13.363	3.68818
13.3286	3.7718
13.2944	3.96633
13.2604	4.16325
13.2266	4.18132
13.193	4.25729
13.1595	4.36289
13.1262	4.2874
13.093	4.23891
13.06	4.23666
13.0272	4.17411
12.9946	4.06985
12.9621	3.95964
12.9298	3.80825
12.8976	3.6918
12.8656	3.47794
12.8337	3.22711
12.8021	3.0571
12.7705	2.87386
12.7391	2.83174
12.7079	2.75057
12.6769	2.57828
12.6459	2.36046
12.6152	2.20764
12.5845	2.15458
12.5541	1.96847
12.5238	1.91895
12.4936	1.94757
12.4635	2.00167
12.4337	1.86212
12.4039	1.77506
12.3743	1.85889
12.3448	1.8395
12.3155	1.7262
12.2863	1.79844
12.2573	1.92301
12.2284	1.90867
12.1996	1.88463
12.171	1.88058
12.1425	1.73131
12.1141	1.65031
12.0859	1.7145
12.0578	1.82573
12.0298	1.7902
12.0019	1.72228
11.9742	1.71049
11.9466	1.72945
11.9192	1.80003
11.8918	1.80505
11.8646	1.90311
11.8375	2.09787
11.8106	2.19107
11.7837	2.19608
11.757	2.35274
11.7304	2.61668
11.7039	2.65388
11.6776	2.5444
11.6513	2.57685
11.6252	2.61727
11.5992	2.72643
11.5733	2.77532
11.5475	2.82739
11.5219	3.09619
11.4963	3.27443
11.4709	3.2024
11.4455	3.09773
11.4203	3.2648
11.3952	3.38268
11.3702	3.45927
11.3454	3.49175
11.3206	3.58215
11.2959	3.67499
11.2714	3.63131
11.2469	3.70466
11.2226	3.87524
11.1983	4.00865
11.1742	4.11002
11.1502	4.07389
11.1263	4.18311
11.1024	4.45981
11.0787	4.45941
11.0551	4.45625
11.0316	4.59559
11.0081	4.74583
10.9848	4.90862
10.9616	5.03363
10.9385	5.06755
10.9154	5.30354
10.8925	5.54079
10.8697	5.61589
10.8469	5.75858
10.8243	6.01125
10.8017	6.33565
10.7793	6.56202
10.7569	6.85344
10.7346	7.24649
10.7125	7.45978
10.6904	7.73937
10.6684	8.13349
10.6465	8.54915
10.6247	9.11563
10.6029	9.70073
10.5813	10.171
10.5597	10.524
10.5383	10.8271
10.5169	11.1048
10.4956	11.5272
10.4744	11.89
10.4533	12.0334
10.4323	12.1666
10.4113	12.309
10.3904	12.4012
10.3697	12.5077
10.349	12.6353
10.3284	12.7147
10.3078	12.8512
10.2874	12.9999
10.267	13.2779
10.2467	13.4773
10.2265	13.5476
10.2064	13.9526
10.1863	14.5095
10.1663	14.9759
10.1464	15.5353
10.1266	16.1803
10.1069	16.7001
10.0872	17.1484
10.0676	17.6078
10.0481	18.0819
10.0287	18.5266
10.0093	18.9349
9.99005	19.3473
9.97084	19.7713
9.95169	20.181
9.93263	20.5266
9.91364	20.8522
9.89472	21.2255
9.87587	21.6503
9.8571	22.0952
9.83839	22.4247
9.81976	22.7099
9.80119	22.9055
9.78271	23.1626
9.76428	23.664
9.74592	23.9258
9.72764	23.855
9.70943	23.7723
9.69128	23.6299
9.6732	23.1761
9.65518	22.5712
9.63724	21.911
9.61935	21.1389
9.60155	20.3821
9.5838	19.6306
9.56611	18.9513
9.5485	18.3052
9.53094	17.8283
9.51345	17.5691
9.49604	17.181
9.47867	16.9909
9.46137	16.8907
9.44414	16.8924
9.42697	17.1389
9.40986	17.4081
9.39281	17.6083
9.37583	17.8685
9.35891	17.8561
9.34204	17.6266
9.32524	17.0502
9.3085	16.142
9.29182	15.0506
9.27519	13.8747
9.25863	12.544
9.24213	11.3149
9.22568	10.2846
9.2093	9.15526
9.19297	8.25715
9.17669	7.56217
9.16048	7.0094
9.14433	6.54095
9.12823	5.8981
9.11218	5.25345
9.0962	4.7229
9.08027	4.14016
9.06439	3.7213
9.04858	3.48142
9.03281	3.19112
9.0171	2.86265
9.00145	2.47257
8.98585	2.12863
8.9703	2.06939
8.9548	1.88236
8.93937	1.57888
8.92398	1.48461
8.90865	1.45387
8.89337	1.35165
8.87814	1.35658
8.86296	1.21627
8.84784	1.17482
8.83277	1.06386
8.81774	0.903515
8.80277	0.885212
8.78786	0.936442
8.77298	0.919354
8.75816	0.950251
8.7434	0.917258
8.72868	0.794621
8.714	0.74221
8.69938	0.719388
8.68481	0.758462
8.67029	0.719133
8.65581	0.762571
8.64139	0.818566
8.62701	0.850888
8.61268	0.858815
8.5984	0.815456
8.58416	0.863327
8.56997	0.955661
8.55583	0.97437
8.54174	0.99543
8.52769	1.02532
8.51368	1.00593
8.49973	0.912052
8.48582	0.973
8.47195	1.11452
8.45813	1.19431
8.44436	1.18269
8.43062	1.15398
8.41693	1.12407
8.4033	1.10075
8.3897	1.18383
8.37614	1.33797
8.36264	1.34918
8.34917	1.26579
8.33574	1.19617
8.32236	1.23585
8.30903	1.30405
8.29573	1.40776
8.28248	1.4426
8.26927	1.62076
8.2561	1.68017
8.24298	1.52777
8.2299	1.58603
8.21685	1.78471
8.20385	1.79827
8.19089	1.77079
8.17797	1.84864
8.16509	1.91831
8.15225	1.98293
8.13946	2.02982
8.1267	2.1132
8.11398	2.17684
8.10131	2.21172
8.08867	2.27874
8.07606	2.24476
8.0635	2.25964
8.05099	2.41197
8.0385	2.51801
8.02606	2.55759
8.01366	2.53312
8.00129	2.49998
7.98896	2.53169
7.97667	2.51221
7.96442	2.5538
7.9522	2.66739
7.94002	2.68634
7.92788	2.7082
7.91578	2.8381
7.90371	2.87903
7.89168	2.86934
7.87969	2.90889
7.86773	2.99211
7.85581	3.0271
7.84392	3.16167
7.83207	3.29213
7.82026	3.26891
7.80849	3.14416
7.79674	3.20309
7.78503	3.31131
7.77337	3.27494
7.76173	3.25199
7.75012	3.29784
7.73856	3.38458
7.72703	3.40768
7.71553	3.40921
7.70406	3.52851
7.69263	3.6519
7.68123	3.66948
7.66987	3.61204
7.65855	3.57904
7.64725	3.61
7.63598	3.7326
7.62475	3.81224
7.61356	3.83479
7.60239	3.81735
7.59126	3.87734
7.58017	3.94535
7.5691	3.95975
7.55806	4.00705
7.54707	4.02582
7.5361	4.11076
7.52516	4.12798
7.51425	4.08849
7.50338	4.10013
7.49253	4.19753
7.48172	4.2564
7.47094	4.33593
7.46019	4.32826
7.44947	4.32441
7.43879	4.35131
7.42813	4.43065
7.4175	4.52467
7.4069	4.57978
7.39634	4.55068
7.3858	4.52828
7.37529	4.51943
7.36482	4.60448
7.35437	4.7536
7.34396	4.75358
7.33357	4.67863
7.32321	4.75002
7.31288	4.82741
7.30258	4.89572
7.29231	5.01536
7.28207	5.0768
7.27185	5.09825
7.26167	5.10482
7.25152	5.05485
7.24139	5.07504
7.23129	5.18437
7.22122	5.2898
7.21117	5.36294
7.20116	5.3835
7.19117	5.39096
7.18121	5.51644
7.17128	5.58976
7.16137	5.49942
7.1515	5.5137
7.14164	5.62445
7.13182	5.66487
7.12203	5.69207
7.11225	5.77444
7.10251	5.80041
7.0928	5.78175
7.08311	5.8225
7.07344	5.86057
7.06381	5.89276
7.0542	5.91898
7.04461	5.93795
7.03506	6.04888
7.02552	6.19481
7.01601	6.21519
7.00653	6.19757
6.99708	6.16804
6.98765	6.16563
6.97824	6.23696
6.96886	6.36424
6.95951	6.47805
6.95018	6.49518
6.94087	6.4511
6.9316	6.38029
6.92234	6.42335
6.91311	6.56989
6.90391	6.61124
6.89473	6.60661
6.88557	6.58575
6.87644	6.57886
6.86733	6.66442
6.85824	6.6628
6.84918	6.58951
6.84015	6.65613
6.83114	6.7064
6.82215	6.66775
6.81319	6.72
6.80424	6.80878
6.79532	6.81968
6.78643	6.79412
6.77756	6.73951
6.76871	6.68047
6.75989	6.70414
6.75109	6.80204
6.74231	6.81193
6.73355	6.72835
6.72482	6.73864
6.71611	6.80371
6.70742	6.77034
6.69875	6.7484
6.69011	6.83418
6.68149	6.80977
6.67289	6.77561
6.66431	6.7797
6.65576	6.79286
6.64722	6.83041
6.63871	6.88964
6.63022	6.82256
6.62175	6.73963
6.61331	6.72032
6.60488	6.7489
6.59648	6.73337
6.5881	6.67759
6.57974	6.70888
6.5714	6.75367
6.56308	6.62707
6.55478	6.63456
6.54651	6.59786
6.53825	6.51032
6.53001	6.54176
6.5218	6.58337
6.51361	6.45836
6.50544	6.34937
6.49729	6.45997
6.48915	6.50605
6.48104	6.40211
6.47295	6.27701
6.46488	6.19225
6.45683	6.18123
6.4488	6.14347
6.44079	6.17558
6.4328	6.15136
6.42482	6.07906
6.41687	6.00699
6.40894	5.92551
6.40103	5.85705
6.39314	5.77254
6.38526	5.68947
6.37741	5.65474
6.36957	5.70768
6.36176	5.70458
6.35396	5.58794
6.34618	5.52368
6.33843	5.53989
6.33069	5.57386
6.32297	5.56357
6.31527	5.49457
6.30758	5.36616
6.29992	5.29698
6.29227	5.35511
6.28465	5.41483
6.27704	5.35704
6.26945	5.37949
6.26188	5.41642
6.25432	5.40999
6.24679	5.42612
6.23927	5.36547
6.23177	5.37934
6.22429	5.45764
6.21683	5.44723
6.20938	5.34929
6.20195	5.35931
6.19454	5.49838
6.18715	5.64001
6.17978	5.56486
6.17242	5.52507
6.16508	5.53557
6.15776	5.56861
6.15045	5.65807
6.14317	5.72856
6.1359	5.66401
6.12864	5.65247
6.12141	5.68406
6.11419	5.77918
6.10699	5.80868
6.0998	5.8344
6.09263	5.86999
6.08549	5.88482
6.07835	5.94833
6.07123	6.06898
6.06413	6.09027
6.05705	6.10965
6.04998	6.24584
6.04293	6.16619
6.0359	6.0614
6.02888	6.05307
6.02187	6.10147
6.01489	6.096
6.00792	5.97745
6.00096	5.96068
5.99403	6.08584
5.98711	6.14717
5.9802	6.1215
5.97331	6.09638
5.96644	6.10101
5.95958	6.03052
5.95274	5.97863
5.94591	5.97838
5.9391	6.12978
5.9323	6.16887
5.92552	6.0665
5.91876	6.05892
5.91201	6.07761
5.90528	6.13605
5.89856	6.2026
5.89186	6.21271
5.88517	6.28453
5.8785	6.29122
5.87184	6.17393
5.8652	6.18612
5.85857	6.25853
5.85196	6.32186
5.84536	6.29357
5.83878	6.29619
5.83221	6.39127
5.82566	6.43311
5.81912	6.4572
5.81259	6.46001
5.80608	6.53366
5.79959	6.59659
5.79311	6.59665
5.78665	6.67948
5.78019	6.74249
5.77376	6.83625
5.76734	7.031
5.76093	7.10943
5.75453	7.14424
5.74815	7.2548
5.74179	7.30256
5.73543	7.30076
5.7291	7.31834
5.72277	7.41129
5.71646	7.49663
5.71017	7.5502
5.70389	7.5573
5.69762	7.59021
5.69136	7.6933
5.68513	7.7109
5.6789	7.72332
5.67268	7.76828
5.66648	7.81581
5.6603	7.83507
5.65413	7.84161
5.64797	7.86862
5.64182	7.93837
5.63569	7.9088
5.62957	7.83741
5.62347	7.86176
5.61737	7.96445
5.61129	7.92089
5.60522	7.89843
5.59917	7.87788
5.59313	7.90876
5.5871	8.01235
5.58109	8.09263
5.57509	8.08177
5.5691	8.0581
5.56312	8.09502
5.55716	8.17205
5.55121	8.28007
5.54528	8.28827
5.53935	8.20879
5.53344	8.21809
5.52754	8.36357
5.52166	8.41708
5.51578	8.39822
5.50992	8.44962
5.50407	8.52919
5.49823	8.5617
5.49241	8.62307
5.4866	8.68182
5.4808	8.79096
5.47501	8.82679
5.46923	8.85722
5.46347	8.9559
5.45772	9.01989
5.45198	9.05856
5.44625	9.14892
5.44054	9.17157
5.43484	9.21608
5.42914	9.35741
5.42347	9.4879
5.4178	9.45847
5.41214	9.41957
5.4065	9.451
5.40087	9.50983
5.39525	9.58517
5.38964	9.58093
5.38404	9.61607
5.37846	9.69147
5.37288	9.72372
5.36732	9.70853
5.36177	9.72114
5.35623	9.8163
5.35071	9.84936
5.34519	9.8217
5.33968	9.80802
5.33419	9.83513
5.32871	9.9141
5.32324	9.91246
5.31778	9.87882
5.31233	9.90277
5.30689	9.9513
5.30147	9.99833
5.29605	10.0118
5.29065	9.97705
5.28525	9.95071
5.27987	9.95711
5.2745	9.97027
5.26914	10.006
5.26379	10.0862
5.25845	10.139
5.25312	10.2213
5.24781	10.2536
5.2425	10.1938
5.23721	10.2007
5.23192	10.2651
5.22665	10.3443
5.22138	10.4037
5.21613	10.4027
5.21089	10.3966
5.20566	10.4828
5.20044	10.5233
5.19522	10.5245
5.19002	10.5085
5.18483	10.5639
5.17965	10.6744
5.17448	10.7312
5.16933	10.6968
5.16418	10.6688
5.15904	10.7177
5.15391	10.7588
5.14879	10.7567
5.14368	10.7674
5.13859	10.8037
5.1335	10.7918
5.12842	10.7841
5.12335	10.8055
5.1183	10.8001
5.11325	10.8624
5.10821	10.8493
5.10318	10.8301
5.09817	10.8075
5.09316	10.8251
5.08816	10.8585
5.08317	10.8785
5.07819	10.8208
5.07322	10.8345
5.06826	10.9173
5.06331	10.8378
5.05837	10.7739
5.05344	10.8496
5.04852	10.8723
5.04361	10.8373
5.03871	10.7987
5.03382	10.7732
5.02894	10.7884
5.02406	10.7499
5.0192	10.7403
5.01435	10.7815
5.0095	10.7462
5.00467	10.726
4.99984	10.7921
4.99502	10.7904
4.99021	10.7663
4.98542	10.7438
4.98063	10.7029
4.97585	10.6935
4.97108	10.775
4.96632	10.8295
4.96156	10.8129
4.95682	10.9034
4.95209	11.0325
4.94736	11.0946
4.94264	11.0995
4.93794	11.1096
4.93324	11.2872
4.92855	11.4103
4.92387	11.4443
4.9192	11.5346
4.91453	11.6092
4.90988	11.6855
4.90524	11.8268
4.9006	11.9116
4.89597	11.9581
4.89135	12.0371
4.88674	12.1935
4.88214	12.3389
4.87755	12.445
4.87296	12.5064
4.86839	12.6109
4.86382	12.7374
4.85926	12.7967
4.85471	12.8503
4.85017	12.9862
4.84564	13.1587
4.84111	13.2869
4.8366	13.3444
4.83209	13.467
4.82759	13.6731
4.8231	13.7745
4.81862	13.7739
4.81415	13.8495
4.80968	13.963
4.80522	14.1207
4.80077	14.2748
4.79633	14.4218
4.7919	14.6295
4.78747	14.7306
4.78306	14.7925
4.77865	14.8527
4.77425	14.9447
4.76986	15.0226
4.76547	15.1505
4.7611	15.2907
4.75673	15.4369
4.75237	15.6004
4.74802	15.6873
4.74367	15.8194
4.73934	16.0262
4.73501	16.2509
4.73069	16.478
4.72638	16.6751
4.72207	16.8463
4.71777	17.0088
4.71348	17.2023
4.7092	17.3879
4.70493	17.6045
4.70066	17.8473
4.69641	18.0808
4.69216	18.3269
4.68791	18.545
4.68368	18.6969
4.67945	18.8777
4.67523	19.0249
4.67102	19.225
4.66682	19.3765
4.66262	19.5862
4.65843	19.8395
4.65425	19.9414
4.65007	20.0559
4.64591	20.2088
4.64175	20.3548
4.6376	20.4681
4.63345	20.4532
4.62932	20.5882
4.62519	20.7773
4.62106	20.8409
4.61695	20.8697
4.61284	20.9915
4.60874	21.1866
4.60465	21.3675
4.60056	21.5208
4.59648	21.6842
4.59241	21.8737
4.58835	22.1341
4.58429	22.4487
4.58024	22.6778
4.5762	22.9227
4.57216	23.2043
4.56814	23.3767
4.56411	23.4926
4.5601	23.7453
4.55609	23.9781
4.55209	24.1024
4.5481	24.1562
4.54411	24.1927
4.54013	24.3211
4.53616	24.5056
4.5322	24.6626
4.52824	24.7462
4.52429	24.8551
4.52034	24.9174
4.51641	24.9509
4.51247	25.0075
4.50855	25.1399
4.50463	25.2874
4.50072	25.5012
4.49682	25.6402
4.49292	25.6455
4.48903	25.7044
4.48515	25.8317
4.48127	25.9487
4.4774	26.0442
4.47354	26.1344
4.46968	26.2428
4.46584	26.3489
4.46199	26.5762
4.45815	26.7033
4.45432	26.6945
4.4505	26.774
4.44668	26.9109
4.44287	27.0276
4.43907	27.1255
4.43527	27.2143
4.43148	27.3271
4.4277	27.3933
4.42392	27.4433
4.42015	27.5629
4.41638	27.6569
4.41262	27.7135
4.40887	27.7907
4.40513	27.8456
4.40139	27.8941
4.39765	27.9336
4.39393	27.9976
4.39021	28.0647
4.38649	28.1084
4.38278	28.1659
4.37908	28.2387
4.37539	28.2753
4.3717	28.3397
4.36801	28.4236
4.36434	28.4247
4.36067	28.4548
4.357	28.582
4.35335	28.6642
4.34969	28.7128
4.34605	28.7271
4.34241	28.7854
4.33877	28.8464
4.33514	28.8767
4.33152	28.9528
4.32791	29.0564
4.3243	29.0831
4.32069	29.117
4.3171	29.2308
4.31351	29.3638
4.30992	29.4532
4.30634	29.4689
4.30277	29.4351
4.2992	29.476
4.29564	29.5424
4.29208	29.6745
4.28853	29.7574
4.28499	29.7789
4.28145	29.8295
4.27792	29.9132
4.27439	30.0161
4.27087	30.0837
4.26735	30.0228
4.26384	29.9607
4.26034	30.0222
4.25684	30.0856
4.25335	30.1823
4.24986	30.2424
4.24638	30.2436
4.24291	30.3183
4.23944	30.4695
4.23598	30.5259
4.23252	30.6182
4.22906	30.7196
4.22562	30.6581
4.22218	30.6447
4.21874	30.6957
4.21531	30.6968
4.21189	30.703
4.20847	30.7328
4.20506	30.7214
4.20165	30.7214
4.19825	30.8031
4.19485	30.7487
4.19146	30.742
4.18807	30.8699
4.18469	30.9081
4.18132	30.9001
4.17795	30.875
4.17458	30.9637
4.17123	31.0542
4.16787	31.0225
4.16453	31.0515
4.16118	31.1959
4.15785	31.1997
4.15451	31.1635
4.15119	31.2266
4.14787	31.2784
4.14455	31.3309
4.14124	31.339
4.13794	31.3647
4.13464	31.4544
4.13134	31.5082
4.12805	31.5025
4.12477	31.4466
4.12149	31.4514
4.11822	31.5153
4.11495	31.5716
4.11168	31.6011
4.10843	31.6545
4.10517	31.6376
4.10192	31.6256
4.09868	31.6578
4.09545	31.693
4.09221	31.6526
4.08899	31.7316
4.08576	31.8541
4.08255	31.8236
4.07933	31.7176
4.07613	31.7144
4.07292	31.7578
4.06973	31.8058
4.06654	31.8679
4.06335	31.933
4.06017	31.8859
4.05699	31.857
4.05382	31.8636
4.05065	31.8635
4.04749	31.8597
4.04433	31.8988
4.04118	31.9076
4.03803	31.9193
4.03489	31.9565
4.03175	31.9018
4.02862	31.8556
4.02549	31.9132
4.02237	31.9387
4.01925	31.9093
4.01614	31.8869
4.01303	31.8782
4.00993	31.9506
4.00683	31.9924
4.00373	31.9238
4.00064	31.8524
3.99756	31.8722
3.99448	31.9312
3.9914	31.9677
3.98833	31.9262
3.98527	31.8794
3.98221	31.8727
3.97915	31.9386
3.9761	31.981
3.97305	31.976
3.97001	31.9324
3.96697	31.9247
3.96394	31.9163
3.96091	31.9142
3.95789	31.9
3.95487	31.8902
3.95186	31.9124
3.94885	31.9151
3.94584	31.8676
3.94284	31.8315
3.93984	31.8736
3.93685	31.9722
3.93386	31.9419
3.93088	31.8663
3.9279	31.8441
3.92493	31.8469
3.92196	31.9252
3.919	31.9505
3.91604	31.8958
3.91308	31.8179
3.91013	31.7717
3.90718	31.7739
3.90424	31.8283
3.9013	31.8068
3.89837	31.7822
3.89544	31.7652
3.89252	31.7837
3.8896	31.7304
3.88668	31.6874
3.88377	31.6795
3.88086	31.6893
3.87796	31.6446
3.87506	31.6281
3.87217	31.6215
3.86928	31.6047
3.86639	31.5388
3.86351	31.4831
3.86064	31.4769
3.85776	31.376
3.8549	31.2897
3.85203	31.2842
3.84917	31.3
3.84631	31.2608
3.84346	31.2211
3.84062	31.1678
3.83777	31.0332
3.83494	30.9656
3.8321	30.956
3.82927	30.9354
3.82644	30.9851
3.82362	30.9509
3.82081	30.8789
3.81799	30.8199
3.81518	30.8147
3.81238	30.7747
3.80958	30.7098
3.80678	30.7827
3.80399	30.7734
3.8012	30.6041
3.79841	30.5531
3.79563	30.5708
3.79286	30.5694
3.79008	30.6197
3.78731	30.5923
3.78455	30.5215
3.78179	30.5065
3.77903	30.5232
3.77628	30.5219
3.77353	30.4588
3.77079	30.4598
3.76805	30.4882
3.76531	30.4355
3.76258	30.3959
3.75985	30.2975
3.75713	30.215
3.7544	30.2586
3.75169	30.2311
3.74898	30.1958
3.74627	30.1789
3.74356	30.1153
3.74086	30.0447
3.73816	30.0177
3.73547	29.952
3.73278	29.8675
3.7301	29.8358
3.72741	29.8555
3.72474	29.8578
3.72206	29.8906
3.71939	29.8386
3.71673	29.7201
3.71406	29.681
3.71141	29.6491
3.70875	29.5724
3.7061	29.4984
3.70345	29.4511
3.70081	29.4136
3.69817	29.3734
3.69553	29.2846
3.6929	29.2525
3.69027	29.2928
3.68765	29.2363
3.68503	29.2079
3.68241	29.2655
3.6798	29.2542
3.67719	29.1354
3.67458	29.0387
3.67198	28.9726
3.66938	28.9397
3.66678	28.9638
3.66419	28.9226
3.66161	28.8287
3.65902	28.7312
3.65644	28.5853
3.65387	28.5186
3.65129	28.5251
3.64872	28.4267
3.64616	28.3849
3.64359	28.3654
3.64103	28.2634
3.63848	28.1503
3.63593	28.1487
3.63338	28.1568
3.63084	28.045
3.6283	27.9658
3.62576	27.9385
3.62322	27.8825
3.62069	27.8046
3.61817	27.6628
3.61564	27.5542
3.61312	27.4384
3.61061	27.361
3.6081	27.2545
3.60559	27.1811
3.60308	27.1303
3.60058	27.0457
3.59808	26.9457
3.59558	26.8921
3.59309	26.7487
3.59061	26.6286
3.58812	26.6002
3.58564	26.4773
3.58316	26.3696
3.58069	26.2766
3.57822	26.1565
3.57575	26.0973
3.57328	25.9965
3.57082	25.7897
3.56836	25.6312
3.56591	25.5191
3.56346	25.4109
3.56101	25.3682
3.55857	25.3285
3.55613	25.2157
3.55369	25.1654
3.55126	25.1929
3.54883	25.1076
3.5464	24.9202
3.54397	24.8139
3.54155	24.736
3.53914	24.6519
3.53672	24.5067
3.53431	24.3941
3.5319	24.4221
3.5295	24.3557
3.5271	24.2136
3.5247	24.0326
3.52231	23.9304
3.51991	23.9593
3.51753	23.937
3.51514	23.7885
3.51276	23.725
3.51038	23.6755
3.50801	23.5793
3.50563	23.5205
3.50327	23.3709
3.5009	23.2474
3.49854	23.1669
3.49618	23.0295
3.49382	22.9686
3.49147	22.9426
3.48912	22.8705
3.48677	22.772
3.48443	22.617
3.48209	22.5508
3.47975	22.6131
3.47742	22.545
3.47509	22.4048
3.47276	22.2783
3.47044	22.2348
3.46812	22.2368
3.4658	22.1472
3.46348	21.9743
