Name: Cherty Limestone
Type: Rock
Class: Sedimentary
Subclass:  Limestone 
Particle Size: Solid surface
Sample No.: Ward71.txt
Owner: JPL
Wavelength range:  VNIR SWIR IR
Origin: Ward's Collection of American Rocks.  Sample locality - Le Roy, Genesee County, New York.
Collected by:  Ward's Natural Science
Description: A compact dark gray rock with numerous irregular chert areas
that are of lighter color than the limestone.
Geologic age - Devonian.



Measurement: Hemispherical reflectance
First Column: X
Second Column: Y
X Units: Wavelength (micrometers)
Y Units: Reflectance (percent)
First X Value: 2.500
Last X Value: 0.400
Number of X Values: 2101
Additional information: None

2.500  12.048477
2.499  11.547005
2.498  11.933087
2.497  12.062012
2.496  11.547882
2.495  12.016249
2.494  12.131208
2.493  11.840202
2.492  12.171697
2.491  12.079859
2.490  12.253832
2.489  12.142244
2.488  12.247475
2.487  12.329137
2.486  12.453151
2.485  12.366021
2.484  12.538288
2.483  12.412072
2.482  12.727662
2.481  12.676650
2.480  12.929538
2.479  12.760164
2.478  13.043936
2.477  13.176228
2.476  13.269639
2.475  13.224703
2.474  13.468333
2.473  13.640592
2.472  13.772348
2.471  13.753551
2.470  13.896794
2.469  13.983503
2.468  14.142995
2.467  14.227012
2.466  14.481510
2.465  14.512888
2.464  14.678680
2.463  14.791921
2.462  14.871036
2.461  15.031977
2.460  15.193155
2.459  15.147188
2.458  15.321023
2.457  15.414305
2.456  15.523316
2.455  15.665564
2.454  15.792682
2.453  15.852345
2.452  15.978642
2.451  16.066759
2.450  16.165257
2.449  16.170172
2.448  16.397319
2.447  16.329725
2.446  16.569229
2.445  16.557126
2.444  16.598228
2.443  16.676218
2.442  16.773282
2.441  16.835695
2.440  17.006503
2.439  16.948841
2.438  17.116287
2.437  17.125248
2.436  17.281532
2.435  17.264543
2.434  17.350949
2.433  17.379051
2.432  17.544147
2.431  17.643228
2.430  17.642921
2.429  17.655099
2.428  17.730799
2.427  17.871010
2.426  17.880370
2.425  17.966755
2.424  18.050752
2.423  18.033999
2.422  18.148941
2.421  18.214713
2.420  18.241294
2.419  18.320498
2.418  18.444805
2.417  18.410955
2.416  18.478075
2.415  18.486785
2.414  18.566569
2.413  18.566444
2.412  18.714188
2.411  18.634130
2.410  18.653020
2.409  18.688855
2.408  18.751284
2.407  18.687730
2.406  18.799691
2.405  18.784509
2.404  18.917364
2.403  18.860411
2.402  18.859806
2.401  18.937502
2.400  18.956473
2.399  18.970740
2.398  18.979901
2.397  18.950337
2.396  19.023331
2.395  19.044204
2.394  19.094461
2.393  19.016245
2.392  19.058664
2.391  19.039093
2.390  19.103026
2.389  19.137489
2.388  19.147776
2.387  19.091479
2.386  19.164380
2.385  19.142872
2.384  19.153724
2.383  19.162205
2.382  19.131670
2.381  19.087764
2.380  19.108247
2.379  19.031339
2.378  18.972388
2.377  18.939315
2.376  18.946729
2.375  18.906191
2.374  18.779511
2.373  18.659903
2.372  18.632652
2.371  18.554067
2.370  18.442495
2.369  18.391925
2.368  18.280952
2.367  18.134299
2.366  18.023856
2.365  17.881707
2.364  17.740199
2.363  17.560539
2.362  17.396279
2.361  17.196639
2.360  17.009077
2.359  16.830893
2.358  16.686123
2.357  16.495612
2.356  16.290050
2.355  16.117798
2.354  15.935912
2.353  15.747958
2.352  15.545487
2.351  15.380164
2.350  15.177561
2.349  14.987757
2.348  14.873420
2.347  14.761539
2.346  14.612487
2.345  14.435777
2.344  14.354063
2.343  14.293079
2.342  14.150138
2.341  14.063251
2.340  14.039792
2.339  14.002093
2.338  13.949673
2.337  13.941093
2.336  13.948862
2.335  14.018159
2.334  13.974839
2.333  14.031659
2.332  14.076734
2.331  14.116821
2.330  14.179012
2.329  14.351951
2.328  14.418332
2.327  14.532098
2.326  14.573869
2.325  14.669101
2.324  14.746520
2.323  14.807482
2.322  14.875653
2.321  15.038877
2.320  15.102228
2.319  15.227428
2.318  15.228260
2.317  15.358204
2.316  15.428919
2.315  15.488803
2.314  15.589510
2.313  15.695859
2.312  15.762639
2.311  15.811466
2.310  15.822531
2.309  15.917161
2.308  15.991398
2.307  16.040584
2.306  16.028553
2.305  16.094013
2.304  16.106343
2.303  16.231095
2.302  16.217545
2.301  16.330746
2.300  16.324772
2.299  16.387213
2.298  16.415428
2.297  16.535764
2.296  16.508860
2.295  16.607842
2.294  16.636921
2.293  16.732843
2.292  16.744053
2.291  16.844128
2.290  16.950019
2.289  16.944483
2.288  16.924239
2.287  17.176294
2.286  17.236967
2.285  17.285849
2.284  17.332902
2.283  17.387671
2.282  17.469689
2.281  17.596510
2.280  17.622236
2.279  17.768726
2.278  17.801588
2.277  17.915085
2.276  17.925752
2.275  18.070477
2.274  18.166875
2.273  18.255885
2.272  18.310369
2.271  18.425256
2.270  18.463415
2.269  18.559752
2.268  18.619047
2.267  18.741973
2.266  18.726582
2.265  18.863912
2.264  18.872802
2.263  18.966430
2.262  18.987093
2.261  18.999658
2.260  19.145398
2.259  19.159447
2.258  19.197033
2.257  19.215776
2.256  19.266103
2.255  19.315451
2.254  19.375786
2.253  19.423475
2.252  19.445930
2.251  19.546090
2.250  19.549209
2.249  19.612560
2.248  19.593877
2.247  19.706662
2.246  19.744969
2.245  19.813572
2.244  19.777244
2.243  19.738602
2.242  19.818488
2.241  19.890934
2.240  19.914844
2.239  19.996470
2.238  19.920688
2.237  20.016765
2.236  19.912922
2.235  20.053729
2.234  20.019802
2.233  20.072633
2.232  20.028177
2.231  20.070459
2.230  20.103891
2.229  20.088620
2.228  20.142804
2.227  20.163801
2.226  20.162912
2.225  20.153746
2.224  20.152267
2.223  20.194878
2.222  20.208499
2.221  20.180780
2.220  20.260991
2.219  20.267690
2.218  20.220441
2.217  20.326764
2.216  20.267836
2.215  20.402593
2.214  20.217718
2.213  20.430092
2.212  20.422310
2.211  20.414172
2.210  20.486587
2.209  20.490830
2.208  20.411553
2.207  20.479757
2.206  20.485210
2.205  20.562325
2.204  20.551429
2.203  20.691678
2.202  20.620625
2.201  20.698617
2.200  20.691211
2.199  20.858599
2.198  20.773539
2.197  20.830412
2.196  20.800992
2.195  20.898100
2.194  20.940439
2.193  20.951849
2.192  20.904655
2.191  20.994235
2.190  20.932019
2.189  21.063234
2.188  21.016334
2.187  21.177626
2.186  21.031717
2.185  21.199557
2.184  21.165876
2.183  21.251984
2.182  21.082367
2.181  21.175820
2.180  21.213031
2.179  21.327447
2.178  21.230637
2.177  21.337826
2.176  21.297818
2.175  21.318933
2.174  21.285243
2.173  21.356278
2.172  21.296221
2.171  21.366391
2.170  21.322169
2.169  21.368991
2.168  21.323023
2.167  21.347277
2.166  21.321702
2.165  21.347199
2.164  21.326986
2.163  21.373760
2.162  21.357741
2.161  21.351469
2.160  21.327905
2.159  21.427495
2.158  21.385675
2.157  21.389283
2.156  21.404604
2.155  21.451263
2.154  21.346483
2.153  21.415760
2.152  21.441486
2.151  21.429060
2.150  21.395261
2.149  21.542387
2.148  21.500041
2.147  21.478304
2.146  21.473540
2.145  21.604314
2.144  21.549274
2.143  21.646457
2.142  21.627408
2.141  21.681923
2.140  21.608695
2.139  21.655661
2.138  21.695133
2.137  21.802197
2.136  21.794214
2.135  21.778965
2.134  21.741759
2.133  21.802092
2.132  21.786261
2.131  21.844869
2.130  21.796018
2.129  21.779631
2.128  21.762292
2.127  21.855070
2.126  21.810025
2.125  21.769161
2.124  21.753922
2.123  21.797646
2.122  21.769663
2.121  21.810553
2.120  21.774942
2.119  21.785356
2.118  21.713053
2.117  21.732085
2.116  21.734241
2.115  21.757864
2.114  21.717598
2.113  21.711189
2.112  21.692697
2.111  21.673603
2.110  21.665576
2.109  21.680244
2.108  21.675704
2.107  21.728033
2.106  21.718351
2.105  21.660661
2.104  21.641540
2.103  21.659456
2.102  21.651981
2.101  21.704907
2.100  21.687047
2.099  21.681512
2.098  21.701789
2.097  21.688331
2.096  21.657584
2.095  21.745379
2.094  21.711783
2.093  21.705915
2.092  21.720858
2.091  21.729110
2.090  21.709453
2.089  21.749209
2.088  21.773531
2.087  21.746604
2.086  21.711368
2.085  21.746105
2.084  21.760058
2.083  21.763877
2.082  21.787447
2.081  21.803806
2.080  21.772749
2.079  21.755244
2.078  21.745101
2.077  21.796299
2.076  21.806457
2.075  21.791533
2.074  21.747000
2.073  21.705285
2.072  21.746701
2.071  21.720222
2.070  21.711387
2.069  21.777864
2.068  21.786844
2.067  21.754492
2.066  21.742183
2.065  21.778431
2.064  21.788608
2.063  21.785217
2.062  21.773522
2.061  21.740521
2.060  21.760409
2.059  21.757743
2.058  21.741896
2.057  21.753268
2.056  21.785175
2.055  21.778278
2.054  21.740566
2.053  21.716632
2.052  21.733966
2.051  21.719087
2.050  21.753317
2.049  21.702902
2.048  21.713750
2.047  21.710014
2.046  21.711023
2.045  21.721717
2.044  21.711386
2.043  21.651064
2.042  21.686512
2.041  21.691861
2.040  21.681479
2.039  21.642449
2.038  21.678304
2.037  21.645040
2.036  21.648472
2.035  21.649546
2.034  21.598636
2.033  21.558282
2.032  21.618250
2.031  21.574531
2.030  21.581488
2.029  21.503913
2.028  21.526936
2.027  21.428587
2.026  21.476323
2.025  21.506502
2.024  21.512545
2.023  21.445920
2.022  21.418097
2.021  21.370313
2.020  21.371018
2.019  21.301896
2.018  21.288984
2.017  21.285237
2.016  21.322414
2.015  21.206652
2.014  21.214555
2.013  21.145040
2.012  21.117494
2.011  21.124051
2.010  21.082423
2.009  21.044327
2.008  21.023897
2.007  20.918732
2.006  20.917557
2.005  20.891111
2.004  20.816202
2.003  20.815412
2.002  20.786858
2.001  20.667066
2.000  20.675320
1.999  20.589538
1.998  20.607564
1.997  20.521845
1.996  20.576416
1.995  20.562351
1.994  20.499514
1.993  20.528399
1.992  20.531891
1.991  20.470339
1.990  20.490889
1.989  20.507401
1.988  20.564795
1.987  20.542103
1.986  20.552507
1.985  20.459420
1.984  20.558333
1.983  20.527591
1.982  20.488451
1.981  20.469650
1.980  20.543240
1.979  20.462392
1.978  20.448921
1.977  20.448845
1.976  20.473801
1.975  20.397371
1.974  20.462883
1.973  20.362147
1.972  20.387955
1.971  20.262805
1.970  20.339518
1.969  20.313577
1.968  20.303227
1.967  20.248025
1.966  20.307886
1.965  20.188064
1.964  20.306054
1.963  20.140014
1.962  20.283640
1.961  20.153936
1.960  20.289133
1.959  20.247152
1.958  20.192805
1.957  20.152633
1.956  20.323288
1.955  20.103339
1.954  20.205648
1.953  20.095641
1.952  20.267817
1.951  20.091503
1.950  20.228967
1.949  20.176133
1.948  20.172132
1.947  20.058431
1.946  20.149711
1.945  20.144736
1.944  20.176573
1.943  20.119933
1.942  20.099781
1.941  20.098068
1.940  20.158634
1.939  20.060452
1.938  20.119615
1.937  20.020779
1.936  20.223561
1.935  20.029192
1.934  20.134942
1.933  20.117440
1.932  20.082418
1.931  19.964734
1.930  20.094059
1.929  20.089806
1.928  20.064704
1.927  20.103633
1.926  19.977443
1.925  20.181198
1.924  20.069576
1.923  20.111826
1.922  20.032805
1.921  20.066189
1.920  20.083610
1.919  20.086578
1.918  20.152318
1.917  20.155546
1.916  20.212962
1.915  20.164516
1.914  20.257282
1.913  20.304376
1.912  20.311299
1.911  20.338487
1.910  20.437726
1.909  20.445491
1.908  20.540717
1.907  20.520336
1.906  20.611868
1.905  20.613716
1.904  20.686811
1.903  20.772427
1.902  20.886264
1.901  20.897351
1.900  21.065744
1.899  21.088618
1.898  21.244654
1.897  21.315295
1.896  21.394409
1.895  21.500308
1.894  21.647012
1.893  21.640527
1.892  21.665491
1.891  21.759215
1.890  21.903959
1.889  21.861224
1.888  21.982842
1.887  21.972284
1.886  22.025564
1.885  22.007358
1.884  22.021401
1.883  22.000960
1.882  22.056299
1.881  22.098420
1.880  22.143002
1.879  22.154402
1.878  22.169285
1.877  22.090992
1.876  22.195475
1.875  22.158118
1.874  22.186197
1.873  22.225904
1.872  22.268342
1.871  22.255062
1.870  22.373810
1.869  22.344258
1.868  22.548295
1.867  22.514712
1.866  22.557968
1.865  22.600723
1.864  22.747549
1.863  22.658367
1.862  22.740158
1.861  22.709789
1.860  22.764439
1.859  22.766758
1.858  22.807912
1.857  22.760605
1.856  22.849210
1.855  22.852179
1.854  22.807542
1.853  22.822574
1.852  22.957324
1.851  22.947773
1.850  22.952658
1.849  22.912806
1.848  22.898279
1.847  22.871146
1.846  22.917302
1.845  22.931717
1.844  23.017594
1.843  22.988012
1.842  22.964463
1.841  22.919131
1.840  22.948279
1.839  22.945519
1.838  23.049389
1.837  22.956312
1.836  22.986502
1.835  22.941560
1.834  22.982808
1.833  23.061963
1.832  23.091288
1.831  23.032890
1.830  23.057127
1.829  23.078125
1.828  23.097933
1.827  23.066570
1.826  23.117948
1.825  23.084337
1.824  23.120808
1.823  23.120872
1.822  23.121233
1.821  23.138417
1.820  23.132718
1.819  23.118050
1.818  23.162229
1.817  23.145591
1.816  23.214234
1.815  23.184763
1.814  23.226763
1.813  23.205039
1.812  23.196198
1.811  23.194423
1.810  23.210724
1.809  23.209109
1.808  23.224749
1.807  23.206847
1.806  23.179623
1.805  23.192624
1.804  23.241331
1.803  23.161843
1.802  23.161239
1.801  23.215561
1.800  23.184290
1.799  23.167975
1.798  23.200958
1.797  23.201176
1.796  23.244024
1.795  23.238046
1.794  23.255076
1.793  23.284808
1.792  23.202340
1.791  23.203718
1.790  23.258979
1.789  23.250137
1.788  23.197094
1.787  23.200893
1.786  23.263401
1.785  23.298009
1.784  23.267591
1.783  23.243283
1.782  23.211746
1.781  23.183886
1.780  23.197567
1.779  23.192038
1.778  23.248593
1.777  23.247378
1.776  23.199431
1.775  23.174488
1.774  23.193408
1.773  23.216819
1.772  23.208960
1.771  23.214184
1.770  23.266169
1.769  23.266671
1.768  23.198210
1.767  23.194318
1.766  23.176482
1.765  23.185265
1.764  23.183441
1.763  23.211554
1.762  23.180084
1.761  23.176503
1.760  23.126894
1.759  23.170326
1.758  23.190505
1.757  23.147513
1.756  23.125084
1.755  23.183916
1.754  23.167270
1.753  23.217920
1.752  23.201289
1.751  23.191792
1.750  23.206702
1.749  23.239212
1.748  23.180299
1.747  23.213343
1.746  23.238545
1.745  23.254923
1.744  23.204217
1.743  23.237171
1.742  23.245900
1.741  23.215457
1.740  23.194130
1.739  23.176162
1.738  23.196410
1.737  23.230401
1.736  23.219952
1.735  23.258748
1.734  23.185835
1.733  23.178747
1.732  23.144247
1.731  23.235601
1.730  23.195607
1.729  23.265398
1.728  23.261249
1.727  23.252940
1.726  23.256751
1.725  23.341711
1.724  23.266646
1.723  23.214958
1.722  23.244747
1.721  23.253395
1.720  23.208908
1.719  23.253405
1.718  23.184693
1.717  23.235670
1.716  23.273380
1.715  23.251500
1.714  23.287683
1.713  23.302591
1.712  23.273864
1.711  23.275417
1.710  23.279192
1.709  23.300629
1.708  23.250751
1.707  23.240613
1.706  23.281341
1.705  23.291370
1.704  23.270521
1.703  23.281525
1.702  23.281309
1.701  23.295470
1.700  23.330551
1.699  23.293567
1.698  23.212696
1.697  23.259445
1.696  23.232335
1.695  23.321839
1.694  23.298117
1.693  23.275019
1.692  23.299685
1.691  23.255261
1.690  23.310619
1.689  23.363303
1.688  23.328560
1.687  23.317513
1.686  23.209963
1.685  23.266481
1.684  23.286167
1.683  23.310288
1.682  23.231210
1.681  23.287089
1.680  23.249316
1.679  23.280231
1.678  23.286417
1.677  23.274733
1.676  23.239483
1.675  23.365811
1.674  23.244851
1.673  23.338361
1.672  23.273612
1.671  23.295312
1.670  23.237212
1.669  23.332596
1.668  23.169159
1.667  23.344293
1.666  23.206013
1.665  23.247768
1.664  23.321678
1.663  23.334515
1.662  23.148667
1.661  23.362435
1.660  23.240558
1.659  23.307013
1.658  23.256527
1.657  23.317933
1.656  23.226965
1.655  23.292517
1.654  23.249499
1.653  23.235032
1.652  23.277102
1.651  23.306765
1.650  23.232227
1.649  23.277862
1.648  23.299700
1.647  23.228250
1.646  23.137704
1.645  23.287266
1.644  23.159542
1.643  23.224325
1.642  23.296679
1.641  23.099192
1.640  23.334190
1.639  23.233893
1.638  23.215453
1.637  23.302883
1.636  23.239990
1.635  23.237608
1.634  23.263897
1.633  23.290483
1.632  23.263287
1.631  23.216758
1.630  23.217938
1.629  23.260150
1.628  23.192589
1.627  23.246630
1.626  23.199011
1.625  23.251566
1.624  23.204064
1.623  23.207658
1.622  23.153418
1.621  23.241528
1.620  23.192327
1.619  23.268583
1.618  23.160768
1.617  23.193420
1.616  23.125164
1.615  23.249365
1.614  23.134055
1.613  23.171184
1.612  23.122752
1.611  23.264775
1.610  23.202836
1.609  23.248698
1.608  23.164343
1.607  23.209793
1.606  23.136949
1.605  23.138942
1.604  23.122309
1.603  23.211161
1.602  23.242707
1.601  23.183183
1.600  23.141454
1.599  23.156226
1.598  23.108972
1.597  23.093695
1.596  23.132059
1.595  23.180075
1.594  23.126361
1.593  23.135194
1.592  23.093339
1.591  23.162960
1.590  23.054811
1.589  23.124199
1.588  23.022532
1.587  23.123256
1.586  23.068554
1.585  23.145272
1.584  23.082026
1.583  23.067540
1.582  23.014345
1.581  23.135506
1.580  23.048604
1.579  23.092761
1.578  23.088980
1.577  23.100808
1.576  23.026348
1.575  22.984314
1.574  23.000613
1.573  23.095017
1.572  22.978740
1.571  23.046340
1.570  22.975317
1.569  22.989952
1.568  22.963896
1.567  23.002796
1.566  22.939765
1.565  23.034686
1.564  22.947857
1.563  23.008815
1.562  22.956469
1.561  22.940370
1.560  22.900778
1.559  22.927841
1.558  22.945203
1.557  22.981084
1.556  22.941624
1.555  22.970155
1.554  22.932259
1.553  22.930116
1.552  22.882228
1.551  22.908322
1.550  22.899632
1.549  22.937869
1.548  22.900527
1.547  22.918773
1.546  22.868700
1.545  22.937042
1.544  22.921454
1.543  22.862529
1.542  22.857577
1.541  22.916226
1.540  22.883448
1.539  22.888084
1.538  22.869044
1.537  22.864889
1.536  22.811262
1.535  22.803614
1.534  22.808866
1.533  22.839988
1.532  22.834424
1.531  22.801513
1.530  22.782100
1.529  22.807023
1.528  22.802895
1.527  22.785581
1.526  22.772854
1.525  22.809053
1.524  22.755275
1.523  22.782203
1.522  22.783277
1.521  22.735246
1.520  22.730809
1.519  22.770640
1.518  22.745248
1.517  22.704729
1.516  22.705167
1.515  22.699456
1.514  22.687931
1.513  22.682842
1.512  22.717935
1.511  22.695075
1.510  22.652483
1.509  22.640325
1.508  22.604831
1.507  22.602593
1.506  22.624062
1.505  22.597744
1.504  22.578383
1.503  22.554627
1.502  22.567575
1.501  22.634290
1.500  22.608612
1.499  22.571843
1.498  22.556080
1.497  22.510100
1.496  22.480825
1.495  22.552740
1.494  22.552773
1.493  22.502074
1.492  22.486161
1.491  22.481379
1.490  22.470516
1.489  22.456832
1.488  22.484975
1.487  22.463583
1.486  22.465326
1.485  22.411081
1.484  22.435198
1.483  22.448923
1.482  22.396362
1.481  22.374181
1.480  22.364932
1.479  22.337277
1.478  22.377894
1.477  22.341955
1.476  22.365817
1.475  22.357933
1.474  22.346947
1.473  22.300696
1.472  22.322946
1.471  22.314165
1.470  22.271645
1.469  22.222386
1.468  22.290714
1.467  22.276437
1.466  22.239925
1.465  22.206475
1.464  22.219802
1.463  22.211554
1.462  22.252399
1.461  22.230499
1.460  22.208909
1.459  22.224853
1.458  22.222311
1.457  22.179909
1.456  22.188630
1.455  22.220350
1.454  22.162209
1.453  22.102918
1.452  22.162514
1.451  22.166672
1.450  22.178873
1.449  22.183129
1.448  22.202544
1.447  22.165074
1.446  22.116758
1.445  22.072147
1.444  22.145235
1.443  22.146581
1.442  22.079550
1.441  22.070334
1.440  22.100244
1.439  22.017611
1.438  22.020110
1.437  22.044250
1.436  22.002216
1.435  22.006777
1.434  22.037737
1.433  21.962845
1.432  22.026543
1.431  21.953567
1.430  22.007750
