Name: Wollastonite CaSiO_3
Type: Mineral
Class: Silicates
Subclass: Inosilicates
Particle Size: 45-125um
Sample No.: IN-2A
Owner: JPL
Wavelength range: IR
Origin: USA, California, Inyo County, Panamint Mountains
Collected by Burminco
Description: 





Measurement: Hemispherical reflectance
First Column: X
Second Column: Y
X Units:  Wavelength (micrometers)
Y Units:  Reflectance (percent)
First X Value: 15.3853
Last X Value: 2.00032
Number of X Values: 2256
Additional information: in02aa.txt
 
15.3853	4.37157
15.3397	3.24109
15.2945	2.59326
15.2495	2.30652
15.2048	2.115
15.1603	2.12205
15.1161	2.21299
15.0722	2.40961
15.0285	2.91254
14.9851	2.9707
14.9419	2.94003
14.8989	3.01665
14.8563	3.1553
14.8138	3.25399
14.7716	3.55956
14.7296	3.76763
14.6879	4.09325
14.6464	4.08024
14.6052	3.48375
14.5641	2.74508
14.5233	2.26169
14.4828	2.11404
14.4424	2.13156
14.4023	2.3053
14.3624	2.72226
14.3227	3.1444
14.2833	3.41516
14.244	3.8553
14.205	4.28837
14.1662	4.72768
14.1276	5.3075
14.0892	5.80952
14.051	6.20318
14.0131	6.45753
13.9753	6.49626
13.9377	6.62863
13.9004	6.94895
13.8632	7.26936
13.8262	7.54242
13.7895	7.87489
13.7529	8.16527
13.7165	8.36597
13.6803	8.59125
13.6443	8.78204
13.6085	8.78301
13.5729	8.90265
13.5374	9.153
13.5022	9.30043
13.4671	9.42938
13.4322	9.40628
13.3975	9.39453
13.363	9.47539
13.3286	9.41966
13.2944	9.5511
13.2604	9.99841
13.2266	10.0247
13.193	9.83234
13.1595	10.0193
13.1262	10.1886
13.093	10.096
13.06	10.1357
13.0272	10.293
12.9946	10.4114
12.9621	10.4574
12.9298	10.4948
12.8976	10.3591
12.8656	10.2148
12.8337	10.2673
12.8021	10.2127
12.7705	10.1311
12.7391	10.2057
12.7079	10.1294
12.6769	10.0195
12.6459	10.04
12.6152	10.038
12.5845	9.99282
12.5541	9.81481
12.5238	9.77296
12.4936	9.92181
12.4635	10.0615
12.4337	9.95031
12.4039	9.73183
12.3743	9.63498
12.3448	9.65922
12.3155	9.57155
12.2863	9.44466
12.2573	9.37932
12.2284	9.29936
12.1996	9.24898
12.171	9.23912
12.1425	9.04105
12.1141	8.89897
12.0859	9.04253
12.0578	9.03355
12.0298	8.8446
12.0019	8.8244
11.9742	8.83189
11.9466	8.74391
11.9192	8.7319
11.8918	8.6098
11.8646	8.4267
11.8375	8.44366
11.8106	8.50243
11.7837	8.50668
11.757	8.47163
11.7304	8.45551
11.7039	8.31017
11.6776	8.24709
11.6513	8.2751
11.6252	8.40288
11.5992	8.44334
11.5733	8.35901
11.5475	8.23789
11.5219	8.22069
11.4963	8.22521
11.4709	8.14499
11.4455	8.34463
11.4203	8.52602
11.3952	8.66499
11.3702	8.73805
11.3454	8.84518
11.3206	9.18843
11.2959	9.49522
11.2714	9.87774
11.2469	10.4628
11.2226	10.9707
11.1983	11.4585
11.1742	12.2618
11.1502	13.3511
11.1263	14.3451
11.1024	15.3373
11.0787	16.2897
11.0551	16.5426
11.0316	15.9489
11.0081	14.872
10.9848	14.1693
10.9616	14.1318
10.9385	14.6292
10.9154	15.3222
10.8925	16.0579
10.8697	16.7552
10.8469	17.2105
10.8243	17.5927
10.8017	17.8861
10.7793	17.8623
10.7569	17.6713
10.7346	17.4723
10.7125	17.6253
10.6904	18.1674
10.6684	18.6954
10.6465	19.165
10.6247	19.5908
10.6029	20.0639
10.5813	20.4084
10.5597	20.725
10.5383	20.9657
10.5169	21.1976
10.4956	21.5599
10.4744	22.0286
10.4533	22.3839
10.4323	22.6889
10.4113	23.0954
10.3904	23.4027
10.3697	23.7389
10.349	24.3465
10.3284	24.6662
10.3078	24.6779
10.2874	24.3776
10.267	23.4159
10.2467	21.8296
10.2265	19.6745
10.2064	17.4328
10.1863	16.2122
10.1663	15.952
10.1464	15.8723
10.1266	15.8636
10.1069	15.7816
10.0872	15.4868
10.0676	15.0066
10.0481	14.4828
10.0287	13.9524
10.0093	13.3577
9.99005	12.5828
9.97084	11.7827
9.95169	11.3259
9.93263	11.5229
9.91364	12.1025
9.89472	12.5928
9.87587	12.8258
9.8571	12.5284
9.83839	11.8745
9.81976	11.3855
9.80119	11.1533
9.78271	11.3197
9.76428	11.8005
9.74592	12.4192
9.72764	12.8143
9.70943	12.7021
9.69128	12.0985
9.6732	10.9402
9.65518	9.20938
9.63724	7.23831
9.61935	6.38338
9.60155	6.88877
9.5838	7.95876
9.56611	9.17652
9.5485	10.2276
9.53094	11.1692
9.51345	12.0329
9.49604	12.9684
9.47867	14.1868
9.46137	15.6891
9.44414	17.7209
9.42697	19.8708
9.40986	21.7972
9.39281	23.4399
9.37583	24.6502
9.35891	25.4025
9.34204	25.7473
9.32524	25.8039
9.3085	25.6652
9.29182	25.3143
9.27519	24.684
9.25863	23.818
9.24213	22.5871
9.22568	20.7787
9.2093	18.608
9.19297	16.3692
9.17669	14.5185
9.16048	13.3536
9.14433	12.3311
9.12823	11.3797
9.11218	10.9607
9.0962	10.743
9.08027	10.3297
9.06439	10.1053
9.04858	10.1177
9.03281	10.1065
9.0171	10.2153
9.00145	10.4024
8.98585	10.7011
8.9703	11.0055
8.9548	11.2356
8.93937	11.4865
8.92398	11.7355
8.90865	11.7947
8.89337	11.826
8.87814	11.7684
8.86296	11.6524
8.84784	11.4719
8.83277	11.0646
8.81774	10.4519
8.80277	9.53622
8.78786	8.46596
8.77298	7.36691
8.75816	6.43371
8.7434	5.65013
8.72868	4.81252
8.714	4.11995
8.69938	3.76816
8.68481	3.44186
8.67029	3.11594
8.65581	2.75654
8.64139	2.39879
8.62701	2.17702
8.61268	2.0435
8.5984	1.97413
8.58416	1.88385
8.56997	1.92206
8.55583	1.99355
8.54174	1.96224
8.52769	1.97024
8.51368	2.05184
8.49973	1.99915
8.48582	2.04699
8.47195	2.17953
8.45813	2.15974
8.44436	2.07011
8.43062	2.04071
8.41693	2.0833
8.4033	2.17856
8.3897	2.29031
8.37614	2.38279
8.36264	2.39423
8.34917	2.37701
8.33574	2.56719
8.32236	2.63186
8.30903	2.78859
8.29573	2.93496
8.28248	2.90405
8.26927	2.89821
8.2561	3.02162
8.24298	3.12728
8.2299	3.1645
8.21685	3.20645
8.20385	3.33961
8.19089	3.46599
8.17797	3.55593
8.16509	3.6733
8.15225	3.78509
8.13946	3.80429
8.1267	3.79767
8.11398	3.88873
8.10131	3.99621
8.08867	4.07364
8.07606	4.07836
8.0635	4.13377
8.05099	4.21644
8.0385	4.31055
8.02606	4.35622
8.01366	4.44265
8.00129	4.59689
7.98896	4.66256
7.97667	4.65037
7.96442	4.71154
7.9522	4.7962
7.94002	4.8206
7.92788	4.85129
7.91578	4.91872
7.90371	5.00846
7.89168	5.13539
7.87969	5.24061
7.86773	5.31158
7.85581	5.50483
7.84392	5.69161
7.83207	5.79259
7.82026	5.84533
7.80849	6.00499
7.79674	6.25628
7.78503	6.41452
7.77337	6.55122
7.76173	6.6853
7.75012	6.77228
7.73856	6.85804
7.72703	6.93396
7.71553	7.06048
7.70406	7.25983
7.69263	7.41296
7.68123	7.53668
7.66987	7.58622
7.65855	7.56806
7.64725	7.65322
7.63598	7.69754
7.62475	7.69021
7.61356	7.64113
7.60239	7.72299
7.59126	7.90399
7.58017	8.0675
7.5691	8.11501
7.55806	8.12308
7.54707	8.16824
7.5361	8.26908
7.52516	8.48714
7.51425	8.63905
7.50338	8.6888
7.49253	8.75131
7.48172	8.89303
7.47094	9.05635
7.46019	9.21281
7.44947	9.40096
7.43879	9.61114
7.42813	9.76439
7.4175	9.87231
7.4069	10.111
7.39634	10.4034
7.3858	10.652
7.37529	10.9179
7.36482	11.1844
7.35437	11.4353
7.34396	11.6017
7.33357	11.6732
7.32321	11.9285
7.31288	12.2317
7.30258	12.3372
7.29231	12.5178
7.28207	12.7063
7.27185	12.6926
7.26167	12.7894
7.25152	12.9778
7.24139	13.1219
7.23129	13.2209
7.22122	13.2453
7.21117	13.3027
7.20116	13.2636
7.19117	13.1665
7.18121	13.2606
7.17128	13.3784
7.16137	13.2984
7.1515	13.14
7.14164	13.0527
7.13182	13.0389
7.12203	13.0309
7.11225	12.9554
7.10251	12.8959
7.0928	12.8535
7.08311	12.8847
7.07344	12.9792
7.06381	13.0892
7.0542	13.3275
7.04461	13.4609
7.03506	13.4595
7.02552	13.4789
7.01601	13.4411
7.00653	13.4239
6.99708	13.4282
6.98765	13.4174
6.97824	13.3566
6.96886	13.4716
6.95951	13.5803
6.95018	13.4761
6.94087	13.4256
6.9316	13.4758
6.92234	13.5544
6.91311	13.5973
6.90391	13.5351
6.89473	13.5148
6.88557	13.5824
6.87644	13.6209
6.86733	13.7514
6.85824	13.6338
6.84918	13.4117
6.84015	13.3671
6.83114	13.3503
6.82215	13.2015
6.81319	13.0999
6.80424	13.1985
6.79532	13.3148
6.78643	13.249
6.77756	13.1599
6.76871	13.0773
6.75989	12.9463
6.75109	12.8121
6.74231	12.6603
6.73355	12.6006
6.72482	12.6205
6.71611	12.6218
6.70742	12.4991
6.69875	12.3943
6.69011	12.4527
6.68149	12.4646
6.67289	12.4581
6.66431	12.6003
6.65576	12.846
6.64722	13.2306
6.63871	13.7975
6.63022	14.1946
6.62175	14.4355
6.61331	14.6998
6.60488	14.9257
6.59648	15.1451
6.5881	15.3052
6.57974	15.4072
6.5714	15.4947
6.56308	15.4078
6.55478	15.3591
6.54651	15.3138
6.53825	15.2482
6.53001	15.1024
6.5218	15.0139
6.51361	14.8415
6.50544	14.7446
6.49729	14.7948
6.48915	14.6132
6.48104	14.2352
6.47295	13.8572
6.46488	13.5229
6.45683	13.3873
6.4488	13.3655
6.44079	13.2024
6.4328	13.0496
6.42482	12.8551
6.41687	12.6538
6.40894	12.2426
6.40103	11.8609
6.39314	11.6428
6.38526	11.5685
6.37741	11.706
6.36957	11.9313
6.36176	12.052
6.35396	12.2219
6.34618	12.5655
6.33843	12.7537
6.33069	12.807
6.32297	13.0151
6.31527	13.3146
6.30758	13.6402
6.29992	13.9457
6.29227	14.143
6.28465	14.2963
6.27704	14.4277
6.26945	14.3779
6.26188	14.3228
6.25432	14.2623
6.24679	14.0451
6.23927	13.7551
6.23177	13.508
6.22429	13.3351
6.21683	13.3222
6.20938	13.3933
6.20195	13.4783
6.19454	13.5485
6.18715	13.698
6.17978	13.6467
6.17242	13.4284
6.16508	13.3643
6.15776	13.3389
6.15045	13.2697
6.14317	13.3184
6.1359	13.3138
6.12864	13.1599
6.12141	13.1444
6.11419	13.2374
6.10699	13.1878
6.0998	13.2486
6.09263	13.3837
6.08549	13.5878
6.07835	14.0486
6.07123	14.5524
6.06413	14.9031
6.05705	15.3626
6.04998	16.0793
6.04293	16.368
6.0359	16.4411
6.02888	16.8221
6.02187	17.3291
6.01489	17.9302
6.00792	18.4
6.00096	18.8203
5.99403	19.3099
5.98711	19.7468
5.9802	19.91
5.97331	20.09
5.96644	20.2383
5.95958	20.1999
5.95274	20.2086
5.94591	20.2925
5.9391	20.6055
5.9323	20.4787
5.92552	20.1315
5.91876	19.9495
5.91201	19.7726
5.90528	19.6229
5.89856	19.5079
5.89186	19.1432
5.88517	19.1022
5.8785	18.9277
5.87184	18.3867
5.8652	18.123
5.85857	17.7723
5.85196	17.3738
5.84536	17.0029
5.83878	16.6959
5.83221	16.435
5.82566	16.2369
5.81912	16.112
5.81259	15.8813
5.80608	15.8679
5.79959	16.0681
5.79311	16.1567
5.78665	16.2983
5.78019	16.5851
5.77376	16.9594
5.76734	17.4089
5.76093	17.5466
5.75453	17.6757
5.74815	18.0789
5.74179	18.3438
5.73543	18.7042
5.7291	19.2162
5.72277	19.8103
5.71646	20.4899
5.71017	21.3147
5.70389	22.155
5.69762	23.1137
5.69136	24.0755
5.68513	24.7599
5.6789	25.2828
5.67268	25.5839
5.66648	25.671
5.6603	25.7876
5.65413	25.8244
5.64797	25.8316
5.64182	25.898
5.63569	25.6858
5.62957	25.4345
5.62347	25.3359
5.61737	25.1916
5.61129	25.0785
5.60522	25.0758
5.59917	25.0952
5.59313	25.0431
5.5871	25.037
5.58109	25.1585
5.57509	25.127
5.5691	24.7647
5.56312	24.3309
5.55716	24.0208
5.55121	23.9009
5.54528	24.0475
5.53935	24.5274
5.53344	25.2675
5.52754	26.1916
5.52166	27.0334
5.51578	27.6671
5.50992	28.1656
5.50407	28.6977
5.49823	29.2944
5.49241	29.8728
5.4866	30.2797
5.4808	30.7576
5.47501	31.1669
5.46923	31.5811
5.46347	31.8575
5.45772	31.8491
5.45198	31.8295
5.44625	31.8258
5.44054	31.7478
5.43484	31.725
5.42914	31.7858
5.42347	31.9706
5.4178	31.9302
5.41214	31.7757
5.4065	31.4974
5.40087	30.9534
5.39525	30.1905
5.38964	29.3997
5.38404	28.7641
5.37846	28.3624
5.37288	28.1939
5.36732	28.1454
5.36177	28.1934
5.35623	28.2656
5.35071	28.2502
5.34519	28.0668
5.33968	27.8556
5.33419	27.6328
5.32871	27.2189
5.32324	26.6008
5.31778	25.8183
5.31233	24.8794
5.30689	23.7993
5.30147	22.6975
5.29605	21.6642
5.29065	20.6355
5.28525	19.6609
5.27987	18.9466
5.2745	18.4475
5.26914	18.0813
5.26379	17.8016
5.25845	17.6598
5.25312	17.5841
5.24781	17.6192
5.2425	17.7507
5.23721	17.8245
5.23192	17.9368
5.22665	18.0762
5.22138	18.2304
5.21613	18.4051
5.21089	18.5082
5.20566	18.5513
5.20044	18.6853
5.19522	18.8731
5.19002	19.127
5.18483	19.4963
5.17965	20.0027
5.17448	20.5029
5.16933	20.9581
5.16418	21.4758
5.15904	21.9114
5.15391	22.3826
5.14879	22.8197
5.14368	23.1347
5.13859	23.3801
5.1335	23.5799
5.12842	23.7873
5.12335	23.9826
5.1183	24.1298
5.11325	24.2501
5.10821	24.3862
5.10318	24.4613
5.09817	24.5716
5.09316	24.6811
5.08816	24.81
5.08317	24.9195
5.07819	24.9552
5.07322	25.008
5.06826	25.1193
5.06331	25.2719
5.05837	25.5062
5.05344	25.7165
5.04852	25.8564
5.04361	25.9926
5.03871	26.1274
5.03382	26.2292
5.02894	26.3951
5.02406	26.6117
5.0192	26.7972
5.01435	26.9984
5.0095	27.2057
5.00467	27.2376
4.99984	27.215
4.99502	27.3156
4.99021	27.4916
4.98542	27.7552
4.98063	28.0347
4.97585	28.1386
4.97108	28.055
4.96632	27.9651
4.96156	27.9403
4.95682	27.8262
4.95209	27.6323
4.94736	27.4633
4.94264	27.3277
4.93794	27.241
4.93324	27.1572
4.92855	27.081
4.92387	27.0484
4.9192	27.093
4.91453	27.2673
4.90988	27.7462
4.90524	28.3599
4.9006	28.9536
4.89597	29.415
4.89135	29.7118
4.88674	29.9703
4.88214	30.1932
4.87755	30.4002
4.87296	30.6371
4.86839	30.9372
4.86382	31.3542
4.85926	31.709
4.85471	32.0029
4.85017	32.2096
4.84564	32.294
4.84111	32.3364
4.8366	32.4468
4.83209	32.6926
4.82759	33.1237
4.8231	33.7462
4.81862	34.4271
4.81415	35.0499
4.80968	35.6436
4.80522	36.1533
4.80077	36.5614
4.79633	36.9099
4.7919	37.1668
4.78747	37.4503
4.78306	37.7339
4.77865	37.8938
4.77425	38.0679
4.76986	38.2562
4.76547	38.4918
4.7611	38.7802
4.75673	39.2214
4.75237	39.7875
4.74802	40.2674
4.74367	40.725
4.73934	41.3645
4.73501	42.0221
4.73069	42.7145
4.72638	43.3665
4.72207	43.8564
4.71777	44.2705
4.71348	44.6938
4.7092	44.9976
4.70493	45.2298
4.70066	45.3879
4.69641	45.5205
4.69216	45.693
4.68791	45.9027
4.68368	46.0673
4.67945	46.266
4.67523	46.4945
4.67102	46.7356
4.66682	47.1087
4.66262	47.5605
4.65843	48.0332
4.65425	48.6144
4.65007	49.2505
4.64591	49.9067
4.64175	50.5241
4.6376	51.102
4.63345	51.689
4.62932	52.3473
4.62519	52.937
4.62106	53.5268
4.61695	54.0493
4.61284	54.429
4.60874	54.7807
4.60465	55.1926
4.60056	55.4757
4.59648	55.7
4.59241	56.0119
4.58835	56.297
4.58429	56.4738
4.58024	56.6181
4.5762	56.727
4.57216	56.8679
4.56814	57.0887
4.56411	57.4457
4.5601	57.8449
4.55609	58.327
4.55209	58.9658
4.5481	59.6238
4.54411	60.2771
4.54013	60.9061
4.53616	61.4162
4.5322	61.8653
4.52824	62.3341
4.52429	62.6388
4.52034	62.8361
4.51641	63.0854
4.51247	63.3011
4.50855	63.3764
4.50463	63.3847
4.50072	63.5143
4.49682	63.5859
4.49292	63.6492
4.48903	63.7522
4.48515	63.8339
4.48127	63.8375
4.4774	63.9625
4.47354	64.0119
4.46968	64.01
4.46584	64.0905
4.46199	64.2116
4.45815	64.2728
4.45432	64.3936
4.4505	64.5037
4.44668	64.548
4.44287	64.6281
4.43907	64.7643
4.43527	64.8143
4.43148	64.8756
4.4277	64.9723
4.42392	65.0261
4.42015	65.0274
4.41638	65.0218
4.41262	65.1088
4.40887	65.2361
4.40513	65.3434
4.40139	65.4533
4.39765	65.5814
4.39393	65.6431
4.39021	65.7011
4.38649	65.8063
4.38278	65.9484
4.37908	66.1301
4.37539	66.2033
4.3717	66.3045
4.36801	66.4977
4.36434	66.6738
4.36067	66.8016
4.357	66.9117
4.35335	66.9761
4.34969	67.0469
4.34605	67.1624
4.34241	67.2532
4.33877	67.3639
4.33514	67.4707
4.33152	67.5445
4.32791	67.5831
4.3243	67.641
4.32069	67.6665
4.3171	67.7308
4.31351	67.8557
4.30992	67.9162
4.30634	67.9457
4.30277	67.9299
4.2992	67.9947
4.29564	68.0556
4.29208	68.0327
4.28853	68.0935
4.28499	68.227
4.28145	68.2796
4.27792	68.3535
4.27439	68.4419
4.27087	68.5274
4.26735	68.5978
4.26384	68.6263
4.26034	68.5944
4.25684	68.6347
4.25335	68.7309
4.24986	68.7676
4.24638	68.7592
4.24291	68.8542
4.23944	68.9355
4.23598	68.9228
4.23252	68.9388
4.22906	68.9889
4.22562	68.9809
4.22218	69.0921
4.21874	69.1926
4.21531	69.2584
4.21189	69.3107
4.20847	69.3717
4.20506	69.4539
4.20165	69.4999
4.19825	69.5257
4.19485	69.5741
4.19146	69.5484
4.18807	69.6031
4.18469	69.7016
4.18132	69.7615
4.17795	69.7605
4.17458	69.7887
4.17123	69.8163
4.16787	69.8576
4.16453	69.9241
4.16118	69.9645
4.15785	69.9828
4.15451	69.9631
4.15119	69.9637
4.14787	70.0135
4.14455	69.9928
4.14124	69.9942
4.13794	70.0539
4.13464	70.1171
4.13134	70.1399
4.12805	70.1904
4.12477	70.3065
4.12149	70.4051
4.11822	70.3831
4.11495	70.3178
4.11168	70.381
4.10843	70.4918
4.10517	70.5985
4.10192	70.678
4.09868	70.6392
4.09545	70.6427
4.09221	70.783
4.08899	70.846
4.08576	70.7818
4.08255	70.7785
4.07933	70.7641
4.07613	70.8041
4.07292	70.8366
4.06973	70.8184
4.06654	70.7373
4.06335	70.7121
4.06017	70.663
4.05699	70.5116
4.05382	70.3979
4.05065	70.2772
4.04749	70.0717
4.04433	69.8682
4.04118	69.6531
4.03803	69.3646
4.03489	69.1824
4.03175	68.973
4.02862	68.6306
4.02549	68.2944
4.02237	68.074
4.01925	67.9555
4.01614	67.6973
4.01303	67.223
4.00993	66.7305
4.00683	66.3027
4.00373	65.9224
4.00064	65.6148
3.99756	65.3408
3.99448	65.1281
3.9914	64.9554
3.98833	64.7588
3.98527	64.5589
3.98221	64.51
3.97915	64.5453
3.9761	64.6104
3.97305	64.7002
3.97001	64.7537
3.96697	64.8692
3.96394	64.9924
3.96091	65.1483
3.95789	65.35
3.95487	65.587
3.95186	65.9295
3.94885	66.1909
3.94584	66.3898
3.94284	66.5886
3.93984	66.9514
3.93685	67.2306
3.93386	67.3288
3.93088	67.3295
3.9279	67.3094
3.92493	67.3312
3.92196	67.3942
3.919	67.481
3.91604	67.538
3.91308	67.5619
3.91013	67.6211
3.90718	67.6663
3.90424	67.6763
3.9013	67.734
3.89837	67.8008
3.89544	67.7485
3.89252	67.7308
3.8896	67.7719
3.88668	67.7747
3.88377	67.79
3.88086	67.8088
3.87796	67.8023
3.87506	67.7714
3.87217	67.7606
3.86928	67.7618
3.86639	67.7478
3.86351	67.7456
3.86064	67.739
3.85776	67.7267
3.8549	67.7333
3.85203	67.8551
3.84917	67.9549
3.84631	67.9524
3.84346	67.8514
3.84062	67.768
3.83777	67.8563
3.83494	68.0359
3.8321	68.163
3.82927	68.2434
3.82644	68.3232
3.82362	68.4274
3.82081	68.5076
3.81799	68.6071
3.81518	68.7024
3.81238	68.8621
3.80958	68.9871
3.80678	69.124
3.80399	69.2728
3.8012	69.4446
3.79841	69.5983
3.79563	69.6959
3.79286	69.8092
3.79008	69.8938
3.78731	69.9539
3.78455	70.0397
3.78179	70.0738
3.77903	70.0905
3.77628	70.1204
3.77353	70.101
3.77079	70.0316
3.76805	70.0317
3.76531	70.0902
3.76258	70.0562
3.75985	69.9976
3.75713	69.9838
3.7544	69.9306
3.75169	69.8809
3.74898	69.8215
3.74627	69.7785
3.74356	69.7323
3.74086	69.738
3.73816	69.7507
3.73547	69.6881
3.73278	69.6168
3.7301	69.5168
3.72741	69.4382
3.72474	69.406
3.72206	69.4039
3.71939	69.3936
3.71673	69.4043
3.71406	69.3844
3.71141	69.2916
3.70875	69.1919
3.7061	69.0527
3.70345	68.9283
3.70081	68.8634
3.69817	68.9112
3.69553	68.9362
3.6929	68.8422
3.69027	68.7008
3.68765	68.6191
3.68503	68.6273
3.68241	68.6266
3.6798	68.5161
3.67719	68.421
3.67458	68.304
3.67198	68.2102
3.66938	68.1546
3.66678	68.1356
3.66419	68.1539
3.66161	68.0496
3.65902	67.9338
3.65644	67.9328
3.65387	67.9093
3.65129	67.8678
3.64872	67.7977
3.64616	67.7526
3.64359	67.6978
3.64103	67.636
3.63848	67.577
3.63593	67.4698
3.63338	67.3765
3.63084	67.2831
3.6283	67.2512
3.62576	67.2073
3.62322	67.0635
3.62069	66.9608
3.61817	66.9211
3.61564	66.8116
3.61312	66.6703
3.61061	66.5957
3.6081	66.4863
3.60559	66.4136
3.60308	66.4642
3.60058	66.4192
3.59808	66.2252
3.59558	66.0749
3.59309	66.0538
3.59061	66.1062
3.58812	66.0481
3.58564	65.8963
3.58316	65.7772
3.58069	65.7074
3.57822	65.603
3.57575	65.527
3.57328	65.4804
3.57082	65.442
3.56836	65.4046
3.56591	65.4463
3.56346	65.3842
3.56101	65.2956
3.55857	65.2415
3.55613	65.176
3.55369	65.1277
3.55126	65.1005
3.54883	65.1159
3.5464	64.9922
3.54397	64.8192
3.54155	64.683
3.53914	64.5868
3.53672	64.4829
3.53431	64.3137
3.5319	64.0912
3.5295	63.853
3.5271	63.611
3.5247	63.2843
3.52231	62.9566
3.51991	62.7019
3.51753	62.4851
3.51514	62.2909
3.51276	62.1279
3.51038	61.9044
3.50801	61.7027
3.50563	61.6392
3.50327	61.48
3.5009	61.2683
3.49854	61.1579
3.49618	61.0919
3.49382	61.0504
3.49147	60.9769
3.48912	60.8078
3.48677	60.6932
3.48443	60.6449
3.48209	60.5909
3.47975	60.5172
3.47742	60.4302
3.47509	60.4876
3.47276	60.6501
3.47044	60.8205
3.46812	60.9724
3.4658	61.1781
