Name: Topaz Al_2SiO_4(F,OH)_2
Type: Mineral
Class: Silicates
Subclass: Nesosilicates
Particle Size: 125-500um
Sample No.: NS-6A
Owner: JPL
Wavelength range: IR
Origin: Australia, Western Australia, Grossmont
Collected by Ward's
Description: 





Measurement: Hemispherical reflectance
First Column: X
Second Column: Y
X Units:  Wavelength (micrometers)
Y Units:  Reflectance (percent)
First X Value: 15.3853
Last X Value: 2.00032
Number of X Values: 2256
Additional information: ns06aa.txt
 
15.3853	31.1912
15.3397	30.4788
15.2945	29.8532
15.2495	29.6121
15.2048	28.9921
15.1603	28.1471
15.1161	27.0833
15.0722	25.7458
15.0285	24.268
14.9851	22.3828
14.9419	19.9222
14.8989	17.4132
14.8563	15.2792
14.8138	13.313
14.7716	11.2796
14.7296	9.53372
14.6879	8.22154
14.6464	6.81347
14.6052	5.22736
14.5641	3.57051
14.5233	2.39405
14.4828	1.80502
14.4424	1.46006
14.4023	1.29392
14.3624	0.98045
14.3227	0.593036
14.2833	0.748642
14.244	1.04624
14.205	1.03237
14.1662	0.86966
14.1276	0.869196
14.0892	0.908643
14.051	0.511331
14.0131	0.326895
13.9753	0.587111
13.9377	0.798217
13.9004	0.816164
13.8632	0.789221
13.8262	0.964946
13.7895	1.06911
13.7529	0.828949
13.7165	0.930196
13.6803	1.23464
13.6443	1.22111
13.6085	1.20382
13.5729	1.43718
13.5374	1.68008
13.5022	1.87881
13.4671	1.98838
13.4322	2.0445
13.3975	2.07383
13.363	2.14792
13.3286	2.41014
13.2944	2.65515
13.2604	2.70982
13.2266	2.89598
13.193	3.01618
13.1595	2.92692
13.1262	3.15531
13.093	3.42413
13.06	3.41575
13.0272	3.41648
12.9946	3.46419
12.9621	3.57079
12.9298	3.73095
12.8976	3.85178
12.8656	3.84016
12.8337	3.75962
12.8021	3.9009
12.7705	4.22598
12.7391	4.37411
12.7079	4.54249
12.6769	4.81231
12.6459	4.98868
12.6152	5.14842
12.5845	5.30064
12.5541	5.61228
12.5238	5.80751
12.4936	5.75386
12.4635	5.95627
12.4337	6.26222
12.4039	6.57579
12.3743	6.79095
12.3448	6.88728
12.3155	7.1977
12.2863	7.49881
12.2573	7.79258
12.2284	8.14594
12.1996	8.42404
12.171	8.70449
12.1425	9.07448
12.1141	9.51891
12.0859	9.89002
12.0578	10.2291
12.0298	10.6343
12.0019	11.0671
11.9742	11.6273
11.9466	12.4158
11.9192	13.1832
11.8918	13.8203
11.8646	14.6638
11.8375	15.576
11.8106	16.2555
11.7837	16.9227
11.757	17.6854
11.7304	18.531
11.7039	19.6025
11.6776	20.8625
11.6513	22.1064
11.6252	23.254
11.5992	24.309
11.5733	25.2654
11.5475	26.347
11.5219	27.4906
11.4963	28.413
11.4709	29.3358
11.4455	30.2929
11.4203	30.8826
11.3952	31.3869
11.3702	31.891
11.3454	32.1688
11.3206	32.3402
11.2959	32.2836
11.2714	31.9355
11.2469	31.5354
11.2226	31.2214
11.1983	31.122
11.1742	31.2088
11.1502	31.4713
11.1263	31.6495
11.1024	31.631
11.0787	31.4535
11.0551	30.9154
11.0316	30.121
11.0081	29.3325
10.9848	28.7197
10.9616	28.4268
10.9385	28.3348
10.9154	28.5273
10.8925	28.8291
10.8697	29.1555
10.8469	29.3883
10.8243	29.3449
10.8017	29.088
10.7793	28.7628
10.7569	28.4739
10.7346	28.6096
10.7125	29.1421
10.6904	29.9136
10.6684	30.9085
10.6465	32.1499
10.6247	33.1622
10.6029	33.8323
10.5813	34.3667
10.5597	34.7108
10.5383	34.9777
10.5169	35.0997
10.4956	35.0922
10.4744	35.1331
10.4533	35.0976
10.4323	34.9605
10.4113	34.7562
10.3904	34.4256
10.3697	34.0786
10.349	33.6976
10.3284	33.1114
10.3078	32.3067
10.2874	31.1252
10.267	29.5016
10.2467	27.3737
10.2265	24.824
10.2064	22.625
10.1863	21.1001
10.1663	20.0982
10.1464	19.6724
10.1266	19.6773
10.1069	19.8281
10.0872	20.2051
10.0676	20.7361
10.0481	21.2849
10.0287	21.7647
10.0093	22.2916
9.99005	22.9008
9.97084	23.3846
9.95169	23.6665
9.93263	23.7439
9.91364	23.6251
9.89472	23.135
9.87587	22.4108
9.8571	21.6386
9.83839	20.8608
9.81976	20.0057
9.80119	19.1481
9.78271	18.3454
9.76428	17.6653
9.74592	17.0803
9.72764	16.4776
9.70943	15.7784
9.69128	15.0889
9.6732	14.4397
9.65518	13.9522
9.63724	13.6313
9.61935	13.2927
9.60155	12.8917
9.5838	12.4102
9.56611	11.9757
9.5485	11.5621
9.53094	10.832
9.51345	10.0834
9.49604	9.44075
9.47867	8.79168
9.46137	8.14826
9.44414	7.50091
9.42697	6.74467
9.40986	6.12954
9.39281	5.61433
9.37583	5.16044
9.35891	4.60348
9.34204	3.99321
9.32524	3.63464
9.3085	3.27233
9.29182	2.83471
9.27519	2.41587
9.25863	2.1101
9.24213	1.8466
9.22568	1.67142
9.2093	1.55762
9.19297	1.30479
9.17669	1.03612
9.16048	0.928597
9.14433	0.800598
9.12823	0.595303
9.11218	0.594912
9.0962	0.69247
9.08027	0.545226
9.06439	0.384834
9.04858	0.266681
9.03281	0.28778
9.0171	0.312104
9.00145	0.294089
8.98585	0.321884
8.9703	0.298881
8.9548	0.174951
8.93937	0.10504
8.92398	0.112135
8.90865	0.154976
8.89337	0.173052
8.87814	0.122015
8.86296	0.187257
8.84784	0.258977
8.83277	0.252494
8.81774	0.281674
8.80277	0.293905
8.78786	0.0995554
8.77298	0.00387076
8.75816	0.23647
8.7434	0.323662
8.72868	0.309306
8.714	0.209693
8.69938	0.32868
8.68481	0.408983
8.67029	0.377678
8.65581	0.395964
8.64139	0.558247
8.62701	0.781308
8.61268	0.893339
8.5984	1.08622
8.58416	1.1641
8.56997	1.08903
8.55583	1.00072
8.54174	0.813352
8.52769	0.593342
8.51368	0.399749
8.49973	0.237658
8.48582	0.155107
8.47195	0.157974
8.45813	0.13313
8.44436	0.151811
8.43062	0.121403
8.41693	0.0954125
8.4033	0.121469
8.3897	0.123191
8.37614	0.0711353
8.36264	0.0425757
8.34917	0.0917648
8.33574	0.177552
8.32236	0.15405
8.30903	0.19137
8.29573	0.232573
8.28248	0.238537
8.26927	0.0562336
8.2561	0.116531
8.24298	0.279328
8.2299	0.384144
8.21685	0.31673
8.20385	0.115486
8.19089	0.16873
8.17797	0.289594
8.16509	0.220544
8.15225	0.289283
8.13946	0.301641
8.1267	0.225903
8.11398	0.354424
8.10131	0.460912
8.08867	0.353721
8.07606	0.271519
8.0635	0.353632
8.05099	0.418691
8.0385	0.373174
8.02606	0.306963
8.01366	0.380921
8.00129	0.434895
7.98896	0.460022
7.97667	0.498139
7.96442	0.43131
7.9522	0.46124
7.94002	0.478128
7.92788	0.456322
7.91578	0.559534
7.90371	0.632862
7.89168	0.617275
7.87969	0.633439
7.86773	0.679016
7.85581	0.713852
7.84392	0.7565
7.83207	0.701789
7.82026	0.698762
7.80849	0.816435
7.79674	0.956514
7.78503	0.881289
7.77337	0.890408
7.76173	0.940946
7.75012	0.842837
7.73856	0.880416
7.72703	0.983361
7.71553	1.01037
7.70406	1.05886
7.69263	1.02319
7.68123	0.95201
7.66987	1.04321
7.65855	1.1554
7.64725	1.18072
7.63598	1.13732
7.62475	1.16561
7.61356	1.19567
7.60239	1.18042
7.59126	1.20299
7.58017	1.30709
7.5691	1.37688
7.55806	1.45321
7.54707	1.57894
7.5361	1.59347
7.52516	1.50751
7.51425	1.42806
7.50338	1.44191
7.49253	1.49507
7.48172	1.53938
7.47094	1.57006
7.46019	1.60744
7.44947	1.73076
7.43879	1.79931
7.42813	1.7497
7.4175	1.73792
7.4069	1.85307
7.39634	1.8606
7.3858	1.81396
7.37529	1.92153
7.36482	2.10544
7.35437	2.12347
7.34396	2.11504
7.33357	2.15949
7.32321	2.24844
7.31288	2.29143
7.30258	2.37634
7.29231	2.45854
7.28207	2.48505
7.27185	2.57718
7.26167	2.59744
7.25152	2.55301
7.24139	2.5515
7.23129	2.61116
7.22122	2.72487
7.21117	2.79092
7.20116	2.81707
7.19117	2.82588
7.18121	2.82549
7.17128	2.93997
7.16137	3.06389
7.1515	3.14517
7.14164	3.14347
7.13182	3.15549
7.12203	3.21932
7.11225	3.24639
7.10251	3.22451
7.0928	3.2931
7.08311	3.38011
7.07344	3.39386
7.06381	3.42665
7.0542	3.44919
7.04461	3.49803
7.03506	3.47143
7.02552	3.50468
7.01601	3.5717
7.00653	3.64244
6.99708	3.74488
6.98765	3.74049
6.97824	3.63036
6.96886	3.69059
6.95951	3.88098
6.95018	3.88034
6.94087	3.92334
6.9316	4.09714
6.92234	4.20777
6.91311	4.21862
6.90391	4.26205
6.89473	4.25052
6.88557	4.3636
6.87644	4.58807
6.86733	4.81235
6.85824	4.81615
6.84918	4.69732
6.84015	4.65384
6.83114	4.71619
6.82215	4.78818
6.81319	4.74807
6.80424	4.79957
6.79532	4.86308
6.78643	4.84996
6.77756	4.74941
6.76871	4.69454
6.75989	4.66352
6.75109	4.69139
6.74231	4.72008
6.73355	4.71364
6.72482	4.81785
6.71611	4.99926
6.70742	5.04065
6.69875	4.98151
6.69011	5.07227
6.68149	5.28105
6.67289	5.29794
6.66431	5.27759
6.65576	5.30127
6.64722	5.61909
6.63871	6.12806
6.63022	6.07007
6.62175	5.84947
6.61331	5.87252
6.60488	5.94202
6.59648	6.13404
6.5881	6.33939
6.57974	6.4946
6.5714	6.61342
6.56308	6.56735
6.55478	6.64357
6.54651	6.65659
6.53825	6.63526
6.53001	6.65321
6.5218	6.8042
6.51361	6.77506
6.50544	6.89669
6.49729	7.26945
6.48915	7.32089
6.48104	7.2007
6.47295	7.183
6.46488	7.15034
6.45683	7.13523
6.4488	7.24407
6.44079	7.39173
6.4328	7.56034
6.42482	7.73045
6.41687	8.16855
6.40894	8.23425
6.40103	7.88463
6.39314	7.92109
6.38526	8.08754
6.37741	8.13857
6.36957	8.11794
6.36176	8.10315
6.35396	8.35909
6.34618	8.7028
6.33843	8.64526
6.33069	8.57148
6.32297	8.65152
6.31527	8.725
6.30758	8.78922
6.29992	8.85179
6.29227	8.88615
6.28465	8.87704
6.27704	8.96488
6.26945	8.97146
6.26188	8.99467
6.25432	9.17161
6.24679	9.35068
6.23927	9.33626
6.23177	9.38431
6.22429	9.52222
6.21683	9.65098
6.20938	9.67502
6.20195	9.68131
6.19454	9.85384
6.18715	10.2146
6.17978	10.1944
6.17242	10.0451
6.16508	10.1348
6.15776	10.2906
6.15045	10.2525
6.14317	10.2363
6.1359	10.2732
6.12864	10.3762
6.12141	10.6891
6.11419	11.0866
6.10699	10.8836
6.0998	10.6565
6.09263	10.7231
6.08549	10.9177
6.07835	11.4105
6.07123	11.6879
6.06413	11.6153
6.05705	12.0789
6.04998	13.0393
6.04293	12.7631
6.0359	12.2716
6.02888	12.3555
6.02187	12.6495
6.01489	12.8859
6.00792	12.9217
6.00096	13.0412
5.99403	13.3759
5.98711	13.5192
5.9802	13.4151
5.97331	13.4611
5.96644	13.4411
5.95958	13.1083
5.95274	12.9311
5.94591	12.9105
5.9391	13.072
5.9323	12.554
5.92552	11.8492
5.91876	11.5103
5.91201	11.2569
5.90528	11.2236
5.89856	11.4957
5.89186	11.2518
5.88517	11.1575
5.8785	11.1145
5.87184	10.5568
5.8652	10.3403
5.85857	10.0033
5.85196	9.59658
5.84536	9.21661
5.83878	8.94457
5.83221	8.87804
5.82566	8.91362
5.81912	8.67966
5.81259	8.2524
5.80608	8.08093
5.79959	7.99967
5.79311	7.93709
5.78665	7.88403
5.78019	7.83437
5.77376	7.9805
5.76734	8.28995
5.76093	8.18761
5.75453	8.15523
5.74815	8.32919
5.74179	8.35259
5.73543	8.33123
5.7291	8.37235
5.72277	8.38827
5.71646	8.34383
5.71017	8.28821
5.70389	8.04185
5.69762	7.81759
5.69136	7.65537
5.68513	7.37814
5.6789	7.17164
5.67268	6.98452
5.66648	6.56464
5.6603	6.24941
5.65413	5.98863
5.64797	5.73733
5.64182	5.58593
5.63569	5.19058
5.62957	4.76917
5.62347	4.50938
5.61737	4.19812
5.61129	3.86737
5.60522	3.57608
5.59917	3.3653
5.59313	3.20244
5.5871	3.03598
5.58109	2.95809
5.57509	2.87226
5.5691	2.75937
5.56312	2.6366
5.55716	2.61447
5.55121	2.52813
5.54528	2.41828
5.53935	2.33363
5.53344	2.24405
5.52754	2.25994
5.52166	2.32748
5.51578	2.34197
5.50992	2.37987
5.50407	2.33712
5.49823	2.34634
5.49241	2.41441
5.4866	2.37618
5.4808	2.3645
5.47501	2.44997
5.46923	2.47217
5.46347	2.54306
5.45772	2.62108
5.45198	2.6489
5.44625	2.65014
5.44054	2.67274
5.43484	2.69206
5.42914	2.70208
5.42347	2.73131
5.4178	2.78439
5.41214	2.85117
5.4065	2.84644
5.40087	2.8649
5.39525	2.83579
5.38964	2.83483
5.38404	2.78803
5.37846	2.74668
5.37288	2.70151
5.36732	2.69611
5.36177	2.77008
5.35623	2.89209
5.35071	2.93783
5.34519	2.87133
5.33968	2.89829
5.33419	2.99948
5.32871	3.12088
5.32324	3.21279
5.31778	3.22509
5.31233	3.26415
5.30689	3.48385
5.30147	3.62855
5.29605	3.63196
5.29065	3.69813
5.28525	3.80536
5.27987	3.9028
5.2745	4.01553
5.26914	4.11143
5.26379	4.28657
5.25845	4.54185
5.25312	4.83924
5.24781	5.10787
5.2425	5.35403
5.23721	5.68461
5.23192	6.05986
5.22665	6.40483
5.22138	6.79332
5.21613	7.28528
5.21089	7.72988
5.20566	8.11659
5.20044	8.57132
5.19522	8.93086
5.19002	9.25322
5.18483	9.62927
5.17965	10.0892
5.17448	10.4876
5.16933	10.7642
5.16418	11.1229
5.15904	11.5436
5.15391	11.912
5.14879	12.2927
5.14368	12.5623
5.13859	12.8907
5.1335	13.1823
5.12842	13.4708
5.12335	13.7917
5.1183	14.1648
5.11325	14.4934
5.10821	14.7832
5.10318	15.1131
5.09817	15.5577
5.09316	15.9957
5.08816	16.3647
5.08317	16.714
5.07819	17.0237
5.07322	17.3485
5.06826	17.7136
5.06331	18.0354
5.05837	18.3204
5.05344	18.5827
5.04852	18.8208
5.04361	19.0487
5.03871	19.2567
5.03382	19.5394
5.02894	19.7867
5.02406	19.9572
5.0192	20.0601
5.01435	20.148
5.0095	20.1757
5.00467	20.1544
4.99984	20.0603
4.99502	19.912
4.99021	19.7455
4.98542	19.5453
4.98063	19.3212
4.97585	18.9966
4.97108	18.7858
4.96632	18.7571
4.96156	18.7094
4.95682	18.704
4.95209	18.75
4.94736	19.009
4.94264	19.469
4.93794	20.0488
4.93324	20.7415
4.92855	21.4813
4.92387	22.313
4.9192	23.2662
4.91453	24.2229
4.90988	25.2553
4.90524	26.3361
4.9006	27.3231
4.89597	28.2255
4.89135	29.11
4.88674	29.9524
4.88214	30.8116
4.87755	31.6704
4.87296	32.4274
4.86839	33.0845
4.86382	33.6523
4.85926	34.1547
4.85471	34.6573
4.85017	35.1242
4.84564	35.6437
4.84111	36.1389
4.8366	36.5638
4.83209	36.9472
4.82759	37.3333
4.8231	37.6932
4.81862	38.0509
4.81415	38.382
4.80968	38.7153
4.80522	38.9772
4.80077	39.2389
4.79633	39.4799
4.7919	39.6865
4.78747	39.8136
4.78306	39.9549
4.77865	40.0729
4.77425	40.1939
4.76986	40.3174
4.76547	40.4941
4.7611	40.6325
4.75673	40.7666
4.75237	40.7964
4.74802	40.8831
4.74367	41.0199
4.73934	41.1
4.73501	41.1756
4.73069	41.3015
4.72638	41.3317
4.72207	41.3147
4.71777	41.4096
4.71348	41.4478
4.7092	41.5123
4.70493	41.5604
4.70066	41.5983
4.69641	41.6571
4.69216	41.6778
4.68791	41.7806
4.68368	41.8883
4.67945	41.9092
4.67523	41.8705
4.67102	41.8822
4.66682	41.8951
4.66262	41.8609
4.65843	41.7863
4.65425	41.708
4.65007	41.6965
4.64591	41.6441
4.64175	41.5456
4.6376	41.4863
4.63345	41.4814
4.62932	41.53
4.62519	41.5784
4.62106	41.6347
4.61695	41.7167
4.61284	41.8701
4.60874	42.0365
4.60465	42.1119
4.60056	42.1836
4.59648	42.2695
4.59241	42.3923
4.58835	42.5804
4.58429	42.6388
4.58024	42.7067
4.5762	42.783
4.57216	42.9031
4.56814	43.0529
4.56411	43.1651
4.5601	43.2605
4.55609	43.4385
4.55209	43.6114
4.5481	43.811
4.54411	44.0884
4.54013	44.3195
4.53616	44.4741
4.5322	44.6382
4.52824	44.7891
4.52429	45.0232
4.52034	45.2899
4.51641	45.5193
4.51247	45.6588
4.50855	45.7516
4.50463	45.8425
4.50072	45.9517
4.49682	46.0688
4.49292	46.137
4.48903	46.2133
4.48515	46.3089
4.48127	46.4003
4.4774	46.4808
4.47354	46.4951
4.46968	46.5081
4.46584	46.5242
4.46199	46.5099
4.45815	46.5907
4.45432	46.597
4.4505	46.5317
4.44668	46.5359
4.44287	46.5085
4.43907	46.5044
4.43527	46.4951
4.43148	46.4417
4.4277	46.3721
4.42392	46.2302
4.42015	46.1216
4.41638	45.9988
4.41262	45.8468
4.40887	45.7238
4.40513	45.5087
4.40139	45.1779
4.39765	44.8819
4.39393	44.6037
4.39021	44.2332
4.38649	43.7834
4.38278	43.3069
4.37908	42.7161
4.37539	41.9318
4.3717	41.0434
4.36801	39.989
4.36434	38.8506
4.36067	37.5282
4.357	35.9906
4.35335	34.3024
4.34969	32.5152
4.34605	30.6679
4.34241	28.7215
4.33877	26.7404
4.33514	24.6391
4.33152	22.5158
4.32791	20.5323
4.3243	18.7521
4.32069	17.3628
4.3171	16.6008
4.31351	16.4204
4.30992	16.8724
4.30634	17.876
4.30277	19.1629
4.2992	20.6276
4.29564	22.0846
4.29208	23.4841
4.28853	24.8358
4.28499	26.1209
4.28145	27.3001
4.27792	28.4163
4.27439	29.4398
4.27087	30.3811
4.26735	31.3362
4.26384	32.4604
4.26034	33.7302
4.25684	34.9212
4.25335	35.8826
4.24986	36.6001
4.24638	37.3018
4.24291	38.0168
4.23944	38.6275
4.23598	39.27
4.23252	40.007
4.22906	40.8387
4.22562	41.7355
4.22218	42.6497
4.21874	43.4273
4.21531	44.2185
4.21189	45.0027
4.20847	45.683
4.20506	46.305
4.20165	46.8389
4.19825	47.3616
4.19485	47.8054
4.19146	48.096
4.18807	48.3147
4.18469	48.5096
4.18132	48.6976
4.17795	48.9123
4.17458	49.1383
4.17123	49.2789
4.16787	49.3744
4.16453	49.4476
4.16118	49.4928
4.15785	49.6355
4.15451	49.8325
4.15119	49.8605
4.14787	49.8784
4.14455	49.9822
4.14124	50.0665
4.13794	50.1882
4.13464	50.2998
4.13134	50.3589
4.12805	50.3913
4.12477	50.4303
4.12149	50.5645
4.11822	50.5966
4.11495	50.6011
4.11168	50.6747
4.10843	50.7834
4.10517	50.8495
4.10192	50.8636
4.09868	50.9153
4.09545	50.9909
4.09221	51.0339
4.08899	51.1197
4.08576	51.19
4.08255	51.2573
4.07933	51.2692
4.07613	51.2634
4.07292	51.3007
4.06973	51.2969
4.06654	51.2313
4.06335	51.1792
4.06017	51.1537
4.05699	51.006
4.05382	50.88
4.05065	50.815
4.04749	50.6278
4.04433	50.3903
4.04118	50.209
4.03803	49.9732
4.03489	49.6712
4.03175	49.3382
4.02862	49.0245
4.02549	48.8307
4.02237	48.8247
4.01925	49.0539
4.01614	49.4173
4.01303	49.7814
4.00993	50.1571
4.00683	50.5362
4.00373	50.8477
4.00064	51.1637
3.99756	51.4114
3.99448	51.5651
3.9914	51.6772
3.98833	51.7306
3.98527	51.7502
3.98221	51.7905
3.97915	51.8811
3.9761	51.9485
3.97305	51.9229
3.97001	51.9699
3.96697	52.007
3.96394	52.0073
3.96091	52.051
3.95789	52.0646
3.95487	52.0051
3.95186	52.0493
3.94885	52.044
3.94584	52.0396
3.94284	52.1039
3.93984	52.1465
3.93685	52.1244
3.93386	52.1408
3.93088	52.1357
3.9279	52.0781
3.92493	52.0034
3.92196	51.9338
3.919	51.8133
3.91604	51.7145
3.91308	51.6333
3.91013	51.5352
3.90718	51.4633
3.90424	51.3026
3.9013	51.0466
3.89837	50.8885
3.89544	50.7059
3.89252	50.5001
3.8896	50.3394
3.88668	50.1777
3.88377	50.0129
3.88086	49.812
3.87796	49.5501
3.87506	49.3653
3.87217	49.2465
3.86928	49.1046
3.86639	48.9329
3.86351	48.7956
3.86064	48.7196
3.85776	48.6885
3.8549	48.6178
3.85203	48.6261
3.84917	48.6116
3.84631	48.5841
3.84346	48.5863
3.84062	48.6106
3.83777	48.6477
3.83494	48.6798
3.8321	48.7759
3.82927	48.8749
3.82644	48.952
3.82362	49.0392
3.82081	49.1368
3.81799	49.2299
3.81518	49.2729
3.81238	49.2966
3.80958	49.396
3.80678	49.5337
3.80399	49.6513
3.8012	49.7082
3.79841	49.7189
3.79563	49.7889
3.79286	49.9802
3.79008	50.1362
3.78731	50.2035
3.78455	50.2422
3.78179	50.3316
3.77903	50.3893
3.77628	50.5333
3.77353	50.6021
3.77079	50.6466
3.76805	50.7814
3.76531	50.8888
3.76258	50.9649
3.75985	50.9947
3.75713	50.9825
3.7544	51.0354
3.75169	51.1792
3.74898	51.2175
3.74627	51.2563
3.74356	51.3033
3.74086	51.3553
3.73816	51.3713
3.73547	51.295
3.73278	51.2318
3.7301	51.1079
3.72741	50.9366
3.72474	50.7695
3.72206	50.4852
3.71939	49.8436
3.71673	48.9232
3.71406	48.7318
3.71141	49.6487
3.70875	50.6125
3.7061	51.1264
3.70345	51.295
3.70081	51.3375
3.69817	51.3701
3.69553	51.3146
3.6929	51.2064
3.69027	51.1858
3.68765	51.1785
3.68503	51.1235
3.68241	51.0108
3.6798	50.9421
3.67719	50.9454
3.67458	50.8723
3.67198	50.8323
3.66938	50.8064
3.66678	50.7182
3.66419	50.6391
3.66161	50.5593
3.65902	50.4471
3.65644	50.3872
3.65387	50.3528
3.65129	50.3423
3.64872	50.3191
3.64616	50.2801
3.64359	50.2014
3.64103	50.1193
3.63848	50.084
3.63593	50.0716
3.63338	50.0651
3.63084	50.0272
3.6283	49.984
3.62576	49.9595
3.62322	49.9627
3.62069	49.9789
3.61817	50.0084
3.61564	50.035
3.61312	49.9705
3.61061	49.9087
3.6081	49.9397
3.60559	49.9704
3.60308	49.9627
3.60058	49.9476
3.59808	49.9729
3.59558	49.9736
3.59309	49.9233
3.59061	49.9142
3.58812	49.9734
3.58564	49.9656
3.58316	49.8983
3.58069	49.8536
3.57822	49.8039
3.57575	49.8099
3.57328	49.8407
3.57082	49.8646
3.56836	49.9155
3.56591	49.8667
3.56346	49.8542
3.56101	49.8341
3.55857	49.8183
3.55613	49.8515
3.55369	49.8757
3.55126	49.8539
3.54883	49.8427
3.5464	49.8774
3.54397	49.8693
3.54155	49.8855
3.53914	49.9564
3.53672	49.9731
3.53431	49.9591
3.5319	49.9769
3.5295	49.975
3.5271	50.0181
3.5247	50.0132
3.52231	49.9556
3.51991	49.936
3.51753	49.9277
3.51514	49.9765
3.51276	49.9579
3.51038	49.9004
3.50801	49.9011
3.50563	49.907
3.50327	49.8818
3.5009	49.8209
3.49854	49.7952
3.49618	49.8208
3.49382	49.862
3.49147	49.8611
3.48912	49.8921
3.48677	49.8579
3.48443	49.805
