Name: Triphylite Li(Mn,Fe)PO_4
Type: Mineral
Class: Phosphates
Subclass: 
Particle Size: 0-45um
Sample No.: P-4A
Owner: JPL
Wavelength range: VNIR-SWIR
Origin: USA, New Hampshire, North Graton, Palermo Mine.
Collected by:  Burminco
Description: 





Measurement: Hemispherical reflectance
First Column: X
Second Column: Y
X Units: Wavelength (micrometers)
Y Units: Reflectance (percent)
First X Value: 2.500
Last X Value: 0.400
Number of X Values: 2101
Additional information: p04aa.txt

2.500  78.506526
2.499  78.429744
2.498  78.568976
2.497  78.561575
2.496  78.682745
2.495  78.703794
2.494  78.639805
2.493  78.687963
2.492  78.693261
2.491  78.558700
2.490  78.669295
2.489  78.668072
2.488  78.649354
2.487  78.599020
2.486  78.720172
2.485  78.745663
2.484  78.561525
2.483  78.829937
2.482  78.756526
2.481  78.730241
2.480  78.830913
2.479  78.860442
2.478  78.835179
2.477  79.023678
2.476  78.998014
2.475  78.984087
2.474  78.997267
2.473  78.992614
2.472  79.040576
2.471  79.015563
2.470  79.158460
2.469  78.985657
2.468  79.099770
2.467  79.212665
2.466  79.133410
2.465  79.233807
2.464  79.317035
2.463  79.236782
2.462  79.275647
2.461  79.334473
2.460  79.321427
2.459  79.337919
2.458  79.378375
2.457  79.244823
2.456  79.335625
2.455  79.409821
2.454  79.503874
2.453  79.398210
2.452  79.384158
2.451  79.551748
2.450  79.485280
2.449  79.504527
2.448  79.584799
2.447  79.601478
2.446  79.498716
2.445  79.462181
2.444  79.632337
2.443  79.603662
2.442  79.601160
2.441  79.609901
2.440  79.741651
2.439  79.716474
2.438  79.672157
2.437  79.584029
2.436  79.722048
2.435  79.714923
2.434  79.763686
2.433  79.792197
2.432  79.682716
2.431  79.747259
2.430  79.796650
2.429  79.856057
2.428  79.804974
2.427  79.827347
2.426  79.977014
2.425  80.016181
2.424  80.002561
2.423  80.006226
2.422  80.026007
2.421  79.977840
2.420  79.920823
2.419  79.953047
2.418  80.023732
2.417  80.081007
2.416  80.022447
2.415  80.075537
2.414  80.111840
2.413  80.072628
2.412  80.103761
2.411  80.146767
2.410  80.123796
2.409  80.123784
2.408  80.108752
2.407  80.171492
2.406  80.183038
2.405  80.202393
2.404  80.314571
2.403  80.291305
2.402  80.323697
2.401  80.270300
2.400  80.335119
2.399  80.325121
2.398  80.337810
2.397  80.408019
2.396  80.457344
2.395  80.494046
2.394  80.465408
2.393  80.496270
2.392  80.551913
2.391  80.541290
2.390  80.462347
2.389  80.552131
2.388  80.602470
2.387  80.641494
2.386  80.667153
2.385  80.651400
2.384  80.641709
2.383  80.719523
2.382  80.730023
2.381  80.783946
2.380  80.835860
2.379  80.808961
2.378  80.795440
2.377  80.817615
2.376  80.844524
2.375  80.909940
2.374  80.912018
2.373  80.934976
2.372  80.979264
2.371  80.973063
2.370  80.978418
2.369  81.009133
2.368  81.005381
2.367  81.046664
2.366  81.086946
2.365  81.089456
2.364  81.060588
2.363  81.088537
2.362  81.183715
2.361  81.186541
2.360  81.219885
2.359  81.261505
2.358  81.240958
2.357  81.220839
2.356  81.237006
2.355  81.330126
2.354  81.343737
2.353  81.302941
2.352  81.334673
2.351  81.362857
2.350  81.358799
2.349  81.353471
2.348  81.385217
2.347  81.429417
2.346  81.464495
2.345  81.439235
2.344  81.456939
2.343  81.443531
2.342  81.424102
2.341  81.455935
2.340  81.481122
2.339  81.490964
2.338  81.447902
2.337  81.456835
2.336  81.452547
2.335  81.433479
2.334  81.495784
2.333  81.528020
2.332  81.521126
2.331  81.490365
2.330  81.516752
2.329  81.462390
2.328  81.409512
2.327  81.396765
2.326  81.467312
2.325  81.469397
2.324  81.467426
2.323  81.453745
2.322  81.471570
2.321  81.455039
2.320  81.467112
2.319  81.485013
2.318  81.520031
2.317  81.498492
2.316  81.466158
2.315  81.446025
2.314  81.467492
2.313  81.449376
2.312  81.440264
2.311  81.439087
2.310  81.434787
2.309  81.421942
2.308  81.474618
2.307  81.458353
2.306  81.488305
2.305  81.501121
2.304  81.495826
2.303  81.433329
2.302  81.429226
2.301  81.464852
2.300  81.505926
2.299  81.476331
2.298  81.416278
2.297  81.422439
2.296  81.473558
2.295  81.484327
2.294  81.455211
2.293  81.437358
2.292  81.471479
2.291  81.470774
2.290  81.436766
2.289  81.478035
2.288  81.464808
2.287  81.421420
2.286  81.365228
2.285  81.390857
2.284  81.406752
2.283  81.432848
2.282  81.426929
2.281  81.422098
2.280  81.388693
2.279  81.416987
2.278  81.440571
2.277  81.431752
2.276  81.382477
2.275  81.394665
2.274  81.355141
2.273  81.405192
2.272  81.373053
2.271  81.353719
2.270  81.382067
2.269  81.388599
2.268  81.373953
2.267  81.412513
2.266  81.408313
2.265  81.398454
2.264  81.437929
2.263  81.388771
2.262  81.458158
2.261  81.368788
2.260  81.302278
2.259  81.371588
2.258  81.399646
2.257  81.371926
2.256  81.346747
2.255  81.337726
2.254  81.369427
2.253  81.393521
2.252  81.372331
2.251  81.378890
2.250  81.396501
2.249  81.383826
2.248  81.320233
2.247  81.349054
2.246  81.365219
2.245  81.328345
2.244  81.365362
2.243  81.336681
2.242  81.345473
2.241  81.423146
2.240  81.420272
2.239  81.418426
2.238  81.404335
2.237  81.341486
2.236  81.428571
2.235  81.396426
2.234  81.497483
2.233  81.383348
2.232  81.379677
2.231  81.395936
2.230  81.368430
2.229  81.417278
2.228  81.408583
2.227  81.371836
2.226  81.464992
2.225  81.486477
2.224  81.485938
2.223  81.329624
2.222  81.527264
2.221  81.501286
2.220  81.517217
2.219  81.502721
2.218  81.563316
2.217  81.495219
2.216  81.600061
2.215  81.493811
2.214  81.473931
2.213  81.503936
2.212  81.526309
2.211  81.541900
2.210  81.633875
2.209  81.637907
2.208  81.756327
2.207  81.681333
2.206  81.693899
2.205  81.673904
2.204  81.752199
2.203  81.824645
2.202  81.761439
2.201  81.794786
2.200  81.806707
2.199  81.794341
2.198  81.828399
2.197  81.785344
2.196  81.804874
2.195  81.826840
2.194  81.752000
2.193  81.797435
2.192  81.897709
2.191  81.825169
2.190  81.824666
2.189  81.795108
2.188  81.922970
2.187  81.876337
2.186  81.883237
2.185  81.922377
2.184  81.895534
2.183  81.955656
2.182  81.884829
2.181  81.938083
2.180  81.952806
2.179  81.901553
2.178  81.979913
2.177  82.049731
2.176  82.000014
2.175  82.044813
2.174  82.013888
2.173  82.020692
2.172  82.028453
2.171  82.030112
2.170  82.157994
2.169  82.060294
2.168  82.104638
2.167  82.094475
2.166  82.131201
2.165  82.180178
2.164  82.215628
2.163  82.201562
2.162  82.232887
2.161  82.253212
2.160  82.263743
2.159  82.250744
2.158  82.262429
2.157  82.225212
2.156  82.272714
2.155  82.275755
2.154  82.336703
2.153  82.346869
2.152  82.364495
2.151  82.294021
2.150  82.277205
2.149  82.306209
2.148  82.288528
2.147  82.209563
2.146  82.299330
2.145  82.289291
2.144  82.312120
2.143  82.233643
2.142  82.240057
2.141  82.183770
2.140  82.200373
2.139  82.205108
2.138  82.132862
2.137  82.185852
2.136  82.121540
2.135  82.026038
2.134  81.999666
2.133  81.986602
2.132  81.956442
2.131  81.897510
2.130  81.938288
2.129  81.854879
2.128  81.880352
2.127  81.837563
2.126  81.745963
2.125  81.714000
2.124  81.623200
2.123  81.526306
2.122  81.498405
2.121  81.418981
2.120  81.352781
2.119  81.326449
2.118  81.362390
2.117  81.258012
2.116  81.192795
2.115  81.117020
2.114  81.060431
2.113  80.963948
2.112  80.949081
2.111  80.838487
2.110  80.785516
2.109  80.805171
2.108  80.740435
2.107  80.654824
2.106  80.612494
2.105  80.567370
2.104  80.505422
2.103  80.396512
2.102  80.345609
2.101  80.310898
2.100  80.307046
2.099  80.276835
2.098  80.229917
2.097  80.194790
2.096  80.196647
2.095  80.258806
2.094  80.276770
2.093  80.274620
2.092  80.222057
2.091  80.186102
2.090  80.226197
2.089  80.219859
2.088  80.222667
2.087  80.211044
2.086  80.187879
2.085  80.164199
2.084  80.148763
2.083  80.150835
2.082  80.156697
2.081  80.205849
2.080  80.216682
2.079  80.194522
2.078  80.185926
2.077  80.113347
2.076  80.068484
2.075  80.114042
2.074  80.110246
2.073  80.074902
2.072  80.064080
2.071  80.093174
2.070  80.090056
2.069  80.079465
2.068  80.054990
2.067  80.035435
2.066  80.039335
2.065  79.994540
2.064  79.984507
2.063  79.984662
2.062  79.976529
2.061  79.975105
2.060  79.966733
2.059  80.002901
2.058  79.993942
2.057  79.962915
2.056  79.928876
2.055  79.881605
2.054  79.885132
2.053  79.869928
2.052  79.850285
2.051  79.857580
2.050  79.821704
2.049  79.802694
2.048  79.738989
2.047  79.759129
2.046  79.767579
2.045  79.751475
2.044  79.711372
2.043  79.742706
2.042  79.683691
2.041  79.626810
2.040  79.590846
2.039  79.595965
2.038  79.591424
2.037  79.567054
2.036  79.564176
2.035  79.500967
2.034  79.499529
2.033  79.522761
2.032  79.546896
2.031  79.478859
2.030  79.441490
2.029  79.364575
2.028  79.317704
2.027  79.280448
2.026  79.290265
2.025  79.279200
2.024  79.212442
2.023  79.139156
2.022  79.121308
2.021  79.142202
2.020  79.115488
2.019  79.088962
2.018  79.050184
2.017  79.006349
2.016  78.962707
2.015  78.960660
2.014  78.940468
2.013  78.955893
2.012  78.866788
2.011  78.808182
2.010  78.784535
2.009  78.741828
2.008  78.680331
2.007  78.736015
2.006  78.686935
2.005  78.611303
2.004  78.575229
2.003  78.550446
2.002  78.543407
2.001  78.516628
2.000  78.462784
1.999  78.415101
1.998  78.289507
1.997  78.325308
1.996  78.300913
1.995  78.201803
1.994  78.146191
1.993  78.090649
1.992  78.034831
1.991  78.022640
1.990  77.980386
1.989  77.836658
1.988  77.833961
1.987  77.796829
1.986  77.708588
1.985  77.665557
1.984  77.640002
1.983  77.621595
1.982  77.564636
1.981  77.528569
1.980  77.479599
1.979  77.449751
1.978  77.368245
1.977  77.263442
1.976  77.251429
1.975  77.239386
1.974  77.158893
1.973  77.073050
1.972  77.015313
1.971  77.079209
1.970  76.918504
1.969  76.909985
1.968  76.853823
1.967  76.871111
1.966  76.838360
1.965  76.778115
1.964  76.703069
1.963  76.679786
1.962  76.636104
1.961  76.611985
1.960  76.498077
1.959  76.398318
1.958  76.396718
1.957  76.433695
1.956  76.311197
1.955  76.325645
1.954  76.261076
1.953  76.294897
1.952  76.090801
1.951  76.150381
1.950  76.117927
1.949  76.120543
1.948  75.907807
1.947  75.921787
1.946  75.808410
1.945  75.791981
1.944  75.765534
1.943  75.782884
1.942  75.670058
1.941  75.653805
1.940  75.619754
1.939  75.575972
1.938  75.524853
1.937  75.485152
1.936  75.439896
1.935  75.441675
1.934  75.411727
1.933  75.351674
1.932  75.314881
1.931  75.294340
1.930  75.225572
1.929  75.204767
1.928  75.127514
1.927  75.220601
1.926  74.912456
1.925  75.104927
1.924  74.944088
1.923  74.947018
1.922  74.886043
1.921  74.859914
1.920  74.932885
1.919  74.793014
1.918  74.823412
1.917  74.707561
1.916  74.629069
1.915  74.602757
1.914  74.546137
1.913  74.560179
1.912  74.511662
1.911  74.500207
1.910  74.475068
1.909  74.453742
1.908  74.335152
1.907  74.281125
1.906  74.230364
1.905  74.195194
1.904  74.146784
1.903  74.144097
1.902  74.115923
1.901  74.102082
1.900  74.003749
1.899  73.965238
1.898  73.940425
1.897  73.931036
1.896  73.828030
1.895  73.771863
1.894  73.611288
1.893  73.637410
1.892  73.552870
1.891  73.577631
1.890  73.567583
1.889  73.529637
1.888  73.388016
1.887  73.447346
1.886  73.331319
1.885  73.291503
1.884  73.226783
1.883  73.187549
1.882  73.135450
1.881  73.084335
1.880  72.969201
1.879  72.949026
1.878  72.891808
1.877  72.896884
1.876  72.722195
1.875  72.737878
1.874  72.657328
1.873  72.559393
1.872  72.575521
1.871  72.465232
1.870  72.344191
1.869  72.353986
1.868  72.253157
1.867  72.259597
1.866  72.105201
1.865  72.025874
1.864  71.944079
1.863  71.904885
1.862  71.920805
1.861  71.841281
1.860  71.717563
1.859  71.687959
1.858  71.608383
1.857  71.491860
1.856  71.465581
1.855  71.442925
1.854  71.314439
1.853  71.293817
1.852  71.134716
1.851  71.077507
1.850  70.992242
1.849  70.941364
1.848  70.879752
1.847  70.849161
1.846  70.768057
1.845  70.658710
1.844  70.545230
1.843  70.502191
1.842  70.367708
1.841  70.348137
1.840  70.209750
1.839  70.230071
1.838  70.103581
1.837  69.982793
1.836  69.949665
1.835  69.880204
1.834  69.780936
1.833  69.715852
1.832  69.619940
1.831  69.571459
1.830  69.468983
1.829  69.391845
1.828  69.317913
1.827  69.227863
1.826  69.108589
1.825  69.031324
1.824  68.975281
1.823  68.920349
1.822  68.854028
1.821  68.759519
1.820  68.668300
1.819  68.597148
1.818  68.490701
1.817  68.383191
1.816  68.274066
1.815  68.166323
1.814  68.106377
1.813  68.064737
1.812  68.008950
1.811  67.947117
1.810  67.885964
1.809  67.769083
1.808  67.649259
1.807  67.543624
1.806  67.485790
1.805  67.377558
1.804  67.276572
1.803  67.240393
1.802  67.132044
1.801  67.032941
1.800  66.983675
1.799  66.936944
1.798  66.801104
1.797  66.675322
1.796  66.607141
1.795  66.515123
1.794  66.404078
1.793  66.323690
1.792  66.261426
1.791  66.147511
1.790  66.045911
1.789  65.983278
1.788  65.844542
1.787  65.760464
1.786  65.680820
1.785  65.532460
1.784  65.457782
1.783  65.409436
1.782  65.312054
1.781  65.231460
1.780  65.153950
1.779  65.025331
1.778  64.900853
1.777  64.818877
1.776  64.752604
1.775  64.617249
1.774  64.536805
1.773  64.413703
1.772  64.294291
1.771  64.246304
1.770  64.166832
1.769  64.090020
1.768  63.959346
1.767  63.794975
1.766  63.739648
1.765  63.709917
1.764  63.598065
1.763  63.475201
1.762  63.438132
1.761  63.284873
1.760  63.198116
1.759  63.094511
1.758  62.989031
1.757  62.935670
1.756  62.857985
1.755  62.750917
1.754  62.675642
1.753  62.537511
1.752  62.439624
1.751  62.388978
1.750  62.294154
1.749  62.199601
1.748  62.086099
1.747  61.953044
1.746  61.879943
1.745  61.760437
1.744  61.695627
1.743  61.547504
1.742  61.528590
1.741  61.445777
1.740  61.326976
1.739  61.188756
1.738  61.133491
1.737  61.021838
1.736  60.923523
1.735  60.767841
1.734  60.694464
1.733  60.633027
1.732  60.559667
1.731  60.438919
1.730  60.350875
1.729  60.274990
1.728  60.182091
1.727  60.052308
1.726  59.956498
1.725  59.865452
1.724  59.766961
1.723  59.675248
1.722  59.631032
1.721  59.488029
1.720  59.393411
1.719  59.322768
1.718  59.220100
1.717  59.070280
1.716  58.998564
1.715  58.821102
1.714  58.792944
1.713  58.676693
1.712  58.611232
1.711  58.506069
1.710  58.407718
1.709  58.301851
1.708  58.227986
1.707  58.069102
1.706  57.972097
1.705  57.836368
1.704  57.764020
1.703  57.633456
1.702  57.593852
1.701  57.492011
1.700  57.338004
1.699  57.182074
1.698  57.138684
1.697  57.073327
1.696  57.018963
1.695  56.828730
1.694  56.752444
1.693  56.570507
1.692  56.498974
1.691  56.453523
1.690  56.373869
1.689  56.221060
1.688  56.084614
1.687  55.993787
1.686  56.010616
1.685  55.778441
1.684  55.746737
1.683  55.643847
1.682  55.576508
1.681  55.384674
1.680  55.301522
1.679  55.194797
1.678  55.127870
1.677  55.034790
1.676  54.914253
1.675  54.820139
1.674  54.754148
1.673  54.589752
1.672  54.506582
1.671  54.378141
1.670  54.265396
1.669  54.263071
1.668  54.039398
1.667  53.987741
1.666  53.917348
1.665  53.819429
1.664  53.725647
1.663  53.588464
1.662  53.577336
1.661  53.374796
1.660  53.388433
1.659  53.164314
1.658  53.169550
1.657  52.983280
1.656  52.971706
1.655  52.865081
1.654  52.650632
1.653  52.693863
1.652  52.567064
1.651  52.378108
1.650  52.354883
1.649  52.220281
1.648  52.209669
1.647  52.071928
1.646  51.954795
1.645  51.822523
1.644  51.857543
1.643  51.732277
1.642  51.703367
1.641  51.449911
1.640  51.490837
1.639  51.305543
1.638  51.250685
1.637  51.113242
1.636  51.112580
1.635  50.974565
1.634  50.891417
1.633  50.753989
1.632  50.665557
1.631  50.534043
1.630  50.495583
1.629  50.383592
1.628  50.372595
1.627  50.165344
1.626  50.142700
1.625  49.964580
1.624  49.910729
1.623  49.774312
1.622  49.746949
1.621  49.609140
1.620  49.573589
1.619  49.499558
1.618  49.429818
1.617  49.242654
1.616  49.255986
1.615  49.127655
1.614  49.041277
1.613  48.911923
1.612  48.891697
1.611  48.643412
1.610  48.661533
1.609  48.541620
1.608  48.497918
1.607  48.389713
1.606  48.366011
1.605  48.205012
1.604  48.212195
1.603  48.017527
1.602  47.937815
1.601  47.874684
1.600  47.804820
1.599  47.700106
1.598  47.661254
1.597  47.546542
1.596  47.519711
1.595  47.416261
1.594  47.327472
1.593  47.223847
1.592  47.186141
1.591  47.003803
1.590  47.069144
1.589  46.844721
1.588  46.784273
1.587  46.687122
1.586  46.597947
1.585  46.481825
1.584  46.403403
1.583  46.326389
1.582  46.318853
1.581  46.186135
1.580  46.121916
1.579  45.956045
1.578  45.900552
1.577  45.766761
1.576  45.738899
1.575  45.671054
1.574  45.615948
1.573  45.489260
1.572  45.436831
1.571  45.338487
1.570  45.336589
1.569  45.212693
1.568  45.128520
1.567  45.058835
1.566  44.986573
1.565  44.907194
1.564  44.816771
1.563  44.709314
1.562  44.640279
1.561  44.532529
1.560  44.506583
1.559  44.363674
1.558  44.354852
1.557  44.230581
1.556  44.142055
1.555  44.057542
1.554  44.042956
1.553  43.940437
1.552  43.886949
1.551  43.791161
1.550  43.700484
1.549  43.599816
1.548  43.569740
1.547  43.474630
1.546  43.389400
1.545  43.307903
1.544  43.258693
1.543  43.143939
1.542  43.087116
1.541  43.003629
1.540  42.975682
1.539  42.855468
1.538  42.805658
1.537  42.711031
1.536  42.652655
1.535  42.584557
1.534  42.559491
1.533  42.464889
1.532  42.379713
1.531  42.276850
1.530  42.228712
1.529  42.123079
1.528  42.139746
1.527  42.086795
1.526  42.020078
1.525  41.876814
1.524  41.848651
1.523  41.817766
1.522  41.727752
1.521  41.628650
1.520  41.599354
1.519  41.526554
1.518  41.457373
1.517  41.396880
1.516  41.325250
1.515  41.244472
1.514  41.196165
1.513  41.160502
1.512  41.103268
1.511  41.022504
1.510  40.932787
1.509  40.799703
1.508  40.780873
1.507  40.744379
1.506  40.671349
1.505  40.594112
1.504  40.544945
1.503  40.511599
1.502  40.436957
1.501  40.351935
1.500  40.304927
1.499  40.238091
1.498  40.171789
1.497  40.133377
1.496  40.109789
1.495  40.050265
1.494  39.946595
1.493  39.902585
1.492  39.835495
1.491  39.771164
1.490  39.772485
1.489  39.758925
1.488  39.662661
1.487  39.583961
1.486  39.490893
1.485  39.452257
1.484  39.407187
1.483  39.403083
1.482  39.330172
1.481  39.278042
1.480  39.201035
1.479  39.162089
1.478  39.094138
1.477  39.021853
1.476  38.958136
1.475  38.957370
1.474  38.944881
1.473  38.889059
1.472  38.776361
1.471  38.739873
1.470  38.697410
1.469  38.668900
1.468  38.633397
1.467  38.626902
1.466  38.514344
1.465  38.463794
1.464  38.449744
1.463  38.408939
1.462  38.297048
1.461  38.227475
1.460  38.227280
1.459  38.183283
1.458  38.127272
1.457  38.073403
1.456  38.055135
1.455  38.029142
1.454  37.957185
1.453  37.941942
1.452  37.938112
1.451  37.853307
1.450  37.754682
1.449  37.762513
1.448  37.688237
1.447  37.741347
1.446  37.636205
1.445  37.651306
1.444  37.566172
1.443  37.517481
1.442  37.443180
1.441  37.439615
1.440  37.379033
1.439  37.391393
1.438  37.330633
1.437  37.323369
1.436  37.277767
1.435  37.305540
1.434  37.230217
1.433  37.174882
1.432  37.104113
1.431  37.155904
1.430  37.028708
1.429  37.036370
1.428  37.027995
1.427  37.011847
1.426  36.941603
1.425  36.918510
1.424  36.812777
1.423  36.833065
1.422  36.808934
1.421  36.808740
1.420  36.712631
1.419  36.698513
