Name: Gold plate
Type: Manmade materials
Class: Reflectance target
Subclass: 
Particle Size: Solid
Sample No.: 001682
Owner: JPL
Wavelength range: IR
Origin: Labsphere, P.O. Box 70, Shaker Street, North Sutton, NH 03260
(603) 927-4266
Description: Measurement made at bottom right. Field Gold.
Oct. 29 1997 to Oct. 30 1997.




Measurement: Hemispherical Reflectance
First Column: X
Second Column: Y
X Units: Wavelength (micrometers)
Y Units: Reflectence (percent)
First X Value: 15.3853
Last X Value: 2.00032
Number of X Values: 2256
Additional information: None.
 
15.3853	88.0504
15.3397	88.1974
15.2945	88.1939
15.2495	87.9361
15.2048	88.0267
15.1603	88.1814
15.1161	88.2228
15.0722	88.153
15.0285	87.489
14.9851	86.208
14.9419	86.8999
14.8989	88.0277
14.8563	88.0432
14.8138	88.0621
14.7716	88.1258
14.7296	88.1031
14.6879	87.9807
14.6464	87.9655
14.6052	87.9216
14.5641	88.0225
14.5233	88.0905
14.4828	88.005
14.4424	87.8982
14.4023	87.9511
14.3624	87.972
14.3227	87.9388
14.2833	88.0419
14.244	88.3382
14.205	88.403
14.1662	88.2825
14.1276	88.2471
14.0892	88.1886
14.051	88.0873
14.0131	88.2491
13.9753	88.3472
13.9377	88.2917
13.9004	88.2634
13.8632	88.3091
13.8262	88.5319
13.7895	88.5672
13.7529	88.5018
13.7165	88.5369
13.6803	88.5671
13.6443	88.6494
13.6085	88.64
13.5729	88.6404
13.5374	88.606
13.5022	88.5425
13.4671	88.5414
13.4322	88.5859
13.3975	88.6049
13.363	88.6417
13.3286	88.5724
13.2944	88.5378
13.2604	88.5294
13.2266	88.5744
13.193	88.5348
13.1595	88.4999
13.1262	88.4882
13.093	88.4599
13.06	88.4677
13.0272	88.5327
12.9946	88.4685
12.9621	88.2672
12.9298	88.1987
12.8976	88.211
12.8656	88.2484
12.8337	88.2308
12.8021	88.1893
12.7705	88.2389
12.7391	88.3009
12.7079	88.2655
12.6769	88.313
12.6459	88.2271
12.6152	88.07
12.5845	88.1218
12.5541	88.2484
12.5238	88.2189
12.4936	88.2036
12.4635	88.3555
12.4337	88.5689
12.4039	88.6192
12.3743	88.8093
12.3448	88.9781
12.3155	88.8833
12.2863	88.9404
12.2573	89.1482
12.2284	89.2492
12.1996	89.209
12.171	89.1788
12.1425	89.2367
12.1141	89.2587
12.0859	89.2522
12.0578	89.2472
12.0298	89.2292
12.0019	89.2483
11.9742	89.2461
11.9466	89.2623
11.9192	89.2478
11.8918	89.1823
11.8646	89.2156
11.8375	89.2476
11.8106	89.2233
11.7837	89.1821
11.757	89.2693
11.7304	89.3035
11.7039	89.24
11.6776	89.1164
11.6513	89.0678
11.6252	88.9688
11.5992	88.9458
11.5733	88.8946
11.5475	88.7876
11.5219	88.6281
11.4963	88.3251
11.4709	88.0849
11.4455	88.0796
11.4203	88.1712
11.3952	88.2829
11.3702	88.3259
11.3454	88.4008
11.3206	88.4268
11.2959	88.4482
11.2714	88.5836
11.2469	88.605
11.2226	88.465
11.1983	88.4072
11.1742	88.3481
11.1502	88.2302
11.1263	88.1059
11.1024	88.0246
11.0787	88.0075
11.0551	87.9416
11.0316	87.7851
11.0081	87.634
10.9848	87.5841
10.9616	87.52
10.9385	87.446
10.9154	87.3827
10.8925	87.2791
10.8697	87.2531
10.8469	87.3008
10.8243	87.3673
10.8017	87.5045
10.7793	87.5269
10.7569	87.4708
10.7346	87.3763
10.7125	87.2548
10.6904	87.235
10.6684	87.2583
10.6465	87.2557
10.6247	87.1961
10.6029	87.1039
10.5813	87.0144
10.5597	86.922
10.5383	86.9147
10.5169	86.8393
10.4956	86.8276
10.4744	86.8117
10.4533	86.7057
10.4323	86.6276
10.4113	86.4068
10.3904	86.2527
10.3697	86.2351
10.349	86.0982
10.3284	85.8805
10.3078	85.7643
10.2874	85.6516
10.267	85.561
10.2467	85.4162
10.2265	85.1458
10.2064	85.035
10.1863	84.9616
10.1663	84.8062
10.1464	84.6769
10.1266	84.4984
10.1069	84.3212
10.0872	84.1361
10.0676	83.9575
10.0481	83.8757
10.0287	83.803
10.0093	83.6444
9.99005	83.538
9.97084	83.4376
9.95169	83.337
9.93263	83.2743
9.91364	83.1835
9.89472	83.1444
9.87587	83.1299
9.8571	83.0433
9.83839	82.9421
9.81976	82.9976
9.80119	83.0083
9.78271	82.9044
9.76428	82.8872
9.74592	82.8904
9.72764	82.8364
9.70943	82.9285
9.69128	82.9914
9.6732	82.9177
9.65518	82.9091
9.63724	82.9409
9.61935	82.9365
9.60155	82.9664
9.5838	83.0477
9.56611	83.0985
9.5485	83.0932
9.53094	83.0973
9.51345	83.1784
9.49604	83.26
9.47867	83.3392
9.46137	83.507
9.44414	83.5849
9.42697	83.723
9.40986	83.9752
9.39281	84.0822
9.37583	84.0499
9.35891	84.1699
9.34204	84.3161
9.32524	84.4562
9.3085	84.7197
9.29182	84.8442
9.27519	84.8167
9.25863	84.8081
9.24213	84.8436
9.22568	84.7981
9.2093	84.7927
9.19297	84.875
9.17669	84.9792
9.16048	85.1048
9.14433	85.156
9.12823	85.1996
9.11218	85.1601
9.0962	85.1522
9.08027	85.1647
9.06439	85.2031
9.04858	85.2694
9.03281	85.3128
9.0171	85.4677
9.00145	85.5328
8.98585	85.4098
8.9703	85.3714
8.9548	85.5262
8.93937	85.6863
8.92398	85.7793
8.90865	85.9977
8.89337	86.152
8.87814	86.107
8.86296	86.186
8.84784	86.2793
8.83277	86.3075
8.81774	86.4064
8.80277	86.6039
8.78786	86.7531
8.77298	86.8719
8.75816	86.9209
8.7434	86.8158
8.72868	86.8035
8.714	86.8604
8.69938	86.9368
8.68481	87.0646
8.67029	87.06
8.65581	87.0975
8.64139	87.2034
8.62701	87.3568
8.61268	87.3697
8.5984	87.2735
8.58416	87.2349
8.56997	87.3073
8.55583	87.4957
8.54174	87.7388
8.52769	87.8043
8.51368	87.7917
8.49973	87.8877
8.48582	88.0644
8.47195	88.0824
8.45813	88.0133
8.44436	88.1421
8.43062	88.4403
8.41693	88.5604
8.4033	88.5408
8.3897	88.5385
8.37614	88.5773
8.36264	88.6315
8.34917	88.6876
8.33574	88.7742
8.32236	88.8206
8.30903	88.8761
8.29573	88.9669
8.28248	89.0377
8.26927	89.0814
8.2561	89.058
8.24298	89.0689
8.2299	89.1357
8.21685	89.248
8.20385	89.3066
8.19089	89.279
8.17797	89.2975
8.16509	89.3257
8.15225	89.4362
8.13946	89.5193
8.1267	89.5073
8.11398	89.4866
8.10131	89.5077
8.08867	89.5074
8.07606	89.5221
8.0635	89.525
8.05099	89.4708
8.0385	89.4297
8.02606	89.4768
8.01366	89.5816
8.00129	89.536
7.98896	89.5065
7.97667	89.592
7.96442	89.6629
7.9522	89.6648
7.94002	89.6449
7.92788	89.6128
7.91578	89.6416
7.90371	89.666
7.89168	89.6895
7.87969	89.7369
7.86773	89.6913
7.85581	89.6423
7.84392	89.6396
7.83207	89.6814
7.82026	89.774
7.80849	89.7199
7.79674	89.6633
7.78503	89.6385
7.77337	89.6328
7.76173	89.6294
7.75012	89.6223
7.73856	89.6525
7.72703	89.5763
7.71553	89.5311
7.70406	89.5778
7.69263	89.6391
7.68123	89.6288
7.66987	89.5668
7.65855	89.5257
7.64725	89.5071
7.63598	89.5171
7.62475	89.4446
7.61356	89.3619
7.60239	89.2835
7.59126	89.3067
7.58017	89.345
7.5691	89.3372
7.55806	89.3468
7.54707	89.3021
7.5361	89.2831
7.52516	89.2684
7.51425	89.2572
7.50338	89.2808
7.49253	89.2645
7.48172	89.2637
7.47094	89.272
7.46019	89.2386
7.44947	89.1746
7.43879	89.1076
7.42813	89.0811
7.4175	89.0896
7.4069	89.0875
7.39634	89.0693
7.3858	89.0039
7.37529	88.9707
7.36482	88.9611
7.35437	88.9207
7.34396	88.9821
7.33357	88.9643
7.32321	88.8187
7.31288	88.7663
7.30258	88.7609
7.29231	88.7968
7.28207	88.872
7.27185	88.8536
7.26167	88.7936
7.25152	88.7176
7.24139	88.6532
7.23129	88.6571
7.22122	88.6939
7.21117	88.733
7.20116	88.6954
7.19117	88.6778
7.18121	88.7399
7.17128	88.8299
7.16137	88.6932
7.1515	88.6328
7.14164	88.6464
7.13182	88.5671
7.12203	88.5874
7.11225	88.6219
7.10251	88.5033
7.0928	88.3944
7.08311	88.354
7.07344	88.4351
7.06381	88.5095
7.0542	88.6722
7.04461	88.8339
7.03506	88.6153
7.02552	88.497
7.01601	88.4598
7.00653	88.4098
6.99708	88.4753
6.98765	88.4655
6.97824	88.4235
6.96886	88.5917
6.95951	88.7976
6.95018	88.5594
6.94087	88.4627
6.9316	88.4847
6.92234	88.5309
6.91311	88.606
6.90391	88.6274
6.89473	88.5117
6.88557	88.5206
6.87644	88.7184
6.86733	89.1589
6.85824	89.1468
6.84918	88.7468
6.84015	88.5991
6.83114	88.7669
6.82215	88.8237
6.81319	88.6725
6.80424	88.7871
6.79532	89.1326
6.78643	89.2603
6.77756	89.1267
6.76871	89.0065
6.75989	88.9486
6.75109	89.0523
6.74231	89.1213
6.73355	89.206
6.72482	89.3783
6.71611	89.4927
6.70742	89.4652
6.69875	89.3558
6.69011	89.5226
6.68149	89.6886
6.67289	89.5605
6.66431	89.4399
6.65576	89.4311
6.64722	89.8553
6.63871	90.3712
6.63022	90.1179
6.62175	89.7106
6.61331	89.6168
6.60488	89.5966
6.59648	89.8017
6.5881	89.9228
6.57974	90.0702
6.5714	90.2158
6.56308	89.9747
6.55478	89.9579
6.54651	89.8454
6.53825	89.6732
6.53001	89.754
6.5218	90.0348
6.51361	89.8813
6.50544	89.9187
6.49729	90.4508
6.48915	90.4325
6.48104	90.0516
6.47295	89.8378
6.46488	89.635
6.45683	89.6129
6.4488	89.6852
6.44079	89.693
6.4328	89.8232
6.42482	90.0541
6.41687	90.5556
6.40894	90.3283
6.40103	89.6368
6.39314	89.4807
6.38526	89.4688
6.37741	89.559
6.36957	89.6359
6.36176	89.4537
6.35396	89.4563
6.34618	89.7443
6.33843	89.5508
6.33069	89.1987
6.32297	89.1652
6.31527	89.1811
6.30758	89.1883
6.29992	89.1992
6.29227	89.2297
6.28465	89.1725
6.27704	89.0709
6.26945	89.0444
6.26188	89.1121
6.25432	89.1599
6.24679	89.0851
6.23927	89.0034
6.23177	88.9829
6.22429	89.0493
6.21683	89.084
6.20938	89.0096
6.20195	88.9011
6.19454	89.0474
6.18715	89.4114
6.17978	89.2414
6.17242	88.966
6.16508	89.0615
6.15776	89.0951
6.15045	89.0041
6.14317	89.0316
6.1359	88.9395
6.12864	88.9555
6.12141	89.2949
6.11419	89.5862
6.10699	89.3317
6.0998	89.0988
6.09263	89.1031
6.08549	89.1211
6.07835	89.3725
6.07123	89.5613
6.06413	89.4026
6.05705	89.6881
6.04998	90.3735
6.04293	89.9439
6.0359	89.3913
6.02888	89.2669
6.02187	89.3065
6.01489	89.4965
6.00792	89.505
6.00096	89.5288
5.99403	89.8428
5.98711	89.9922
5.9802	89.8695
5.97331	89.9769
5.96644	89.9883
5.95958	89.7585
5.95274	89.8121
5.94591	90.0864
5.9391	90.6185
5.9323	90.4876
5.92552	90.0948
5.91876	90.0564
5.91201	90.0213
5.90528	90.2184
5.89856	90.7736
5.89186	90.7932
5.88517	90.9317
5.8785	91.0015
5.87184	90.4994
5.8652	90.5019
5.85857	90.5052
5.85196	90.4661
5.84536	90.4396
5.83878	90.5244
5.83221	90.733
5.82566	90.9861
5.81912	90.955
5.81259	90.6624
5.80608	90.6087
5.79959	90.6457
5.79311	90.6141
5.78665	90.6426
5.78019	90.7576
5.77376	91.0099
5.76734	91.3088
5.76093	91.0483
5.75453	90.8034
5.74815	90.9342
5.74179	90.9483
5.73543	90.9952
5.7291	91.0304
5.72277	91.0839
5.71646	91.1758
5.71017	91.2986
5.70389	91.2133
5.69762	91.1468
5.69136	91.2648
5.68513	91.2685
5.6789	91.3137
5.67268	91.3308
5.66648	91.2824
5.6603	91.4113
5.65413	91.5254
5.64797	91.5796
5.64182	91.718
5.63569	91.5859
5.62957	91.4454
5.62347	91.4715
5.61737	91.4964
5.61129	91.4533
5.60522	91.4479
5.59917	91.358
5.59313	91.2532
5.5871	91.2991
5.58109	91.3874
5.57509	91.3102
5.5691	91.2185
5.56312	91.2573
5.55716	91.3216
5.55121	91.4128
5.54528	91.4279
5.53935	91.456
5.53344	91.494
5.52754	91.5343
5.52166	91.5986
5.51578	91.5598
5.50992	91.4638
5.50407	91.4441
5.49823	91.4591
5.49241	91.5426
5.4866	91.6006
5.4808	91.6416
5.47501	91.643
5.46923	91.6978
5.46347	91.7742
5.45772	91.7403
5.45198	91.693
5.44625	91.6653
5.44054	91.649
5.43484	91.6712
5.42914	91.733
5.42347	91.8883
5.4178	91.8543
5.41214	91.6926
5.4065	91.6202
5.40087	91.5855
5.39525	91.6048
5.38964	91.6545
5.38404	91.6616
5.37846	91.6303
5.37288	91.6221
5.36732	91.6419
5.36177	91.6708
5.35623	91.6981
5.35071	91.7495
5.34519	91.6947
5.33968	91.6521
5.33419	91.6563
5.32871	91.5782
5.32324	91.6146
5.31778	91.6709
5.31233	91.6812
5.30689	91.6876
5.30147	91.6662
5.29605	91.6408
5.29065	91.6737
5.28525	91.6912
5.27987	91.7772
5.2745	91.7963
5.26914	91.7552
5.26379	91.6848
5.25845	91.6439
5.25312	91.6404
5.24781	91.7344
5.2425	91.7882
5.23721	91.7783
5.23192	91.751
5.22665	91.7495
5.22138	91.7376
5.21613	91.809
5.21089	91.8408
5.20566	91.8092
5.20044	91.8399
5.19522	91.8235
5.19002	91.7831
5.18483	91.7475
5.17965	91.6955
5.17448	91.7065
5.16933	91.7463
5.16418	91.7276
5.15904	91.6676
5.15391	91.6878
5.14879	91.7881
5.14368	91.8262
5.13859	91.7738
5.1335	91.7481
5.12842	91.8396
5.12335	91.8401
5.1183	91.7751
5.11325	91.7829
5.10821	91.7793
5.10318	91.7825
5.09817	91.7402
5.09316	91.7395
5.08816	91.7786
5.08317	91.7879
5.07819	91.7606
5.07322	91.7749
5.06826	91.7866
5.06331	91.815
5.05837	91.8416
5.05344	91.8298
5.04852	91.7639
5.04361	91.7246
5.03871	91.7213
5.03382	91.7194
5.02894	91.7696
5.02406	91.7732
5.0192	91.7965
5.01435	91.8252
5.0095	91.7965
5.00467	91.7782
4.99984	91.7826
4.99502	91.786
4.99021	91.766
4.98542	91.7233
4.98063	91.7414
4.97585	91.7708
4.97108	91.775
4.96632	91.7456
4.96156	91.7872
4.95682	91.7941
4.95209	91.747
4.94736	91.7376
4.94264	91.7809
4.93794	91.7805
4.93324	91.7948
4.92855	91.8093
4.92387	91.8064
4.9192	91.8096
4.91453	91.7893
4.90988	91.7601
4.90524	91.7676
4.9006	91.7482
4.89597	91.7517
4.89135	91.8116
4.88674	91.792
4.88214	91.7798
4.87755	91.8006
4.87296	91.8063
4.86839	91.7727
4.86382	91.8057
4.85926	91.8713
4.85471	91.8063
4.85017	91.7158
4.84564	91.7619
4.84111	91.8616
4.8366	91.8749
4.83209	91.8142
4.82759	91.7867
4.8231	91.7728
4.81862	91.8009
4.81415	91.8619
4.80968	91.9232
4.80522	91.8795
4.80077	91.7829
4.79633	91.7634
4.7919	91.7848
4.78747	91.8118
4.78306	91.8303
4.77865	91.7817
4.77425	91.7465
4.76986	91.7881
4.76547	91.7617
4.7611	91.7286
4.75673	91.7508
4.75237	91.7711
4.74802	91.8071
4.74367	91.8237
4.73934	91.8112
4.73501	91.7716
4.73069	91.7426
4.72638	91.7105
4.72207	91.7092
4.71777	91.7659
4.71348	91.8065
4.7092	91.7998
4.70493	91.7763
4.70066	91.7519
4.69641	91.7795
4.69216	91.7786
4.68791	91.7297
4.68368	91.73
4.67945	91.744
4.67523	91.7516
4.67102	91.7442
4.66682	91.6654
4.66262	91.6802
4.65843	91.7258
4.65425	91.733
4.65007	91.7564
4.64591	91.7951
4.64175	91.809
4.6376	91.8108
4.63345	91.793
4.62932	91.7748
4.62519	91.7534
4.62106	91.7377
4.61695	91.654
4.61284	91.712
4.60874	91.7878
4.60465	91.7627
4.60056	91.7693
4.59648	91.7865
4.59241	91.7642
4.58835	91.7477
4.58429	91.7225
4.58024	91.7082
4.5762	91.7486
4.57216	91.8032
4.56814	91.8196
4.56411	91.7652
4.5601	91.7161
4.55609	91.767
4.55209	91.806
4.5481	91.7799
4.54411	91.7692
4.54013	91.8092
4.53616	91.8274
4.5322	91.7459
4.52824	91.7485
4.52429	91.7703
4.52034	91.7219
4.51641	91.7027
4.51247	91.7596
4.50855	91.765
4.50463	91.7224
4.50072	91.7037
4.49682	91.6997
4.49292	91.7002
4.48903	91.7463
4.48515	91.7853
4.48127	91.7658
4.4774	91.7513
4.47354	91.7692
4.46968	91.7128
4.46584	91.6559
4.46199	91.6088
4.45815	91.6431
4.45432	91.7018
4.4505	91.7161
4.44668	91.683
4.44287	91.7177
4.43907	91.7594
4.43527	91.7792
4.43148	91.7426
4.4277	91.672
4.42392	91.6841
4.42015	91.7061
4.41638	91.7159
4.41262	91.709
4.40887	91.6522
4.40513	91.6332
4.40139	91.6447
4.39765	91.6624
4.39393	91.6882
4.39021	91.6521
4.38649	91.7105
4.38278	91.7615
4.37908	91.705
4.37539	91.6435
4.3717	91.6362
4.36801	91.6492
4.36434	91.6626
4.36067	91.6237
4.357	91.5703
4.35335	91.5543
4.34969	91.5116
4.34605	91.4515
4.34241	91.411
4.33877	91.3454
4.33514	91.2341
4.33152	91.1246
4.32791	91.0544
4.3243	90.8844
4.32069	90.6705
4.3171	90.4614
4.31351	90.2644
4.30992	90.0614
4.30634	89.823
4.30277	89.4748
4.2992	89.1842
4.29564	88.9448
4.29208	88.7243
4.28853	88.6178
4.28499	88.5369
4.28145	88.4578
4.27792	88.3999
4.27439	88.3792
4.27087	88.5014
4.26735	88.8193
4.26384	89.3387
4.26034	90.1139
4.25684	90.598
4.25335	90.0753
4.24986	89.16
4.24638	88.3812
4.24291	87.7901
4.23944	87.402
4.23598	87.197
4.23252	87.2249
4.22906	87.3778
4.22562	87.7135
4.22218	88.2071
4.21874	88.7298
4.21531	89.2987
4.21189	89.9289
4.20847	90.4265
4.20506	90.8627
4.20165	91.1928
4.19825	91.3836
4.19485	91.537
4.19146	91.5956
4.18807	91.6603
4.18469	91.6891
4.18132	91.6809
4.17795	91.6221
4.17458	91.5834
4.17123	91.5456
4.16787	91.559
4.16453	91.5868
4.16118	91.6066
4.15785	91.6108
4.15451	91.5794
4.15119	91.5552
4.14787	91.552
4.14455	91.5814
4.14124	91.5549
4.13794	91.5173
4.13464	91.5855
4.13134	91.6407
4.12805	91.5801
4.12477	91.5224
4.12149	91.5164
4.11822	91.5226
4.11495	91.5462
4.11168	91.5955
4.10843	91.6528
4.10517	91.622
4.10192	91.6246
4.09868	91.5982
4.09545	91.4848
4.09221	91.4332
4.08899	91.4366
4.08576	91.4496
4.08255	91.4659
4.07933	91.4543
4.07613	91.445
4.07292	91.4734
4.06973	91.5227
4.06654	91.5813
4.06335	91.5252
4.06017	91.4857
4.05699	91.5386
4.05382	91.5278
4.05065	91.4637
4.04749	91.438
4.04433	91.4401
4.04118	91.4561
4.03803	91.4999
4.03489	91.4817
4.03175	91.4607
4.02862	91.4551
4.02549	91.435
4.02237	91.4314
4.01925	91.4138
4.01614	91.3538
4.01303	91.3071
4.00993	91.2833
4.00683	91.2811
4.00373	91.2964
4.00064	91.2557
3.99756	91.2487
3.99448	91.2656
3.9914	91.2238
3.98833	91.196
3.98527	91.1993
3.98221	91.1842
3.97915	91.2369
3.9761	91.2219
3.97305	91.1018
3.97001	91.0003
3.96697	91.05
3.96394	91.104
3.96091	91.0973
3.95789	91.1153
3.95487	91.166
3.95186	91.1714
3.94885	91.1331
3.94584	91.1436
3.94284	91.1584
3.93984	91.1715
3.93685	91.2355
3.93386	91.2393
3.93088	91.1736
3.9279	91.1631
3.92493	91.1696
3.92196	91.1674
3.919	91.2295
3.91604	91.3198
3.91308	91.3419
3.91013	91.2832
3.90718	91.2196
3.90424	91.2616
3.9013	91.2105
3.89837	91.214
3.89544	91.2753
3.89252	91.2349
3.8896	91.2555
3.88668	91.2684
3.88377	91.1985
3.88086	91.2388
3.87796	91.3106
3.87506	91.366
3.87217	91.2978
3.86928	91.1273
3.86639	91.108
3.86351	91.2068
3.86064	91.1764
3.85776	91.0753
3.8549	91.0684
3.85203	91.1178
3.84917	91.1558
3.84631	91.1461
3.84346	91.2033
3.84062	91.2349
3.83777	91.2094
3.83494	91.177
3.8321	91.1733
3.82927	91.1561
3.82644	91.139
3.82362	91.1243
3.82081	91.1145
3.81799	91.1457
3.81518	91.1251
3.81238	91.0814
3.80958	91.1205
3.80678	91.1751
3.80399	91.216
3.8012	91.2586
3.79841	91.27
3.79563	91.2001
3.79286	91.1677
3.79008	91.1601
3.78731	91.1234
3.78455	91.0899
3.78179	91.0882
3.77903	91.105
3.77628	91.0695
3.77353	91.0729
3.77079	91.1288
3.76805	91.1522
3.76531	91.1575
3.76258	91.1167
3.75985	91.0907
3.75713	91.0505
3.7544	91.0383
3.75169	91.0978
3.74898	91.105
3.74627	91.0707
3.74356	90.993
3.74086	91.0036
3.73816	91.1031
3.73547	91.1034
3.73278	91.0756
3.7301	91.0863
3.72741	91.046
3.72474	91.0069
3.72206	90.9751
3.71939	90.992
3.71673	91.0145
3.71406	90.9933
3.71141	91.0091
3.70875	91.0075
3.7061	90.9956
3.70345	90.9937
3.70081	90.9732
3.69817	91.0147
3.69553	91.041
3.6929	90.984
3.69027	90.9063
3.68765	90.8748
3.68503	90.9162
3.68241	90.9337
3.6798	90.9514
3.67719	90.9475
3.67458	90.932
3.67198	90.904
3.66938	90.8144
3.66678	90.7349
3.66419	90.7758
3.66161	90.8501
3.65902	90.8892
3.65644	90.8749
3.65387	90.8277
3.65129	90.8235
3.64872	90.8271
3.64616	90.7941
3.64359	90.7784
3.64103	90.7268
3.63848	90.7282
3.63593	90.7936
3.63338	90.7831
3.63084	90.7553
3.6283	90.8442
3.62576	90.8115
3.62322	90.7153
3.62069	90.691
3.61817	90.6883
3.61564	90.6597
3.61312	90.7044
3.61061	90.7272
3.6081	90.6974
3.60559	90.6658
3.60308	90.6482
3.60058	90.675
3.59808	90.6956
3.59558	90.6765
3.59309	90.6365
3.59061	90.6003
3.58812	90.5996
3.58564	90.6117
3.58316	90.6508
3.58069	90.6204
3.57822	90.5687
3.57575	90.542
3.57328	90.5236
3.57082	90.5197
3.56836	90.5419
3.56591	90.5356
3.56346	90.5039
3.56101	90.4963
3.55857	90.5214
3.55613	90.5293
3.55369	90.5206
3.55126	90.449
3.54883	90.416
3.5464	90.4481
3.54397	90.4182
3.54155	90.3601
3.53914	90.3308
3.53672	90.3024
3.53431	90.3175
3.5319	90.2775
3.5295	90.2158
3.5271	90.2237
3.5247	90.23
3.52231	90.1389
3.51991	90.0266
3.51753	89.9224
3.51514	89.8137
3.51276	89.675
3.51038	89.5681
3.50801	89.5394
3.50563	89.5241
3.50327	89.4692
3.5009	89.4783
3.49854	89.5572
3.49618	89.6515
3.49382	89.6489
3.49147	89.5743
3.48912	89.541
3.48677	89.5249
3.48443	89.5464
3.48209	89.6155
3.47975	89.6489
3.47742	89.6972
3.47509	89.7044
