Name: Siderite Fe^2+CO_3
Type: Mineral
Class: Carbonates
Subclass: 
Particle Size: 125-500um
Sample No.: C-9A
Owner: JPL
Wavelength range: IR
Origin: 
Collected by JPL
Description: 





Measurement: Hemispherical reflectance
First Column: X
Second Column: Y
X Units:  Wavelength (micrometers)
Y Units:  Reflectance (percent)
First X Value: 15.3853
Last X Value: 2.00032
Number of X Values: 2256
Additional information: c09aa.txt
 
15.3853	4.39981
15.3397	4.32929
15.2945	4.22245
15.2495	4.10793
15.2048	4.18077
15.1603	4.39156
15.1161	4.53903
15.0722	4.47286
15.0285	4.59562
14.9851	4.71475
14.9419	4.74004
14.8989	4.77032
14.8563	4.59672
14.8138	4.48656
14.7716	4.62559
14.7296	4.636
14.6879	4.73094
14.6464	4.66768
14.6052	4.63438
14.5641	4.74496
14.5233	4.75531
14.4828	4.88156
14.4424	4.91365
14.4023	4.86459
14.3624	4.74737
14.3227	4.40077
14.2833	4.12467
14.244	3.97141
14.205	4.06615
14.1662	4.19756
14.1276	4.14338
14.0892	4.14094
14.051	4.0545
14.0131	4.01917
13.9753	4.1209
13.9377	4.25397
13.9004	4.19327
13.8632	4.07462
13.8262	4.11555
13.7895	4.12088
13.7529	4.15461
13.7165	4.28861
13.6803	4.5151
13.6443	4.82855
13.6085	5.03868
13.5729	5.2636
13.5374	5.1745
13.5022	4.23127
13.4671	3.238
13.4322	3.07489
13.3975	3.25217
13.363	3.42968
13.3286	3.56963
13.2944	3.88574
13.2604	4.11528
13.2266	4.18275
13.193	4.40064
13.1595	4.51578
13.1262	4.76679
13.093	5.10187
13.06	5.22
13.0272	5.43758
12.9946	5.8162
12.9621	6.31381
12.9298	6.75297
12.8976	7.2223
12.8656	7.81232
12.8337	8.12269
12.8021	8.29047
12.7705	8.4115
12.7391	8.3552
12.7079	7.94697
12.6769	7.49839
12.6459	7.23015
12.6152	7.38079
12.5845	7.69586
12.5541	8.07191
12.5238	8.42822
12.4936	8.53479
12.4635	8.25518
12.4337	7.90795
12.4039	7.444
12.3743	6.57526
12.3448	5.75674
12.3155	5.35011
12.2863	5.14896
12.2573	5.05808
12.2284	5.0749
12.1996	5.09674
12.171	5.01209
12.1425	4.93149
12.1141	4.84944
12.0859	4.95834
12.0578	4.92906
12.0298	4.71453
12.0019	4.56524
11.9742	4.47645
11.9466	4.32512
11.9192	4.25613
11.8918	4.44353
11.8646	4.66934
11.8375	4.83403
11.8106	4.9046
11.7837	4.89163
11.757	5.01819
11.7304	5.18563
11.7039	5.23652
11.6776	5.31137
11.6513	5.56522
11.6252	5.94887
11.5992	6.39565
11.5733	6.92594
11.5475	7.65763
11.5219	8.79484
11.4963	10.1532
11.4709	11.2183
11.4455	11.9696
11.4203	12.4328
11.3952	12.7317
11.3702	12.7639
11.3454	11.7352
11.3206	9.20334
11.2959	6.4893
11.2714	4.94895
11.2469	4.35484
11.2226	4.13422
11.1983	4.02417
11.1742	4.01631
11.1502	4.07298
11.1263	4.22304
11.1024	4.28376
11.0787	4.22678
11.0551	4.19393
11.0316	4.32519
11.0081	4.32355
10.9848	4.23133
10.9616	4.35969
10.9385	4.61869
10.9154	4.67151
10.8925	4.63819
10.8697	4.56514
10.8469	4.58255
10.8243	4.74608
10.8017	4.81749
10.7793	4.73256
10.7569	4.91699
10.7346	5.00878
10.7125	4.90921
10.6904	5.06213
10.6684	5.22498
10.6465	5.26063
10.6247	5.23676
10.6029	5.2776
10.5813	5.43041
10.5597	5.42929
10.5383	5.4134
10.5169	5.41678
10.4956	5.5107
10.4744	5.62016
10.4533	5.62321
10.4323	5.66073
10.4113	5.67378
10.3904	5.68108
10.3697	5.79141
10.349	5.83585
10.3284	5.76823
10.3078	5.79299
10.2874	5.891
10.267	6.04657
10.2467	6.1627
10.2265	6.11651
10.2064	6.19583
10.1863	6.35379
10.1663	6.33455
10.1464	6.3633
10.1266	6.45131
10.1069	6.42259
10.0872	6.48008
10.0676	6.56732
10.0481	6.60951
10.0287	6.6721
10.0093	6.79469
9.99005	6.90982
9.97084	6.96046
9.95169	6.95816
9.93263	6.98428
9.91364	7.07191
9.89472	7.27198
9.87587	7.34291
9.8571	7.459
9.83839	7.48085
9.81976	7.4509
9.80119	7.54344
9.78271	7.6355
9.76428	7.66982
9.74592	7.78341
9.72764	7.91787
9.70943	8.06404
9.69128	8.20809
9.6732	8.3354
9.65518	8.49887
9.63724	8.64905
9.61935	8.75732
9.60155	8.89689
9.5838	9.00683
9.56611	9.1673
9.5485	9.44126
9.53094	9.63259
9.51345	9.89744
9.49604	10.2893
9.47867	10.8516
9.46137	11.4376
9.44414	11.9456
9.42697	12.5926
9.40986	13.3582
9.39281	14.3571
9.37583	15.4065
9.35891	16.3178
9.34204	17.2289
9.32524	17.9356
9.3085	18.4322
9.29182	18.8585
9.27519	19.1516
9.25863	19.4102
9.24213	19.6089
9.22568	19.7158
9.2093	19.7607
9.19297	19.7984
9.17669	19.7749
9.16048	19.6749
9.14433	19.7568
9.12823	19.8484
9.11218	19.9324
9.0962	20.0166
9.08027	19.9483
9.06439	19.9281
9.04858	19.9655
9.03281	19.9717
9.0171	19.9672
9.00145	19.9584
8.98585	19.9198
8.9703	19.9116
8.9548	19.7949
8.93937	19.6667
8.92398	19.6592
8.90865	19.6541
8.89337	19.5392
8.87814	19.3782
8.86296	19.109
8.84784	19.0056
8.83277	18.9666
8.81774	18.6914
8.80277	18.4494
8.78786	18.2569
8.77298	18.0085
8.75816	17.8473
8.7434	17.6344
8.72868	17.367
8.714	17.0765
8.69938	16.8337
8.68481	16.363
8.67029	15.5941
8.65581	14.5969
8.64139	13.5516
8.62701	13.2197
8.61268	13.8431
8.5984	14.8682
8.58416	15.8238
8.56997	16.507
8.55583	17.0274
8.54174	17.309
8.52769	17.3738
8.51368	17.5009
8.49973	17.6708
8.48582	17.7403
8.47195	17.6558
8.45813	17.6023
8.44436	17.8436
8.43062	17.9638
8.41693	17.9639
8.4033	17.9713
8.3897	17.912
8.37614	17.9224
8.36264	17.9458
8.34917	17.9373
8.33574	17.9009
8.32236	17.836
8.30903	17.8606
8.29573	17.8778
8.28248	17.8477
8.26927	17.7559
8.2561	17.7252
8.24298	17.7427
8.2299	17.7223
8.21685	17.557
8.20385	17.3178
8.19089	17.1248
8.17797	16.8832
8.16509	16.4025
8.15225	15.7526
8.13946	15.0749
8.1267	14.3799
8.11398	13.8
8.10131	13.203
8.08867	12.5305
8.07606	11.9728
8.0635	11.4769
8.05099	10.9563
8.0385	10.5451
8.02606	10.1502
8.01366	9.77605
8.00129	9.43596
7.98896	9.06319
7.97667	8.70497
7.96442	8.35268
7.9522	8.11147
7.94002	7.93651
7.92788	7.64368
7.91578	7.39925
7.90371	7.18887
7.89168	6.93722
7.87969	6.67787
7.86773	6.45728
7.85581	6.37008
7.84392	6.30642
7.83207	6.26816
7.82026	6.20174
7.80849	6.14591
7.79674	6.1058
7.78503	6.05751
7.77337	6.04606
7.76173	6.01443
7.75012	5.90514
7.73856	5.83379
7.72703	5.84936
7.71553	5.79656
7.70406	5.76194
7.69263	5.80733
7.68123	5.80192
7.66987	5.80699
7.65855	5.84535
7.64725	5.79182
7.63598	5.78197
7.62475	5.80455
7.61356	5.80575
7.60239	5.84996
7.59126	5.82372
7.58017	5.75565
7.5691	5.81492
7.55806	5.95266
7.54707	5.99934
7.5361	6.01665
7.52516	6.09491
7.51425	6.15075
7.50338	6.15221
7.49253	6.11662
7.48172	6.09573
7.47094	6.14834
7.46019	6.1276
7.44947	6.15316
7.43879	6.23183
7.42813	6.35707
7.4175	6.46135
7.4069	6.62047
7.39634	6.82757
7.3858	6.97137
7.37529	7.03749
7.36482	7.14643
7.35437	7.25872
7.34396	7.38191
7.33357	7.49507
7.32321	7.6401
7.31288	7.76563
7.30258	7.85801
7.29231	8.04919
7.28207	8.35626
7.27185	8.62869
7.26167	8.86025
7.25152	9.13244
7.24139	9.43559
7.23129	9.7203
7.22122	10.0987
7.21117	10.6035
7.20116	11.1999
7.19117	11.8319
7.18121	12.4175
7.17128	12.9075
7.16137	13.3343
7.1515	13.6695
7.14164	13.8665
7.13182	14.0344
7.12203	14.1776
7.11225	14.2768
7.10251	14.3357
7.0928	14.4248
7.08311	14.5527
7.07344	14.5909
7.06381	14.6258
7.0542	14.7026
7.04461	14.7569
7.03506	14.7819
7.02552	14.8232
7.01601	14.8411
7.00653	14.8985
6.99708	14.9604
6.98765	14.988
6.97824	15.0228
6.96886	15.0577
6.95951	15.1546
6.95018	15.1713
6.94087	15.2531
6.9316	15.3678
6.92234	15.4703
6.91311	15.6287
6.90391	15.7168
6.89473	15.7795
6.88557	15.8882
6.87644	16.0355
6.86733	16.238
6.85824	16.313
6.84918	16.3445
6.84015	16.4895
6.83114	16.6366
6.82215	16.7953
6.81319	16.9685
6.80424	17.1848
6.79532	17.4481
6.78643	17.7034
6.77756	17.8932
6.76871	18.1025
6.75989	18.3325
6.75109	18.6494
6.74231	18.9918
6.73355	19.4738
6.72482	20.0623
6.71611	20.6255
6.70742	21.1119
6.69875	21.4379
6.69011	21.858
6.68149	22.349
6.67289	22.7017
6.66431	22.9883
6.65576	23.2855
6.64722	23.6634
6.63871	24.0746
6.63022	24.2608
6.62175	24.3557
6.61331	24.4934
6.60488	24.6183
6.59648	24.8148
6.5881	25.0096
6.57974	25.1314
6.5714	25.2612
6.56308	25.2766
6.55478	25.2735
6.54651	25.3361
6.53825	25.3361
6.53001	25.3526
6.5218	25.4506
6.51361	25.3516
6.50544	25.3655
6.49729	25.5675
6.48915	25.5353
6.48104	25.233
6.47295	24.8445
6.46488	24.4392
6.45683	23.9956
6.4488	23.2936
6.44079	22.3628
6.4328	21.1937
6.42482	19.6845
6.41687	17.7598
6.40894	15.2554
6.40103	12.7782
6.39314	10.6804
6.38526	8.99597
6.37741	7.75325
6.36957	6.60187
6.36176	5.46518
6.35396	4.64585
6.34618	4.0766
6.33843	3.40585
6.33069	2.81712
6.32297	2.43691
6.31527	2.1842
6.30758	1.83745
6.29992	1.5783
6.29227	1.37894
6.28465	1.17517
6.27704	1.07064
6.26945	0.992821
6.26188	0.863314
6.25432	0.815472
6.24679	0.910565
6.23927	0.862478
6.23177	0.705786
6.22429	0.644065
6.21683	0.733022
6.20938	0.730521
6.20195	0.522789
6.19454	0.544645
6.18715	0.680388
6.17978	0.617724
6.17242	0.520111
6.16508	0.573865
6.15776	0.65163
6.15045	0.619153
6.14317	0.624555
6.1359	0.557315
6.12864	0.544246
6.12141	0.623659
6.11419	0.614514
6.10699	0.61123
6.0998	0.638568
6.09263	0.648625
6.08549	0.658864
6.07835	0.62676
6.07123	0.596771
6.06413	0.633269
6.05705	0.677551
6.04998	0.71934
6.04293	0.70845
6.0359	0.679162
6.02888	0.688029
6.02187	0.737132
6.01489	0.788817
6.00792	0.831934
6.00096	0.870363
5.99403	0.909794
5.98711	0.93079
5.9802	0.912427
5.97331	0.897869
5.96644	0.846142
5.95958	0.771547
5.95274	0.819846
5.94591	0.824453
5.9391	0.797239
5.9323	0.862721
5.92552	0.897821
5.91876	0.843492
5.91201	0.859572
5.90528	0.869652
5.89856	0.913726
5.89186	0.8997
5.88517	0.894133
5.8785	0.979589
5.87184	1.03527
5.8652	0.977861
5.85857	0.930823
5.85196	0.980759
5.84536	1.05432
5.83878	1.07907
5.83221	1.06572
5.82566	1.08667
5.81912	1.20283
5.81259	1.20639
5.80608	1.22911
5.79959	1.24535
5.79311	1.33671
5.78665	1.42863
5.78019	1.40354
5.77376	1.41344
5.76734	1.43288
5.76093	1.42803
5.75453	1.46755
5.74815	1.47614
5.74179	1.48923
5.73543	1.51996
5.7291	1.52762
5.72277	1.60669
5.71646	1.70002
5.71017	1.57066
5.70389	1.53516
5.69762	1.6025
5.69136	1.58791
5.68513	1.55796
5.6789	1.50815
5.67268	1.47674
5.66648	1.449
5.6603	1.48115
5.65413	1.49092
5.64797	1.42487
5.64182	1.41129
5.63569	1.41674
5.62957	1.42392
5.62347	1.42914
5.61737	1.44998
5.61129	1.45521
5.60522	1.4109
5.59917	1.42464
5.59313	1.48406
5.5871	1.41351
5.58109	1.34687
5.57509	1.37411
5.5691	1.44879
5.56312	1.48667
5.55716	1.43928
5.55121	1.36071
5.54528	1.34495
5.53935	1.32313
5.53344	1.36492
5.52754	1.43127
5.52166	1.43478
5.51578	1.40902
5.50992	1.42634
5.50407	1.43779
5.49823	1.39498
5.49241	1.41832
5.4866	1.42335
5.4808	1.43083
5.47501	1.46651
5.46923	1.50907
5.46347	1.51062
5.45772	1.55348
5.45198	1.61252
5.44625	1.69581
5.44054	1.79328
5.43484	1.86829
5.42914	1.96311
5.42347	2.03117
5.4178	2.02523
5.41214	2.15147
5.4065	2.41133
5.40087	2.54314
5.39525	2.67014
5.38964	2.80407
5.38404	2.88512
5.37846	3.00687
5.37288	3.17927
5.36732	3.31623
5.36177	3.45242
5.35623	3.64077
5.35071	3.78387
5.34519	3.88161
5.33968	4.02603
5.33419	4.17108
5.32871	4.32459
5.32324	4.50665
5.31778	4.66983
5.31233	4.78346
5.30689	4.86161
5.30147	4.98702
5.29605	5.1921
5.29065	5.32631
5.28525	5.39846
5.27987	5.46634
5.2745	5.55377
5.26914	5.73886
5.26379	5.88995
5.25845	6.02686
5.25312	6.11378
5.24781	6.22379
5.2425	6.38081
5.23721	6.50396
5.23192	6.68436
5.22665	6.78429
5.22138	6.85221
5.21613	6.99722
5.21089	7.11636
5.20566	7.18735
5.20044	7.28794
5.19522	7.38406
5.19002	7.43061
5.18483	7.49659
5.17965	7.46665
5.17448	7.40654
5.16933	7.34305
5.16418	7.31538
5.15904	7.24588
5.15391	7.106
5.14879	6.92098
5.14368	6.76907
5.13859	6.632
5.1335	6.60834
5.12842	6.68094
5.12335	6.72344
5.1183	6.82724
5.11325	7.05305
5.10821	7.3315
5.10318	7.48299
5.09817	7.64225
5.09316	7.79971
5.08816	7.85149
5.08317	7.90644
5.07819	7.86548
5.07322	7.92466
5.06826	8.03711
5.06331	8.02065
5.05837	8.04203
5.05344	8.13415
5.04852	8.20441
5.04361	8.249
5.03871	8.25955
5.03382	8.30834
5.02894	8.34971
5.02406	8.38356
5.0192	8.3414
5.01435	8.32353
5.0095	8.45871
5.00467	8.49738
4.99984	8.54479
4.99502	8.65173
4.99021	8.69725
4.98542	8.6741
4.98063	8.71317
4.97585	8.83085
4.97108	8.94724
4.96632	9.04509
4.96156	9.16481
4.95682	9.31129
4.95209	9.44469
4.94736	9.60088
4.94264	9.62928
4.93794	9.65006
4.93324	9.7229
4.92855	9.88626
4.92387	10.1052
4.9192	10.3011
4.91453	10.4498
4.90988	10.6154
4.90524	10.9444
4.9006	11.2638
4.89597	11.629
4.89135	12.0875
4.88674	12.5594
4.88214	13.0048
4.87755	13.3158
4.87296	13.5758
4.86839	13.9235
4.86382	14.3063
4.85926	14.6373
4.85471	14.8604
4.85017	15.0731
4.84564	15.2831
4.84111	15.4047
4.8366	15.5263
4.83209	15.6971
4.82759	15.8593
4.8231	15.9756
4.81862	16.126
4.81415	16.1994
4.80968	16.2348
4.80522	16.3188
4.80077	16.3364
4.79633	16.3305
4.7919	16.432
4.78747	16.5064
4.78306	16.5512
4.77865	16.5429
4.77425	16.4875
4.76986	16.4737
4.76547	16.4547
4.7611	16.3324
4.75673	16.1933
4.75237	16.0906
4.74802	16.0818
4.74367	16.0038
4.73934	15.8068
4.73501	15.5025
4.73069	15.1864
4.72638	14.9215
4.72207	14.6376
4.71777	14.3578
4.71348	14.0473
4.7092	13.6978
4.70493	13.2261
4.70066	12.6093
4.69641	12.1152
4.69216	11.6683
4.68791	11.2725
4.68368	10.9068
4.67945	10.6031
4.67523	10.4927
4.67102	10.3978
4.66682	10.3376
4.66262	10.2878
4.65843	10.2479
4.65425	10.238
4.65007	10.2095
4.64591	10.2309
4.64175	10.4022
4.6376	10.5713
4.63345	10.7332
4.62932	10.9481
4.62519	11.1743
4.62106	11.2394
4.61695	11.3616
4.61284	11.5883
4.60874	11.8496
4.60465	12.071
4.60056	12.2024
4.59648	12.412
4.59241	12.5813
4.58835	12.6586
4.58429	12.8172
4.58024	13.0329
4.5762	13.2222
4.57216	13.2823
4.56814	13.3563
4.56411	13.5329
4.5601	13.6009
4.55609	13.6425
4.55209	13.5987
4.5481	13.462
4.54411	13.4188
4.54013	13.4237
4.53616	13.3712
4.5322	13.2794
4.52824	13.0461
4.52429	12.8205
4.52034	12.7066
4.51641	12.5382
4.51247	12.3515
4.50855	12.2029
4.50463	12.1209
4.50072	11.9875
4.49682	11.8137
4.49292	11.7219
4.48903	11.703
4.48515	11.6173
4.48127	11.4851
4.4774	11.3754
4.47354	11.3393
4.46968	11.3099
4.46584	11.3569
4.46199	11.4744
4.45815	11.501
4.45432	11.62
4.4505	11.7133
4.44668	11.8077
4.44287	11.8196
4.43907	11.8404
4.43527	11.9938
4.43148	12.0984
4.4277	12.1429
4.42392	12.196
4.42015	12.2809
4.41638	12.4035
4.41262	12.4898
4.40887	12.5145
4.40513	12.6244
4.40139	12.7251
4.39765	12.7557
4.39393	12.8608
4.39021	13.0148
4.38649	13.0855
4.38278	13.1202
4.37908	13.3323
4.37539	13.5482
4.3717	13.6183
4.36801	13.6678
4.36434	13.7372
4.36067	13.7244
4.357	13.7661
4.35335	13.7418
4.34969	13.732
4.34605	13.7361
4.34241	13.7148
4.33877	13.6143
4.33514	13.5337
4.33152	13.4339
4.32791	13.2371
4.3243	13.0288
4.32069	12.7973
4.3171	12.5804
4.31351	12.344
4.30992	12.0729
4.30634	11.9138
4.30277	11.7248
4.2992	11.5175
4.29564	11.2055
4.29208	10.8702
4.28853	10.7296
4.28499	10.5142
4.28145	10.2194
4.27792	10.0064
4.27439	9.86835
4.27087	9.69555
4.26735	9.625
4.26384	9.67038
4.26034	9.88254
4.25684	10.1898
4.25335	10.4417
4.24986	10.6343
4.24638	10.7928
4.24291	10.9594
4.23944	11.068
4.23598	11.0917
4.23252	11.1444
4.22906	11.2692
4.22562	11.4458
4.22218	11.5675
4.21874	11.6003
4.21531	11.6344
4.21189	11.6007
4.20847	11.5803
4.20506	11.5947
4.20165	11.5867
4.19825	11.558
4.19485	11.5316
4.19146	11.4782
4.18807	11.4317
4.18469	11.4358
4.18132	11.3378
4.17795	11.3077
4.17458	11.3147
4.17123	11.2353
4.16787	11.221
4.16453	11.1506
4.16118	11.1297
4.15785	11.1106
4.15451	10.9905
4.15119	10.936
4.14787	10.8995
4.14455	10.7786
4.14124	10.6774
4.13794	10.5982
4.13464	10.5002
4.13134	10.4679
4.12805	10.3891
4.12477	10.3133
4.12149	10.182
4.11822	10.0354
4.11495	9.9004
4.11168	9.79676
4.10843	9.78593
4.10517	9.71235
4.10192	9.56117
4.09868	9.42019
4.09545	9.26005
4.09221	9.09074
4.08899	8.9716
4.08576	8.82353
4.08255	8.62272
4.07933	8.45897
4.07613	8.33493
4.07292	8.20167
4.06973	8.07525
4.06654	7.97024
4.06335	7.87244
4.06017	7.73853
4.05699	7.54853
4.05382	7.45053
4.05065	7.35654
4.04749	7.24278
4.04433	7.08452
4.04118	6.91497
4.03803	6.86696
4.03489	6.82888
4.03175	6.77318
4.02862	6.64271
4.02549	6.50405
4.02237	6.59428
4.01925	6.64278
4.01614	6.49117
4.01303	6.29636
4.00993	6.16651
4.00683	6.14348
4.00373	6.20545
4.00064	6.27561
3.99756	6.30661
3.99448	6.31869
3.9914	6.32065
3.98833	6.24589
3.98527	6.21803
3.98221	6.25428
3.97915	6.2653
3.9761	6.16057
3.97305	6.17492
3.97001	6.27657
3.96697	6.3014
3.96394	6.35385
3.96091	6.39034
3.95789	6.41109
3.95487	6.50696
3.95186	6.58898
3.94885	6.61643
3.94584	6.64066
3.94284	6.66615
3.93984	6.70774
3.93685	6.76264
3.93386	6.77069
3.93088	6.79608
3.9279	6.91379
3.92493	6.98706
3.92196	6.90883
3.919	6.86215
3.91604	6.80453
3.91308	6.80082
3.91013	6.91247
3.90718	6.8793
3.90424	6.91505
3.9013	7.03042
3.89837	7.09361
3.89544	7.15178
3.89252	7.15087
3.8896	7.11393
3.88668	7.14801
3.88377	7.17127
3.88086	7.15661
3.87796	7.14397
3.87506	7.1616
3.87217	7.22156
3.86928	7.32193
3.86639	7.28484
3.86351	7.10925
3.86064	7.16791
3.85776	7.19095
3.8549	7.18184
3.85203	7.24608
3.84917	7.32527
3.84631	7.30736
3.84346	7.35983
3.84062	7.45154
3.83777	7.47059
3.83494	7.51656
3.8321	7.54464
3.82927	7.60648
3.82644	7.70333
3.82362	7.76078
3.82081	7.75132
3.81799	7.82804
3.81518	7.96459
3.81238	8.13292
3.80958	8.27846
3.80678	8.33345
3.80399	8.35724
3.8012	8.40124
3.79841	8.6211
3.79563	8.92098
3.79286	9.05699
3.79008	9.18792
3.78731	9.44805
3.78455	9.71304
3.78179	9.96804
3.77903	10.3398
3.77628	10.6441
3.77353	10.9218
3.77079	11.2391
3.76805	11.5039
3.76531	11.7014
3.76258	11.8934
3.75985	12.0624
3.75713	12.1691
3.7544	12.3069
3.75169	12.4631
3.74898	12.5705
3.74627	12.6438
3.74356	12.6711
3.74086	12.7534
3.73816	12.8931
3.73547	12.9659
3.73278	13.0227
3.7301	13.0997
3.72741	13.1691
3.72474	13.2227
3.72206	13.2335
3.71939	13.286
3.71673	13.2782
3.71406	13.2738
3.71141	13.3114
3.70875	13.4306
3.7061	13.6052
3.70345	13.6251
3.70081	13.5939
3.69817	13.6165
3.69553	13.5404
3.6929	13.5103
3.69027	13.5916
3.68765	13.5348
3.68503	13.4011
3.68241	13.41
3.6798	13.416
3.67719	13.3656
3.67458	13.4223
3.67198	13.4849
3.66938	13.4294
3.66678	13.3132
3.66419	13.3054
3.66161	13.3734
3.65902	13.3743
3.65644	13.3352
3.65387	13.3185
3.65129	13.2162
3.64872	13.1215
3.64616	13.0954
3.64359	13.0658
3.64103	13.0185
3.63848	12.9492
3.63593	12.8551
3.63338	12.7542
3.63084	12.7778
3.6283	12.7716
3.62576	12.6596
3.62322	12.4966
3.62069	12.3505
3.61817	12.3009
3.61564	12.2304
3.61312	12.1301
3.61061	12.0489
3.6081	12.0452
3.60559	12.0401
3.60308	11.8398
3.60058	11.7496
3.59808	11.717
3.59558	11.6071
3.59309	11.4626
3.59061	11.322
3.58812	11.256
3.58564	11.1896
3.58316	11.0721
3.58069	10.9467
3.57822	10.8325
3.57575	10.6207
3.57328	10.4917
3.57082	10.452
3.56836	10.4166
3.56591	10.348
3.56346	10.3016
3.56101	10.1939
3.55857	9.93216
3.55613	9.66591
3.55369	9.62754
3.55126	9.59577
3.54883	9.46844
3.5464	9.42616
3.54397	9.36028
3.54155	9.20415
3.53914	9.09812
3.53672	8.9346
3.53431	8.78821
3.5319	8.7863
3.5295	8.77203
3.5271	8.63126
3.5247	8.47619
3.52231	8.33991
3.51991	8.33066
3.51753	8.38074
3.51514	8.25297
3.51276	8.14114
3.51038	8.17821
3.50801	8.23486
3.50563	8.1936
3.50327	8.06996
3.5009	8.08045
3.49854	8.12504
3.49618	8.07457
3.49382	8.06735
3.49147	8.02235
3.48912	8.01656
3.48677	7.99486
3.48443	7.98889
3.48209	8.0226
3.47975	8.02881
3.47742	8.00889
3.47509	7.98886
3.47276	8.02416
3.47044	8.05041
3.46812	8.02564
3.4658	7.94508
