Name: Sulphur S
Type: Mineral
Class: Elements
Subclass: 
Particle Size: 125-500um
Sample No.: E-2A
Owner: JPL
Wavelength range: IR
Origin: 
Collected by JPL
Description: 





Measurement: Hemispherical reflectance
First Column: X
Second Column: Y
X Units:  Wavelength (micrometers)
Y Units:  Reflectance (percent)
First X Value: 15.3853
Last X Value: 2.00032
Number of X Values: 2256
Additional information: e02aa.txt
 
15.3853	18.5404
15.3397	17.1237
15.2945	16.3136
15.2495	15.6865
15.2048	15.4518
15.1603	15.9686
15.1161	16.9927
15.0722	18.2092
15.0285	19.3279
14.9851	20.3743
14.9419	21.8809
14.8989	23.8007
14.8563	25.4554
14.8138	26.1178
14.7716	25.9023
14.7296	25.0904
14.6879	24.3897
14.6464	24.1014
14.6052	24.5587
14.5641	26.5931
14.5233	30.0407
14.4828	34.2873
14.4424	37.8226
14.4023	39.7678
14.3624	40.1509
14.3227	39.5498
14.2833	38.122
14.244	35.9436
14.205	33.6011
14.1662	31.7281
14.1276	30.522
14.0892	29.8036
14.051	29.337
14.0131	29.6065
13.9753	30.919
13.9377	33.2111
13.9004	36.5055
13.8632	40.3998
13.8262	44.2145
13.7895	47.4476
13.7529	49.8022
13.7165	51.3101
13.6803	52.2126
13.6443	52.8705
13.6085	53.4148
13.5729	53.9737
13.5374	54.6941
13.5022	55.3653
13.4671	56.1848
13.4322	57.0406
13.3975	57.7507
13.363	58.5602
13.3286	59.4149
13.2944	60.1325
13.2604	60.7553
13.2266	61.2972
13.193	61.7373
13.1595	62.1951
13.1262	62.4933
13.093	62.6815
13.06	62.7708
13.0272	62.7399
12.9946	62.6461
12.9621	62.4341
12.9298	62.0664
12.8976	61.5636
12.8656	60.8258
12.8337	59.9295
12.8021	58.8403
12.7705	57.5536
12.7391	56.1788
12.7079	54.7496
12.6769	53.3159
12.6459	51.8524
12.6152	50.3093
12.5845	48.8072
12.5541	47.4613
12.5238	46.0541
12.4936	44.6327
12.4635	43.204
12.4337	41.6825
12.4039	39.8298
12.3743	37.6407
12.3448	35.3635
12.3155	32.9663
12.2863	30.2889
12.2573	27.5276
12.2284	24.8647
12.1996	22.4403
12.171	20.1415
12.1425	17.9482
12.1141	16.1883
12.0859	14.5961
12.0578	13.1031
12.0298	11.8193
12.0019	10.8082
11.9742	9.98622
11.9466	9.29307
11.9192	8.69654
11.8918	8.23183
11.8646	7.85382
11.8375	7.57944
11.8106	7.47257
11.7837	7.71304
11.757	8.63921
11.7304	10.3204
11.7039	12.7437
11.6776	15.1377
11.6513	16.8212
11.6252	17.8923
11.5992	18.4454
11.5733	18.7523
11.5475	19.1802
11.5219	19.6565
11.4963	20.2625
11.4709	21.0135
11.4455	21.8878
11.4203	23.0362
11.3952	24.6436
11.3702	26.6103
11.3454	28.7472
11.3206	30.9425
11.2959	33.1431
11.2714	35.3945
11.2469	37.2832
11.2226	38.4262
11.1983	38.8421
11.1742	38.5739
11.1502	37.7501
11.1263	36.6201
11.1024	35.5498
11.0787	34.8926
11.0551	34.9714
11.0316	36.2985
11.0081	39.108
10.9848	42.7356
10.9616	46.1477
10.9385	48.762
10.9154	50.2334
10.8925	50.5889
10.8697	50.0108
10.8469	48.4308
10.8243	45.9967
10.8017	42.9735
10.7793	39.6087
10.7569	36.2075
10.7346	33.1563
10.7125	30.9787
10.6904	29.7535
10.6684	29.3342
10.6465	30.114
10.6247	32.5195
10.6029	36.4948
10.5813	41.3065
10.5597	46.2847
10.5383	50.6945
10.5169	54.1118
10.4956	56.6705
10.4744	58.5521
10.4533	60.1313
10.4323	61.4958
10.4113	62.6548
10.3904	63.6392
10.3697	64.5255
10.349	65.1735
10.3284	65.593
10.3078	65.9173
10.2874	66.0723
10.267	66.122
10.2467	66.0045
10.2265	65.7931
10.2064	65.5815
10.1863	65.354
10.1663	65.3784
10.1464	65.6312
10.1266	65.7734
10.1069	66.0476
10.0872	66.5731
10.0676	67.2118
10.0481	68.0554
10.0287	68.9956
10.0093	69.8447
9.99005	70.6088
9.97084	71.1783
9.95169	71.5188
9.93263	71.6756
9.91364	71.798
9.89472	71.9127
9.87587	72.0007
9.8571	71.9227
9.83839	71.8019
9.81976	71.7628
9.80119	71.7685
9.78271	71.7491
9.76428	71.8819
9.74592	71.9921
9.72764	71.9962
9.70943	71.9868
9.69128	72.0045
9.6732	71.7997
9.65518	71.4744
9.63724	71.1821
9.61935	70.839
9.60155	70.3981
9.5838	70.0685
9.56611	69.7399
9.5485	69.4697
9.53094	69.3133
9.51345	69.1949
9.49604	69.2021
9.47867	69.2688
9.46137	69.4454
9.44414	69.7444
9.42697	70.1642
9.40986	70.8745
9.39281	71.7115
9.37583	72.5347
9.35891	73.1666
9.34204	73.5669
9.32524	73.8457
9.3085	73.8374
9.29182	73.6911
9.27519	73.5675
9.25863	73.4334
9.24213	73.2595
9.22568	72.9962
9.2093	72.9161
9.19297	73.0056
9.17669	73.0956
9.16048	73.2744
9.14433	73.4847
9.12823	73.7344
9.11218	73.9356
9.0962	74.1027
9.08027	74.2356
9.06439	74.1463
9.04858	74.0019
9.03281	73.8573
9.0171	73.5916
9.00145	73.2587
8.98585	72.8152
8.9703	72.388
8.9548	72.1104
8.93937	71.8675
8.92398	71.7517
8.90865	71.6434
8.89337	71.6772
8.87814	71.7314
8.86296	71.7577
8.84784	71.9376
8.83277	72.2638
8.81774	72.5424
8.80277	72.7791
8.78786	72.9745
8.77298	73.2703
8.75816	73.6584
8.7434	74.1366
8.72868	74.5666
8.714	75.085
8.69938	75.586
8.68481	76.112
8.67029	76.6563
8.65581	77.2005
8.64139	77.6381
8.62701	78.0705
8.61268	78.5185
8.5984	78.8869
8.58416	79.0148
8.56997	79.0578
8.55583	79.2092
8.54174	79.352
8.52769	79.4143
8.51368	79.5155
8.49973	79.6535
8.48582	79.7919
8.47195	79.8634
8.45813	80.0563
8.44436	80.3938
8.43062	80.6645
8.41693	80.9173
8.4033	81.128
8.3897	81.3706
8.37614	81.5774
8.36264	81.6646
8.34917	81.7247
8.33574	81.753
8.32236	81.7536
8.30903	81.7579
8.29573	81.9096
8.28248	81.9973
8.26927	82.0393
8.2561	82.093
8.24298	82.0813
8.2299	81.9513
8.21685	81.8896
8.20385	81.818
8.19089	81.722
8.17797	81.4754
8.16509	81.1271
8.15225	80.7994
8.13946	80.4355
8.1267	80.0506
8.11398	79.6224
8.10131	78.9913
8.08867	78.3515
8.07606	77.7456
8.0635	77.0099
8.05099	76.1499
8.0385	75.2029
8.02606	74.2189
8.01366	73.1969
8.00129	72.0321
7.98896	70.7969
7.97667	69.5332
7.96442	68.1624
7.9522	66.726
7.94002	65.2512
7.92788	63.6958
7.91578	62.0258
7.90371	60.2795
7.89168	58.4202
7.87969	56.4405
7.86773	54.5157
7.85581	52.5609
7.84392	50.6884
7.83207	48.9791
7.82026	47.3768
7.80849	45.8617
7.79674	44.5293
7.78503	43.5124
7.77337	42.6423
7.76173	41.8287
7.75012	41.1264
7.73856	40.6288
7.72703	40.2752
7.71553	39.8514
7.70406	39.3788
7.69263	39.116
7.68123	39.0482
7.66987	39.1298
7.65855	39.3467
7.64725	39.755
7.63598	40.4336
7.62475	41.4044
7.61356	42.533
7.60239	43.8785
7.59126	45.4882
7.58017	47.3255
7.5691	49.2312
7.55806	51.0303
7.54707	52.5506
7.5361	53.7644
7.52516	54.6631
7.51425	55.4311
7.50338	56.1089
7.49253	56.7977
7.48172	57.6593
7.47094	58.6767
7.46019	59.6582
7.44947	60.5284
7.43879	61.5875
7.42813	62.8185
7.4175	64.0087
7.4069	65.0127
7.39634	65.7498
7.3858	66.3236
7.37529	66.7011
7.36482	66.8135
7.35437	66.9267
7.34396	67.1026
7.33357	67.0511
7.32321	66.7674
7.31288	66.9311
7.30258	67.4527
7.29231	68.2467
7.28207	69.4608
7.27185	70.596
7.26167	71.6537
7.25152	73.0608
7.24139	74.4647
7.23129	75.7493
7.22122	76.8351
7.21117	77.9237
7.20116	78.1844
7.19117	77.9589
7.18121	78.1356
7.17128	78.4718
7.16137	78.0328
7.1515	77.73
7.14164	77.3077
7.13182	76.7502
7.12203	76.8321
7.11225	76.992
7.10251	77.2003
7.0928	77.9302
7.08311	78.835
7.07344	79.6314
7.06381	80.4487
7.0542	81.7989
7.04461	82.7659
7.03506	82.0657
7.02552	81.7369
7.01601	81.6023
7.00653	81.3272
6.99708	81.3436
6.98765	81.1355
6.97824	80.8091
6.96886	81.2881
6.95951	81.9496
6.95018	80.9292
6.94087	80.3202
6.9316	80.2044
6.92234	80.189
6.91311	80.4239
6.90391	80.5809
6.89473	80.2395
6.88557	80.2321
6.87644	80.7574
6.86733	82.4792
6.85824	82.4148
6.84918	80.8047
6.84015	80.1992
6.83114	80.7481
6.82215	80.8572
6.81319	80.3291
6.80424	80.6422
6.79532	82.0806
6.78643	82.6326
6.77756	81.9599
6.76871	81.4895
6.75989	81.2559
6.75109	81.4153
6.74231	81.3553
6.73355	81.5941
6.72482	82.2241
6.71611	82.7668
6.70742	82.7072
6.69875	82.0832
6.69011	82.5962
6.68149	83.5426
6.67289	83.3069
6.66431	82.7692
6.65576	82.628
6.64722	84.0949
6.63871	86.2272
6.63022	85.3998
6.62175	83.8887
6.61331	83.6576
6.60488	83.7009
6.59648	84.3636
6.5881	84.7405
6.57974	85.4686
6.5714	86.4544
6.56308	85.922
6.55478	86.0597
6.54651	86.1401
6.53825	86.134
6.53001	86.6432
6.5218	87.6734
6.51361	87.5045
6.50544	88.1875
6.49729	90.6921
6.48915	91.1747
6.48104	89.8923
6.47295	89.1739
6.46488	88.5505
6.45683	88.499
6.4488	88.7325
6.44079	89.1211
6.4328	89.8894
6.42482	90.866
6.41687	93.2512
6.40894	92.5843
6.40103	89.9873
6.39314	89.4621
6.38526	89.5398
6.37741	90.0167
6.36957	90.5391
6.36176	89.844
6.35396	90.0373
6.34618	91.4251
6.33843	90.7926
6.33069	89.6105
6.32297	89.4433
6.31527	89.3863
6.30758	89.5009
6.29992	89.5523
6.29227	89.6089
6.28465	89.5737
6.27704	89.6931
6.26945	89.766
6.26188	89.7914
6.25432	89.8195
6.24679	89.8929
6.23927	89.8906
6.23177	89.9272
6.22429	89.9775
6.21683	90.0696
6.20938	89.9863
6.20195	89.8091
6.19454	90.2788
6.18715	91.5612
6.17978	90.924
6.17242	89.8442
6.16508	90.2726
6.15776	90.5235
6.15045	90.0662
6.14317	89.999
6.1359	89.6691
6.12864	89.3529
6.12141	90.1779
6.11419	91.4832
6.10699	90.4204
6.0998	89.0757
6.09263	88.6939
6.08549	88.7633
6.07835	89.7848
6.07123	90.1552
6.06413	89.0329
6.05705	89.81
6.04998	92.3783
6.04293	90.4063
6.0359	87.9031
6.02888	87.3299
6.02187	87.5257
6.01489	87.9891
6.00792	87.5138
6.00096	87.2025
5.99403	88.0744
5.98711	88.3284
5.9802	87.6311
5.97331	87.8894
5.96644	87.9302
5.95958	86.9286
5.95274	86.9257
5.94591	87.5537
5.9391	89.3238
5.9323	88.6254
5.92552	86.8495
5.91876	86.4405
5.91201	86.1409
5.90528	86.4522
5.89856	88.0058
5.89186	87.8115
5.88517	88.315
5.8785	88.5021
5.87184	86.5407
5.8652	86.4545
5.85857	86.1881
5.85196	85.7858
5.84536	85.6631
5.83878	85.9849
5.83221	86.766
5.82566	87.9333
5.81912	87.9551
5.81259	86.5782
5.80608	86.0612
5.79959	86.0862
5.79311	86.0191
5.78665	86.1358
5.78019	86.3591
5.77376	87.1867
5.76734	88.6451
5.76093	87.4881
5.75453	86.4363
5.74815	86.8785
5.74179	86.533
5.73543	86.2576
5.7291	86.2281
5.72277	86.566
5.71646	86.9664
5.71017	87.1249
5.70389	86.3483
5.69762	86.1203
5.69136	86.3948
5.68513	86.2388
5.6789	86.5519
5.67268	86.5174
5.66648	86.0193
5.6603	86.2965
5.65413	86.6385
5.64797	87.1157
5.64182	87.7786
5.63569	87.0962
5.62957	86.4745
5.62347	86.4874
5.61737	86.7291
5.61129	86.7398
5.60522	86.8849
5.59917	86.9124
5.59313	86.7425
5.5871	87.1735
5.58109	87.9976
5.57509	87.821
5.5691	87.1975
5.56312	87.2934
5.55716	87.5672
5.55121	87.652
5.54528	87.5051
5.53935	87.5287
5.53344	87.666
5.52754	87.9907
5.52166	88.2677
5.51578	88.4311
5.50992	88.511
5.50407	88.8267
5.49823	89.0499
5.49241	89.2502
5.4866	89.4599
5.4808	89.9232
5.47501	89.9811
5.46923	90.2287
5.46347	90.5167
5.45772	90.1238
5.45198	89.9744
5.44625	90.1707
5.44054	90.3402
5.43484	90.4941
5.42914	90.9617
5.42347	91.8296
5.4178	91.6908
5.41214	91.275
5.4065	91.2574
5.40087	91.2834
5.39525	91.4271
5.38964	91.5304
5.38404	91.5698
5.37846	91.6
5.37288	91.6225
5.36732	91.6503
5.36177	91.7552
5.35623	92.1479
5.35071	92.4864
5.34519	92.1963
5.33968	91.9149
5.33419	91.9336
5.32871	91.9576
5.32324	91.9594
5.31778	92.0181
5.31233	92.0931
5.30689	92.1323
5.30147	92.152
5.29605	92.3021
5.29065	92.4134
5.28525	92.2596
5.27987	92.2889
5.2745	92.3316
5.26914	92.2563
5.26379	92.2422
5.25845	92.3028
5.25312	92.3248
5.24781	92.3393
5.2425	92.4027
5.23721	92.4431
5.23192	92.3235
5.22665	92.2759
5.22138	92.3695
5.21613	92.6991
5.21089	92.717
5.20566	92.5456
5.20044	92.5896
5.19522	92.485
5.19002	92.4002
5.18483	92.3781
5.17965	92.3539
5.17448	92.365
5.16933	92.3882
5.16418	92.4259
5.15904	92.4236
5.15391	92.4789
5.14879	92.6484
5.14368	92.6173
5.13859	92.5286
5.1335	92.4785
5.12842	92.3761
5.12335	92.3431
5.1183	92.4049
5.11325	92.5125
5.10821	92.5309
5.10318	92.5176
5.09817	92.4897
5.09316	92.4337
5.08816	92.4884
5.08317	92.5839
5.07819	92.5018
5.07322	92.4266
5.06826	92.441
5.06331	92.4996
5.05837	92.5215
5.05344	92.5172
5.04852	92.4758
5.04361	92.4821
5.03871	92.5339
5.03382	92.5036
5.02894	92.476
5.02406	92.5924
5.0192	92.719
5.01435	92.6294
5.0095	92.5788
5.00467	92.564
4.99984	92.5342
4.99502	92.5303
4.99021	92.5379
4.98542	92.556
4.98063	92.5359
4.97585	92.5208
4.97108	92.5761
4.96632	92.6184
4.96156	92.5924
4.95682	92.6198
4.95209	92.5941
4.94736	92.6038
4.94264	92.6253
4.93794	92.591
4.93324	92.587
4.92855	92.6211
4.92387	92.6138
4.9192	92.6354
4.91453	92.6386
4.90988	92.5961
4.90524	92.5914
4.9006	92.6055
4.89597	92.5544
4.89135	92.5357
4.88674	92.5632
4.88214	92.6133
4.87755	92.6285
4.87296	92.6149
4.86839	92.6119
4.86382	92.5493
4.85926	92.5172
4.85471	92.5664
4.85017	92.5808
4.84564	92.5795
4.84111	92.5937
4.8366	92.5458
4.83209	92.5547
4.82759	92.5471
4.8231	92.5269
4.81862	92.4922
4.81415	92.4315
4.80968	92.4424
4.80522	92.4415
4.80077	92.4315
4.79633	92.4454
4.7919	92.4388
4.78747	92.4377
4.78306	92.4451
4.77865	92.4211
4.77425	92.4079
4.76986	92.3784
4.76547	92.3346
4.7611	92.3733
4.75673	92.4024
4.75237	92.3854
4.74802	92.359
4.74367	92.3227
4.73934	92.3295
4.73501	92.308
4.73069	92.3136
4.72638	92.2758
4.72207	92.2425
4.71777	92.2192
4.71348	92.2216
4.7092	92.2287
4.70493	92.2163
4.70066	92.2029
4.69641	92.1986
4.69216	92.1755
4.68791	92.1443
4.68368	92.168
4.67945	92.2146
4.67523	92.1745
4.67102	92.1265
4.66682	92.1229
4.66262	92.1049
4.65843	92.115
4.65425	92.1474
4.65007	92.1916
4.64591	92.2242
4.64175	92.1883
4.6376	92.1285
4.63345	92.1417
4.62932	92.1737
4.62519	92.1383
4.62106	92.1485
4.61695	92.1525
4.61284	92.1378
4.60874	92.1599
4.60465	92.195
4.60056	92.2012
4.59648	92.2654
4.59241	92.2955
4.58835	92.2739
4.58429	92.2765
4.58024	92.3058
4.5762	92.3086
4.57216	92.2859
4.56814	92.2752
4.56411	92.3063
4.5601	92.2899
4.55609	92.3229
4.55209	92.3401
4.5481	92.2784
4.54411	92.2637
4.54013	92.3628
4.53616	92.3814
4.5322	92.3292
4.52824	92.2931
4.52429	92.3261
4.52034	92.3283
4.51641	92.3126
4.51247	92.3865
4.50855	92.445
4.50463	92.4504
4.50072	92.4221
4.49682	92.3766
4.49292	92.4479
4.48903	92.4763
4.48515	92.4326
4.48127	92.4258
4.4774	92.4215
4.47354	92.4127
4.46968	92.4339
4.46584	92.4072
4.46199	92.3622
4.45815	92.3958
4.45432	92.4426
4.4505	92.3871
4.44668	92.3485
4.44287	92.3917
4.43907	92.4278
4.43527	92.4341
4.43148	92.4124
4.4277	92.3813
4.42392	92.3952
4.42015	92.3878
4.41638	92.4208
4.41262	92.405
4.40887	92.4055
4.40513	92.4044
4.40139	92.4089
4.39765	92.4283
4.39393	92.4444
4.39021	92.4173
4.38649	92.4047
4.38278	92.4186
4.37908	92.4404
4.37539	92.4342
4.3717	92.4243
4.36801	92.3902
4.36434	92.3755
4.36067	92.3891
4.357	92.3668
4.35335	92.3699
4.34969	92.3473
4.34605	92.2999
4.34241	92.2969
4.33877	92.281
4.33514	92.2233
4.33152	92.2387
4.32791	92.2883
4.3243	92.2642
4.32069	92.2093
4.3171	92.1223
4.31351	92.0587
4.30992	92.0128
4.30634	91.9165
4.30277	91.8745
4.2992	91.8591
4.29564	91.8055
4.29208	91.7229
4.28853	91.6678
4.28499	91.6525
4.28145	91.6438
4.27792	91.5929
4.27439	91.5578
4.27087	91.5874
4.26735	91.7078
4.26384	91.9059
4.26034	92.0405
4.25684	92.0817
4.25335	91.9971
4.24986	91.892
4.24638	91.7246
4.24291	91.5323
4.23944	91.4316
4.23598	91.3931
4.23252	91.3203
4.22906	91.3146
4.22562	91.3949
4.22218	91.5316
4.21874	91.6846
4.21531	91.7594
4.21189	91.8309
4.20847	91.9647
4.20506	92.0965
4.20165	92.1391
4.19825	92.142
4.19485	92.1833
4.19146	92.1522
4.18807	92.095
4.18469	92.0896
4.18132	92.0706
4.17795	92.0473
4.17458	92.0666
4.17123	92.0847
4.16787	92.035
4.16453	92.0412
4.16118	92.0758
4.15785	92.0387
4.15451	91.9315
4.15119	91.8498
4.14787	91.8845
4.14455	91.909
4.14124	91.9058
4.13794	91.8925
4.13464	91.9266
4.13134	91.9013
4.12805	91.8498
4.12477	91.8267
4.12149	91.839
4.11822	91.7871
4.11495	91.7393
4.11168	91.7405
4.10843	91.7128
4.10517	91.7097
4.10192	91.6752
4.09868	91.5754
4.09545	91.5428
4.09221	91.5201
4.08899	91.4519
4.08576	91.3147
4.08255	91.1494
4.07933	90.9933
4.07613	90.814
4.07292	90.6155
4.06973	90.536
4.06654	90.4365
4.06335	90.2715
4.06017	90.1191
4.05699	90.1136
4.05382	90.0976
4.05065	89.9731
4.04749	89.7693
4.04433	89.7123
4.04118	89.5681
4.03803	89.3157
4.03489	89.0844
4.03175	88.6307
4.02862	88.3025
4.02549	88.4519
4.02237	88.5123
4.01925	88.3211
4.01614	88.1937
4.01303	88.0581
4.00993	88.5084
4.00683	88.9113
4.00373	88.8108
4.00064	88.7597
3.99756	89.4238
3.99448	90.1742
3.9914	90.418
3.98833	90.5394
3.98527	90.7494
3.98221	90.8473
3.97915	90.8104
3.9761	90.7487
3.97305	90.6578
3.97001	90.6036
3.96697	90.5436
3.96394	90.5243
3.96091	90.5383
3.95789	90.5278
3.95487	90.4608
3.95186	90.4105
3.94885	90.3468
3.94584	90.2939
3.94284	90.2543
3.93984	90.2595
3.93685	90.2011
3.93386	90.0838
3.93088	90.026
3.9279	89.9292
3.92493	89.8858
3.92196	89.8769
3.919	89.8072
3.91604	89.7536
3.91308	89.7178
3.91013	89.632
3.90718	89.5334
3.90424	89.4962
3.9013	89.464
3.89837	89.4577
3.89544	89.4145
3.89252	89.3286
3.8896	89.3433
3.88668	89.3119
3.88377	89.1607
3.88086	89.1074
3.87796	89.1567
3.87506	89.1534
3.87217	89.1153
3.86928	89.1339
3.86639	89.1681
3.86351	89.1929
3.86064	89.2254
3.85776	89.279
3.8549	89.3197
3.85203	89.386
3.84917	89.4925
3.84631	89.5734
3.84346	89.5865
3.84062	89.6448
3.83777	89.6825
3.83494	89.7006
3.8321	89.774
3.82927	89.9061
3.82644	89.9302
3.82362	89.9661
3.82081	90.0842
3.81799	90.1933
3.81518	90.2786
3.81238	90.2525
3.80958	90.2468
3.80678	90.2791
3.80399	90.3332
3.8012	90.4356
3.79841	90.4724
3.79563	90.4954
3.79286	90.5626
3.79008	90.6389
3.78731	90.6123
3.78455	90.6024
3.78179	90.6409
3.77903	90.7215
3.77628	90.7325
3.77353	90.7324
3.77079	90.7522
3.76805	90.7663
3.76531	90.787
3.76258	90.8279
3.75985	90.8858
3.75713	90.8414
3.7544	90.8436
3.75169	90.9098
3.74898	90.9493
3.74627	90.9664
3.74356	90.9579
3.74086	91.0127
3.73816	91.0647
3.73547	91.0662
3.73278	91.0404
3.7301	91.0338
3.72741	91.0217
3.72474	91.0652
3.72206	91.1192
3.71939	91.0828
3.71673	91.1624
3.71406	91.2262
3.71141	91.1988
3.70875	91.1891
3.7061	91.1887
3.70345	91.2178
3.70081	91.2282
3.69817	91.2149
3.69553	91.2236
3.6929	91.2122
3.69027	91.2282
3.68765	91.2703
3.68503	91.263
3.68241	91.2257
3.6798	91.2263
3.67719	91.2558
3.67458	91.2597
3.67198	91.2517
3.66938	91.2303
3.66678	91.2754
3.66419	91.3263
3.66161	91.3445
3.65902	91.3187
3.65644	91.2972
3.65387	91.3213
3.65129	91.3662
3.64872	91.39
3.64616	91.3668
3.64359	91.376
3.64103	91.4887
3.63848	91.535
3.63593	91.5119
3.63338	91.4729
3.63084	91.4206
3.6283	91.4
3.62576	91.3544
3.62322	91.3156
3.62069	91.3322
3.61817	91.4033
3.61564	91.4292
3.61312	91.3968
3.61061	91.3593
3.6081	91.3551
3.60559	91.3637
3.60308	91.3621
3.60058	91.3458
3.59808	91.3409
3.59558	91.3298
3.59309	91.3087
3.59061	91.3007
3.58812	91.3067
3.58564	91.2811
3.58316	91.2564
3.58069	91.3012
3.57822	91.3163
3.57575	91.3191
3.57328	91.3214
3.57082	91.2518
3.56836	91.1955
3.56591	91.1709
3.56346	91.1427
3.56101	91.1254
3.55857	91.0744
3.55613	91.0631
3.55369	91.1021
3.55126	91.1115
3.54883	91.0602
3.5464	91.0061
3.54397	91.0092
3.54155	91.0555
3.53914	91.0327
3.53672	91.0342
3.53431	90.9944
3.5319	90.8738
3.5295	90.7775
3.5271	90.7008
3.5247	90.624
3.52231	90.495
3.51991	90.2879
3.51753	90.0683
3.51514	89.7961
3.51276	89.5397
3.51038	89.2835
3.50801	89.0039
3.50563	88.8653
3.50327	88.7739
3.5009	88.7809
3.49854	88.9521
3.49618	89.0718
3.49382	89.072
3.49147	89.1352
3.48912	89.2384
3.48677	89.2678
3.48443	89.2941
3.48209	89.2422
3.47975	89.1563
3.47742	89.1046
3.47509	89.0931
3.47276	89.1313
3.47044	89.1693
3.46812	89.1967
3.4658	89.1885
3.46348	89.1215
3.46117	89.1267
3.45886	89.0701
