Name: Grossular Garnet Ca_3Al_2(SiO_4)_3
Type: Mineral
Class: Silicates
Subclass: Nesosilicates
Particle Size: 45-125um
Sample No.: NS-3B
Owner: JPL
Wavelength range: VNIR-SWIR
Origin: Mexico, Lake Jaco.
Collected by:  David New
Description: 





Measurement: Hemispherical reflectance
First Column: X
Second Column: Y
X Units: Wavelength (micrometers)
Y Units: Reflectance (percent)
First X Value: 2.500
Last X Value: 0.400
Number of X Values: 2101
Additional information: ns03ba.txt

2.500  73.051403
2.499  73.026692
2.498  72.981642
2.497  73.443185
2.496  73.103147
2.495  73.152745
2.494  73.234825
2.493  73.332157
2.492  73.432441
2.491  73.169639
2.490  73.203205
2.489  73.220333
2.488  73.410531
2.487  73.249269
2.486  73.448920
2.485  73.469439
2.484  73.445468
2.483  73.481773
2.482  73.527252
2.481  73.439179
2.480  73.683491
2.479  73.585930
2.478  73.546456
2.477  73.701807
2.476  73.581531
2.475  73.670435
2.474  73.752714
2.473  73.717642
2.472  73.695506
2.471  73.751407
2.470  73.880684
2.469  73.944245
2.468  73.946435
2.467  73.899102
2.466  73.944638
2.465  74.023923
2.464  74.086392
2.463  74.183256
2.462  74.155746
2.461  74.101935
2.460  74.227813
2.459  74.138301
2.458  74.234266
2.457  74.281651
2.456  74.366294
2.455  74.336120
2.454  74.409901
2.453  74.397781
2.452  74.374285
2.451  74.362270
2.450  74.458261
2.449  74.369597
2.448  74.367991
2.447  74.402363
2.446  74.552644
2.445  74.544711
2.444  74.739129
2.443  74.691516
2.442  74.655961
2.441  74.590510
2.440  74.608586
2.439  74.605983
2.438  74.728189
2.437  74.737334
2.436  74.720771
2.435  74.698653
2.434  74.858323
2.433  74.778159
2.432  74.753334
2.431  74.803038
2.430  74.813109
2.429  74.816069
2.428  74.879933
2.427  74.896481
2.426  74.956298
2.425  74.881778
2.424  74.992434
2.423  75.090674
2.422  75.086263
2.421  75.082332
2.420  75.112117
2.419  75.100169
2.418  75.085715
2.417  75.167351
2.416  75.238439
2.415  75.162916
2.414  75.213485
2.413  75.274993
2.412  75.243555
2.411  75.188571
2.410  75.255585
2.409  75.303566
2.408  75.343630
2.407  75.428435
2.406  75.523655
2.405  75.443399
2.404  75.406875
2.403  75.457457
2.402  75.449700
2.401  75.484985
2.400  75.479468
2.399  75.485792
2.398  75.485119
2.397  75.539089
2.396  75.620260
2.395  75.641183
2.394  75.681208
2.393  75.703966
2.392  75.733764
2.391  75.707993
2.390  75.765452
2.389  75.809655
2.388  75.842925
2.387  75.862506
2.386  75.775332
2.385  75.766507
2.384  75.865592
2.383  75.914532
2.382  75.943942
2.381  76.013066
2.380  76.049947
2.379  76.001764
2.378  75.928588
2.377  75.985820
2.376  76.052257
2.375  76.037095
2.374  76.095886
2.373  76.140192
2.372  76.144674
2.371  76.102557
2.370  76.074898
2.369  76.130113
2.368  76.194839
2.367  76.195262
2.366  76.251278
2.365  76.242978
2.364  76.251743
2.363  76.314420
2.362  76.291141
2.361  76.292920
2.360  76.311262
2.359  76.350652
2.358  76.376069
2.357  76.377685
2.356  76.437846
2.355  76.504553
2.354  76.485108
2.353  76.467370
2.352  76.462974
2.351  76.540786
2.350  76.580441
2.349  76.587501
2.348  76.589828
2.347  76.664482
2.346  76.760582
2.345  76.744923
2.344  76.747678
2.343  76.811601
2.342  76.832472
2.341  76.833820
2.340  76.819374
2.339  76.810152
2.338  76.856669
2.337  76.908186
2.336  76.944169
2.335  76.939120
2.334  76.931611
2.333  76.968080
2.332  77.001351
2.331  77.026275
2.330  77.037384
2.329  77.070051
2.328  77.077004
2.327  77.121251
2.326  77.074852
2.325  77.083056
2.324  77.150630
2.323  77.187092
2.322  77.148121
2.321  77.140779
2.320  77.187209
2.319  77.237393
2.318  77.254842
2.317  77.240613
2.316  77.332101
2.315  77.336827
2.314  77.277265
2.313  77.297489
2.312  77.296401
2.311  77.354151
2.310  77.386692
2.309  77.395061
2.308  77.408858
2.307  77.415679
2.306  77.438951
2.305  77.421592
2.304  77.419142
2.303  77.521849
2.302  77.537683
2.301  77.485518
2.300  77.530223
2.299  77.644533
2.298  77.557544
2.297  77.523577
2.296  77.569601
2.295  77.627044
2.294  77.582419
2.293  77.647532
2.292  77.717117
2.291  77.696337
2.290  77.615696
2.289  77.687882
2.288  77.668445
2.287  77.698842
2.286  77.691565
2.285  77.717602
2.284  77.694786
2.283  77.760226
2.282  77.697648
2.281  77.694658
2.280  77.719034
2.279  77.770933
2.278  77.736224
2.277  77.783634
2.276  77.801498
2.275  77.831703
2.274  77.822949
2.273  77.805494
2.272  77.810701
2.271  77.853181
2.270  77.955266
2.269  77.819357
2.268  77.872119
2.267  77.899203
2.266  77.920723
2.265  77.921643
2.264  77.939365
2.263  77.965214
2.262  77.932274
2.261  77.971761
2.260  78.040352
2.259  78.044601
2.258  78.039256
2.257  78.063785
2.256  78.037918
2.255  78.052612
2.254  78.121525
2.253  78.139568
2.252  78.177322
2.251  78.180595
2.250  78.156965
2.249  78.191943
2.248  78.239433
2.247  78.235421
2.246  78.322652
2.245  78.274440
2.244  78.262957
2.243  78.303395
2.242  78.289271
2.241  78.337347
2.240  78.370357
2.239  78.494320
2.238  78.472741
2.237  78.470189
2.236  78.463983
2.235  78.462260
2.234  78.470926
2.233  78.530167
2.232  78.450194
2.231  78.499098
2.230  78.584809
2.229  78.569537
2.228  78.549365
2.227  78.640647
2.226  78.762129
2.225  78.743574
2.224  78.666294
2.223  78.794366
2.222  78.852890
2.221  78.867756
2.220  78.779150
2.219  78.794301
2.218  78.845325
2.217  78.983276
2.216  78.967734
2.215  79.054765
2.214  78.994154
2.213  79.065939
2.212  78.987919
2.211  79.088752
2.210  79.140402
2.209  79.098488
2.208  79.158734
2.207  79.208683
2.206  79.301211
2.205  79.195825
2.204  79.388741
2.203  79.371415
2.202  79.390858
2.201  79.475357
2.200  79.519368
2.199  79.559325
2.198  79.532223
2.197  79.620288
2.196  79.525073
2.195  79.629686
2.194  79.608681
2.193  79.593004
2.192  79.648541
2.191  79.699811
2.190  79.741168
2.189  79.760749
2.188  79.814087
2.187  79.850222
2.186  79.891838
2.185  79.913757
2.184  79.929519
2.183  80.036593
2.182  80.063545
2.181  80.132028
2.180  80.108382
2.179  80.181776
2.178  80.210510
2.177  80.266625
2.176  80.315199
2.175  80.405200
2.174  80.360376
2.173  80.377200
2.172  80.470080
2.171  80.562459
2.170  80.588303
2.169  80.652389
2.168  80.678973
2.167  80.707906
2.166  80.806761
2.165  80.863309
2.164  80.899406
2.163  81.006640
2.162  81.026815
2.161  81.044992
2.160  81.119634
2.159  81.194957
2.158  81.200522
2.157  81.287719
2.156  81.296324
2.155  81.325412
2.154  81.362700
2.153  81.420949
2.152  81.452595
2.151  81.502593
2.150  81.536338
2.149  81.596280
2.148  81.549918
2.147  81.606366
2.146  81.619157
2.145  81.660405
2.144  81.616753
2.143  81.646713
2.142  81.679704
2.141  81.632908
2.140  81.749304
2.139  81.726008
2.138  81.745976
2.137  81.777187
2.136  81.709831
2.135  81.712345
2.134  81.796917
2.133  81.787468
2.132  81.742625
2.131  81.714998
2.130  81.777873
2.129  81.705870
2.128  81.697015
2.127  81.682914
2.126  81.681845
2.125  81.659851
2.124  81.656390
2.123  81.633431
2.122  81.610616
2.121  81.619235
2.120  81.568836
2.119  81.557779
2.118  81.496881
2.117  81.462894
2.116  81.453407
2.115  81.440110
2.114  81.407607
2.113  81.397851
2.112  81.380450
2.111  81.281972
2.110  81.245404
2.109  81.240119
2.108  81.211376
2.107  81.174876
2.106  81.078100
2.105  81.079565
2.104  81.117230
2.103  81.121217
2.102  81.043228
2.101  81.023025
2.100  80.989061
2.099  80.999126
2.098  81.035122
2.097  81.107653
2.096  81.125681
2.095  81.125383
2.094  81.156896
2.093  81.157075
2.092  81.184030
2.091  81.219791
2.090  81.203481
2.089  81.249088
2.088  81.321587
2.087  81.321471
2.086  81.373014
2.085  81.406727
2.084  81.447517
2.083  81.405901
2.082  81.418970
2.081  81.504783
2.080  81.541300
2.079  81.576169
2.078  81.587032
2.077  81.561918
2.076  81.538095
2.075  81.511044
2.074  81.556890
2.073  81.620014
2.072  81.656385
2.071  81.697431
2.070  81.706046
2.069  81.758048
2.068  81.825493
2.067  81.836608
2.066  81.826547
2.065  81.822181
2.064  81.870413
2.063  81.933391
2.062  81.935761
2.061  81.908708
2.060  81.920035
2.059  81.961562
2.058  81.971220
2.057  82.010971
2.056  82.067448
2.055  82.120892
2.054  82.142734
2.053  82.098978
2.052  82.057076
2.051  82.066376
2.050  82.161751
2.049  82.245232
2.048  82.221754
2.047  82.221473
2.046  82.263377
2.045  82.279106
2.044  82.264641
2.043  82.278777
2.042  82.239167
2.041  82.251595
2.040  82.361327
2.039  82.325823
2.038  82.341311
2.037  82.402783
2.036  82.434527
2.035  82.480990
2.034  82.452342
2.033  82.414176
2.032  82.418173
2.031  82.409132
2.030  82.443610
2.029  82.486629
2.028  82.544728
2.027  82.571249
2.026  82.569975
2.025  82.577983
2.024  82.561068
2.023  82.527018
2.022  82.542624
2.021  82.568995
2.020  82.529111
2.019  82.503599
2.018  82.546771
2.017  82.520473
2.016  82.605763
2.015  82.624721
2.014  82.577499
2.013  82.639666
2.012  82.672759
2.011  82.623247
2.010  82.596272
2.009  82.555670
2.008  82.653148
2.007  82.646361
2.006  82.572764
2.005  82.582261
2.004  82.699961
2.003  82.726529
2.002  82.734127
2.001  82.640252
2.000  82.688077
1.999  82.732416
1.998  82.655537
1.997  82.701461
1.996  82.627518
1.995  82.651599
1.994  82.677980
1.993  82.654733
1.992  82.608708
1.991  82.608922
1.990  82.656932
1.989  82.597942
1.988  82.677568
1.987  82.512049
1.986  82.579999
1.985  82.602712
1.984  82.632656
1.983  82.572711
1.982  82.499949
1.981  82.547459
1.980  82.485917
1.979  82.511771
1.978  82.410935
1.977  82.544660
1.976  82.669470
1.975  82.596591
1.974  82.533628
1.973  82.505693
1.972  82.611864
1.971  82.608650
1.970  82.567630
1.969  82.558947
1.968  82.518523
1.967  82.542220
1.966  82.575101
1.965  82.489364
1.964  82.559215
1.963  82.540915
1.962  82.550125
1.961  82.457876
1.960  82.523527
1.959  82.543125
1.958  82.563080
1.957  82.578860
1.956  82.576271
1.955  82.520604
1.954  82.615537
1.953  82.502729
1.952  82.586071
1.951  82.636614
1.950  82.610239
1.949  82.624398
1.948  82.729003
1.947  82.737911
1.946  82.589196
1.945  82.667601
1.944  82.658425
1.943  82.657653
1.942  82.727404
1.941  82.621448
1.940  82.687989
1.939  82.623626
1.938  82.653859
1.937  82.667326
1.936  82.715662
1.935  82.625140
1.934  82.735465
1.933  82.719795
1.932  82.766446
1.931  82.790478
1.930  82.838878
1.929  82.709021
1.928  82.693160
1.927  82.824854
1.926  82.764426
1.925  82.770237
1.924  82.806133
1.923  82.745246
1.922  82.887605
1.921  82.821349
1.920  82.844482
1.919  82.829852
1.918  82.919680
1.917  82.980689
1.916  82.916903
1.915  82.969081
1.914  82.908365
1.913  82.950757
1.912  83.010966
1.911  83.040802
1.910  83.010577
1.909  83.108507
1.908  83.090628
1.907  83.162434
1.906  83.141728
1.905  83.265602
1.904  83.300694
1.903  83.370475
1.902  83.457877
1.901  83.426453
1.900  83.488679
1.899  83.614070
1.898  83.690956
1.897  83.700386
1.896  83.793033
1.895  83.838727
1.894  83.889603
1.893  83.933110
1.892  83.934169
1.891  83.958985
1.890  84.087871
1.889  84.141174
1.888  84.245744
1.887  84.241122
1.886  84.313400
1.885  84.316960
1.884  84.249535
1.883  84.302043
1.882  84.354285
1.881  84.351821
1.880  84.484527
1.879  84.461233
1.878  84.490871
1.877  84.471917
1.876  84.519583
1.875  84.543953
1.874  84.662814
1.873  84.652069
1.872  84.585849
1.871  84.662961
1.870  84.637567
1.869  84.688550
1.868  84.693405
1.867  84.693385
1.866  84.741343
1.865  84.800389
1.864  84.752046
1.863  84.758094
1.862  84.874306
1.861  84.771898
1.860  84.785729
1.859  84.845528
1.858  84.852227
1.857  84.874788
1.856  84.928212
1.855  84.885432
1.854  84.970951
1.853  84.860127
1.852  84.891102
1.851  84.950580
1.850  85.018529
1.849  85.057951
1.848  85.068624
1.847  85.045943
1.846  85.057070
1.845  85.058320
1.844  85.016650
1.843  85.079123
1.842  85.125045
1.841  85.111071
1.840  85.139839
1.839  85.155856
1.838  85.181896
1.837  85.150916
1.836  85.140270
1.835  85.166735
1.834  85.159882
1.833  85.208261
1.832  85.275757
1.831  85.224493
1.830  85.212827
1.829  85.229584
1.828  85.233743
1.827  85.280500
1.826  85.336443
1.825  85.286730
1.824  85.277613
1.823  85.305442
1.822  85.358848
1.821  85.269683
1.820  85.341733
1.819  85.357661
1.818  85.365397
1.817  85.402137
1.816  85.427947
1.815  85.448658
1.814  85.459687
1.813  85.401955
1.812  85.364599
1.811  85.385992
1.810  85.437281
1.809  85.468066
1.808  85.484633
1.807  85.506486
1.806  85.511477
1.805  85.504296
1.804  85.549117
1.803  85.626778
1.802  85.653153
1.801  85.597410
1.800  85.577452
1.799  85.586935
1.798  85.622454
1.797  85.632226
1.796  85.613638
1.795  85.586890
1.794  85.608752
1.793  85.620553
1.792  85.600723
1.791  85.627931
1.790  85.620974
1.789  85.604521
1.788  85.620613
1.787  85.676326
1.786  85.655792
1.785  85.632718
1.784  85.623858
1.783  85.610386
1.782  85.637449
1.781  85.633661
1.780  85.665973
1.779  85.713340
1.778  85.705471
1.777  85.675351
1.776  85.645886
1.775  85.638870
1.774  85.659843
1.773  85.702045
1.772  85.719785
1.771  85.740273
1.770  85.737315
1.769  85.695822
1.768  85.674335
1.767  85.751601
1.766  85.770760
1.765  85.747776
1.764  85.757099
1.763  85.756260
1.762  85.737387
1.761  85.750315
1.760  85.763373
1.759  85.761483
1.758  85.791129
1.757  85.842183
1.756  85.871850
1.755  85.894030
1.754  85.851639
1.753  85.816945
1.752  85.795471
1.751  85.818157
1.750  85.833662
1.749  85.901123
1.748  85.892635
1.747  85.847474
1.746  85.871618
1.745  85.938500
1.744  85.954794
1.743  85.958519
1.742  85.883294
1.741  85.976531
1.740  86.059753
1.739  86.078439
1.738  86.052879
1.737  85.979703
1.736  85.976543
1.735  86.087915
1.734  86.062994
1.733  86.027852
1.732  86.051198
1.731  86.139741
1.730  86.145000
1.729  86.109006
1.728  86.107518
1.727  86.153063
1.726  86.144538
1.725  86.156363
1.724  86.133968
1.723  86.158594
1.722  86.103700
1.721  86.143746
1.720  86.213527
1.719  86.250982
1.718  86.195066
1.717  86.228633
1.716  86.211034
1.715  86.204331
1.714  86.221486
1.713  86.275406
1.712  86.250394
1.711  86.246224
1.710  86.248550
1.709  86.329743
1.708  86.309172
1.707  86.322265
1.706  86.305697
1.705  86.288721
1.704  86.262176
1.703  86.279169
1.702  86.302583
1.701  86.244395
1.700  86.293530
1.699  86.286436
1.698  86.272948
1.697  86.353018
1.696  86.309746
1.695  86.277328
1.694  86.296785
1.693  86.298452
1.692  86.339795
1.691  86.324578
1.690  86.330243
1.689  86.345092
1.688  86.311642
1.687  86.273445
1.686  86.426348
1.685  86.311304
1.684  86.327863
1.683  86.399567
1.682  86.446581
1.681  86.419117
1.680  86.411464
1.679  86.465899
1.678  86.397062
1.677  86.429634
1.676  86.361269
1.675  86.467491
1.674  86.417488
1.673  86.389232
1.672  86.361284
1.671  86.472419
1.670  86.411034
1.669  86.411752
1.668  86.486263
1.667  86.427640
1.666  86.438498
1.665  86.402022
1.664  86.426869
1.663  86.494971
1.662  86.506489
1.661  86.518697
1.660  86.506171
1.659  86.449671
1.658  86.475004
1.657  86.571188
1.656  86.538734
1.655  86.527848
1.654  86.470070
1.653  86.590298
1.652  86.491823
1.651  86.518254
1.650  86.523575
1.649  86.590042
1.648  86.467908
1.647  86.557333
1.646  86.545755
1.645  86.587254
1.644  86.553771
1.643  86.580856
1.642  86.545033
1.641  86.560954
1.640  86.528774
1.639  86.637434
1.638  86.606694
1.637  86.534279
1.636  86.650102
1.635  86.654449
1.634  86.693587
1.633  86.620397
1.632  86.607769
1.631  86.705554
1.630  86.637263
1.629  86.591831
1.628  86.600781
1.627  86.672825
1.626  86.631759
1.625  86.703665
1.624  86.725096
1.623  86.646460
1.622  86.712825
1.621  86.725910
1.620  86.657771
1.619  86.648375
1.618  86.721362
1.617  86.608375
1.616  86.665866
1.615  86.685046
1.614  86.710619
1.613  86.774360
1.612  86.687546
1.611  86.744893
1.610  86.720811
1.609  86.817550
1.608  86.833889
1.607  86.774531
1.606  86.777603
1.605  86.732945
1.604  86.760421
1.603  86.768478
1.602  86.740253
1.601  86.774705
1.600  86.788702
1.599  86.809113
1.598  86.709156
1.597  86.745410
1.596  86.739276
1.595  86.760286
1.594  86.770804
1.593  86.730714
1.592  86.834665
1.591  86.813650
1.590  86.838581
1.589  86.796931
1.588  86.778807
1.587  86.795286
1.586  86.745698
1.585  86.817787
1.584  86.793550
1.583  86.729350
1.582  86.737259
1.581  86.772227
1.580  86.754901
1.579  86.726300
1.578  86.780390
1.577  86.779405
1.576  86.808478
1.575  86.779219
1.574  86.778289
1.573  86.818911
1.572  86.776506
1.571  86.791308
1.570  86.812989
1.569  86.822936
1.568  86.794262
1.567  86.792809
1.566  86.796224
1.565  86.830755
1.564  86.812868
1.563  86.845498
1.562  86.807093
1.561  86.809998
1.560  86.756130
1.559  86.765520
1.558  86.786362
1.557  86.718087
1.556  86.734501
1.555  86.788043
1.554  86.803865
1.553  86.778573
1.552  86.829342
1.551  86.783768
1.550  86.764216
1.549  86.754175
1.548  86.771132
1.547  86.714373
1.546  86.793428
1.545  86.820419
1.544  86.782350
1.543  86.768405
1.542  86.747317
1.541  86.825650
1.540  86.802623
1.539  86.778346
1.538  86.818687
1.537  86.779798
1.536  86.768194
1.535  86.785317
1.534  86.765287
1.533  86.729823
1.532  86.733879
1.531  86.740854
1.530  86.751803
1.529  86.817060
1.528  86.821325
1.527  86.810611
1.526  86.788850
1.525  86.801299
1.524  86.807529
1.523  86.808616
1.522  86.791942
1.521  86.817886
1.520  86.828526
1.519  86.777779
1.518  86.774443
1.517  86.817785
1.516  86.805699
1.515  86.786452
1.514  86.747967
1.513  86.772722
1.512  86.799865
1.511  86.813913
1.510  86.752917
1.509  86.737627
1.508  87.148731
1.507  87.178481
1.506  86.755453
1.505  86.743190
1.504  86.707815
1.503  86.728352
1.502  86.786557
1.501  86.797249
1.500  86.775717
1.499  86.832748
1.498  86.812185
1.497  86.737105
1.496  86.729086
1.495  86.727069
1.494  86.741267
1.493  86.752569
1.492  86.796720
1.491  86.799004
1.490  86.770565
1.489  86.791278
1.488  86.804968
1.487  86.751709
1.486  86.670759
1.485  86.710388
1.484  86.730786
1.483  86.753745
1.482  86.766631
1.481  86.739218
1.480  86.745103
1.479  86.701657
1.478  86.751893
1.477  86.809562
1.476  86.739916
1.475  86.748792
1.474  86.762057
1.473  86.747527
1.472  86.706969
1.471  86.686340
1.470  86.637577
1.469  86.631706
1.468  86.704122
1.467  86.786082
1.466  86.744543
1.465  86.687147
1.464  86.700315
1.463  86.703182
1.462  86.692130
1.461  86.701552
1.460  86.703673
1.459  86.666476
1.458  86.694078
1.457  86.689642
1.456  86.734764
1.455  86.780517
1.454  86.706473
1.453  86.702766
1.452  86.686485
1.451  86.734290
1.450  86.707900
1.449  86.696662
1.448  86.701022
1.447  86.676555
1.446  86.711487
1.445  86.706574
1.444  86.684730
1.443  86.632803
1.442  86.683865
1.441  86.667126
1.440  86.671122
1.439  86.676929
1.438  86.664492
1.437  86.704590
1.436  86.646110
1.435  86.670376
1.434  86.626964
1.433  86.600714
1.432  86.617528
1.431  86.617658
1.430  86.611711
1.429  86.603173
1.428  86.613574
1.427  86.601066
1.426  86.614431
1.425  86.541351
1.424  86.522006
1.423  86.542148
1.422  86.461043
1.421  86.489317
1.420  86.525389
1.419  86.457466
