Name: Labradorite (Feldspar) (NaSi,CaAl)AlSi_2O_8
Type: Mineral
Class: Silicates
Subclass: Tectosilicates
Particle Size: 45-125um
Sample No.: TS-2A
Owner: JPL
Wavelength range: IR
Origin: Mexico, Sonora, Pinacate
Collected by Burminco
Description:   





Measurement: Hemispherical reflectance
First Column: X
Second Column: Y
X Units:  Wavelength (micrometers)
Y Units:  Reflectance (percent)
First X Value: 15.3853
Last X Value: 2.00032
Number of X Values: 2256
Additional information: ts02aa.txt
 
15.3853	3.39283
15.3397	2.79275
15.2945	2.54143
15.2495	2.16698
15.2048	1.75072
15.1603	2.0365
15.1161	2.3007
15.0722	2.15396
15.0285	2.08238
14.9851	2.24652
14.9419	2.42837
14.8989	2.54862
14.8563	2.7517
14.8138	2.65373
14.7716	2.38046
14.7296	2.36428
14.6879	2.43795
14.6464	2.50805
14.6052	2.62661
14.5641	2.5577
14.5233	2.45989
14.4828	2.40625
14.4424	2.39081
14.4023	2.43253
14.3624	2.57129
14.3227	2.74092
14.2833	2.811
14.244	2.73408
14.205	2.903
14.1662	2.69415
14.1276	2.45819
14.0892	2.71357
14.051	2.86101
14.0131	2.88657
13.9753	2.8738
13.9377	2.84575
13.9004	2.89368
13.8632	2.87235
13.8262	2.87176
13.7895	3.04014
13.7529	3.18672
13.7165	3.09166
13.6803	2.99273
13.6443	3.05646
13.6085	3.16731
13.5729	3.36843
13.5374	3.32392
13.5022	3.21459
13.4671	3.1156
13.4322	2.94327
13.3975	2.98837
13.363	3.14141
13.3286	3.08889
13.2944	2.90559
13.2604	2.84345
13.2266	2.97846
13.193	3.1017
13.1595	3.09161
13.1262	3.19476
13.093	3.18042
13.06	3.24562
13.0272	3.2282
12.9946	3.1507
12.9621	2.96454
12.9298	2.96483
12.8976	2.87823
12.8656	3.00489
12.8337	3.19201
12.8021	2.9592
12.7705	2.76314
12.7391	2.78243
12.7079	2.83081
12.6769	2.82301
12.6459	2.8084
12.6152	2.76983
12.5845	2.96077
12.5541	3.16587
12.5238	3.10075
12.4936	3.164
12.4635	3.22537
12.4337	3.35612
12.4039	3.51911
12.3743	3.56786
12.3448	3.65018
12.3155	4.02636
12.2863	4.29319
12.2573	4.3715
12.2284	4.4693
12.1996	4.46385
12.171	4.43109
12.1425	4.63821
12.1141	4.91532
12.0859	4.79491
12.0578	4.67659
12.0298	4.75486
12.0019	4.82923
11.9742	4.96065
11.9466	5.11211
11.9192	5.14459
11.8918	5.09383
11.8646	5.14675
11.8375	5.29199
11.8106	5.29548
11.7837	5.36817
11.757	5.38914
11.7304	5.31149
11.7039	5.48543
11.6776	5.6075
11.6513	5.53003
11.6252	5.39562
11.5992	5.4641
11.5733	5.72172
11.5475	5.70023
11.5219	5.60277
11.4963	5.74431
11.4709	6.0481
11.4455	6.25691
11.4203	6.32654
11.3952	6.41855
11.3702	6.56037
11.3454	6.74743
11.3206	6.95987
11.2959	7.18548
11.2714	7.39158
11.2469	7.5807
11.2226	7.81669
11.1983	8.05622
11.1742	8.10781
11.1502	8.26784
11.1263	8.57587
11.1024	8.90297
11.0787	9.06828
11.0551	9.18888
11.0316	9.38883
11.0081	9.52207
10.9848	9.69525
10.9616	9.91676
10.9385	10.2371
10.9154	10.4506
10.8925	10.5709
10.8697	10.6888
10.8469	10.7635
10.8243	10.9066
10.8017	10.9574
10.7793	10.966
10.7569	11.1549
10.7346	11.4695
10.7125	11.4948
10.6904	11.4408
10.6684	11.5301
10.6465	11.6083
10.6247	11.6709
10.6029	11.7175
10.5813	11.7954
10.5597	11.7865
10.5383	11.8234
10.5169	11.848
10.4956	11.8145
10.4744	11.7703
10.4533	11.8009
10.4323	11.7128
10.4113	11.5852
10.3904	11.5406
10.3697	11.4506
10.349	11.3184
10.3284	11.3084
10.3078	11.3119
10.2874	11.2807
10.267	11.2702
10.2467	11.246
10.2265	11.2162
10.2064	11.1859
10.1863	11.3354
10.1663	11.41
10.1464	11.4054
10.1266	11.4032
10.1069	11.3148
10.0872	11.2562
10.0676	11.2608
10.0481	11.3038
10.0287	11.3655
10.0093	11.2691
9.99005	11.2164
9.97084	11.147
9.95169	11.0559
9.93263	10.858
9.91364	10.7331
9.89472	10.6604
9.87587	10.6084
9.8571	10.4897
9.83839	10.2839
9.81976	10.2258
9.80119	10.0435
9.78271	9.90757
9.76428	9.84199
9.74592	9.61437
9.72764	9.38596
9.70943	9.31834
9.69128	9.15723
9.6732	8.85271
9.65518	8.71575
9.63724	8.77956
9.61935	8.68831
9.60155	8.49982
9.5838	8.2995
9.56611	8.15866
9.5485	8.08506
9.53094	7.94342
9.51345	7.84162
9.49604	7.7646
9.47867	7.64776
9.46137	7.52173
9.44414	7.33964
9.42697	7.27154
9.40986	7.27514
9.39281	7.13044
9.37583	6.96786
9.35891	6.84429
9.34204	6.83544
9.32524	6.88562
9.3085	6.87258
9.29182	6.83431
9.27519	6.74517
9.25863	6.64402
9.24213	6.67551
9.22568	6.75826
9.2093	6.74112
9.19297	6.65318
9.17669	6.85814
9.16048	7.08383
9.14433	7.17316
9.12823	7.35755
9.11218	7.32963
9.0962	7.2661
9.08027	7.38557
9.06439	7.59375
9.04858	7.79501
9.03281	7.88333
9.0171	7.96304
9.00145	8.10019
8.98585	8.2099
8.9703	8.25879
8.9548	8.45734
8.93937	8.5792
8.92398	8.63982
8.90865	8.70528
8.89337	8.61863
8.87814	8.65091
8.86296	8.63728
8.84784	8.5728
8.83277	8.62572
8.81774	8.57632
8.80277	8.54927
8.78786	8.63599
8.77298	8.60257
8.75816	8.56284
8.7434	8.40307
8.72868	8.20331
8.714	8.08452
8.69938	8.13401
8.68481	8.18618
8.67029	8.10753
8.65581	8.03208
8.64139	7.95908
8.62701	7.90422
8.61268	7.8279
8.5984	7.73433
8.58416	7.51586
8.56997	7.40813
8.55583	7.49701
8.54174	7.47393
8.52769	7.41006
8.51368	7.44701
8.49973	7.31934
8.48582	7.11616
8.47195	7.03285
8.45813	7.05253
8.44436	6.89139
8.43062	6.73806
8.41693	6.50049
8.4033	6.24526
8.3897	6.10906
8.37614	6.05359
8.36264	5.75329
8.34917	5.30226
8.33574	4.98786
8.32236	4.65187
8.30903	4.15765
8.29573	3.69406
8.28248	3.2625
8.26927	2.86795
8.2561	2.43596
8.24298	2.00606
8.2299	1.80259
8.21685	1.66203
8.20385	1.43745
8.19089	1.15333
8.17797	0.909628
8.16509	0.604115
8.15225	0.40935
8.13946	0.379817
8.1267	0.326938
8.11398	0.291819
8.10131	0.173395
8.08867	0.177719
8.07606	0.191093
8.0635	0.10541
8.05099	0.0764351
8.0385	0.136213
8.02606	0.178513
8.01366	0.140837
8.00129	0.0780024
7.98896	0.05485
7.97667	0.114559
7.96442	0.152221
7.9522	0.191032
7.94002	0.125917
7.92788	0.0425697
7.91578	0.10298
7.90371	0.210466
7.89168	0.278489
7.87969	0.259573
7.86773	0.257765
7.85581	0.310274
7.84392	0.298844
7.83207	0.285819
7.82026	0.309725
7.80849	0.401405
7.79674	0.3677
7.78503	0.316366
7.77337	0.368854
7.76173	0.387661
7.75012	0.40211
7.73856	0.478153
7.72703	0.50851
7.71553	0.577374
7.70406	0.631643
7.69263	0.604878
7.68123	0.549418
7.66987	0.581339
7.65855	0.631914
7.64725	0.702818
7.63598	0.770521
7.62475	0.848114
7.61356	0.914323
7.60239	0.878917
7.59126	0.820679
7.58017	0.938847
7.5691	1.0708
7.55806	1.06282
7.54707	1.08084
7.5361	1.1036
7.52516	1.13652
7.51425	1.20576
7.50338	1.21868
7.49253	1.21237
7.48172	1.3221
7.47094	1.41938
7.46019	1.46871
7.44947	1.54092
7.43879	1.54411
7.42813	1.54552
7.4175	1.58905
7.4069	1.60985
7.39634	1.6499
7.3858	1.81626
7.37529	1.92761
7.36482	1.96276
7.35437	1.9211
7.34396	1.93568
7.33357	2.02573
7.32321	2.09503
7.31288	2.11535
7.30258	2.14196
7.29231	2.20366
7.28207	2.25104
7.27185	2.29357
7.26167	2.40267
7.25152	2.50418
7.24139	2.54348
7.23129	2.50755
7.22122	2.51883
7.21117	2.64914
7.20116	2.77449
7.19117	2.81628
7.18121	2.83367
7.17128	2.85706
7.16137	2.89619
7.1515	2.93911
7.14164	2.91951
7.13182	3.01322
7.12203	3.03627
7.11225	3.0197
7.10251	3.08873
7.0928	3.22754
7.08311	3.41046
7.07344	3.38303
7.06381	3.29699
7.0542	3.34594
7.04461	3.46819
7.03506	3.46972
7.02552	3.44444
7.01601	3.50384
7.00653	3.5623
6.99708	3.62472
6.98765	3.65739
6.97824	3.68959
6.96886	3.74926
6.95951	3.86991
6.95018	3.88613
6.94087	3.85938
6.9316	3.85912
6.92234	3.9367
6.91311	4.00501
6.90391	3.99395
6.89473	4.0131
6.88557	4.0671
6.87644	4.16839
6.86733	4.28457
6.85824	4.28036
6.84918	4.18968
6.84015	4.15287
6.83114	4.16028
6.82215	4.19944
6.81319	4.26289
6.80424	4.33398
6.79532	4.35614
6.78643	4.41118
6.77756	4.46383
6.76871	4.48874
6.75989	4.43474
6.75109	4.44865
6.74231	4.45018
6.73355	4.42573
6.72482	4.41841
6.71611	4.43943
6.70742	4.46295
6.69875	4.50117
6.69011	4.54909
6.68149	4.6289
6.67289	4.58249
6.66431	4.51574
6.65576	4.51142
6.64722	4.66824
6.63871	4.91877
6.63022	4.86894
6.62175	4.71325
6.61331	4.65443
6.60488	4.63994
6.59648	4.70594
6.5881	4.73169
6.57974	4.85994
6.5714	5.03625
6.56308	4.91714
6.55478	4.79676
6.54651	4.77543
6.53825	4.77875
6.53001	4.84651
6.5218	4.92594
6.51361	4.9017
6.50544	4.96402
6.49729	5.0971
6.48915	4.98901
6.48104	4.92773
6.47295	4.93623
6.46488	4.97093
6.45683	4.97906
6.4488	4.9684
6.44079	5.01487
6.4328	5.08611
6.42482	5.11801
6.41687	5.1997
6.40894	5.18245
6.40103	5.10178
6.39314	5.06022
6.38526	5.04077
6.37741	4.95224
6.36957	4.90695
6.36176	4.8403
6.35396	4.91093
6.34618	5.11537
6.33843	5.14305
6.33069	5.00121
6.32297	4.8841
6.31527	4.87983
6.30758	4.99787
6.29992	5.08498
6.29227	5.08821
6.28465	5.08554
6.27704	5.03182
6.26945	4.98955
6.26188	5.04156
6.25432	5.08816
6.24679	5.00274
6.23927	4.99818
6.23177	5.08736
6.22429	5.02579
6.21683	5.03873
6.20938	5.11442
6.20195	5.11133
6.19454	5.17482
6.18715	5.32096
6.17978	5.24634
6.17242	5.19272
6.16508	5.25976
6.15776	5.26163
6.15045	5.19424
6.14317	5.21824
6.1359	5.24345
6.12864	5.21298
6.12141	5.28116
6.11419	5.40747
6.10699	5.4363
6.0998	5.42666
6.09263	5.33465
6.08549	5.34629
6.07835	5.53432
6.07123	5.57971
6.06413	5.53141
6.05705	5.62042
6.04998	5.79633
6.04293	5.70193
6.0359	5.57999
6.02888	5.52827
6.02187	5.54551
6.01489	5.63178
6.00792	5.66256
6.00096	5.64517
5.99403	5.748
5.98711	5.70683
5.9802	5.63344
5.97331	5.75019
5.96644	5.77045
5.95958	5.74888
5.95274	5.82746
5.94591	5.89759
5.9391	6.14227
5.9323	6.18098
5.92552	6.01498
5.91876	6.05294
5.91201	6.07222
5.90528	6.13635
5.89856	6.36274
5.89186	6.42479
5.88517	6.50834
5.8785	6.5464
5.87184	6.41338
5.8652	6.40036
5.85857	6.49149
5.85196	6.63609
5.84536	6.72268
5.83878	6.84152
5.83221	6.94038
5.82566	7.05881
5.81912	7.1266
5.81259	7.09698
5.80608	7.09559
5.79959	7.1068
5.79311	7.11858
5.78665	7.17264
5.78019	7.3124
5.77376	7.52199
5.76734	7.68059
5.76093	7.53867
5.75453	7.52342
5.74815	7.70064
5.74179	7.69828
5.73543	7.68611
5.7291	7.77053
5.72277	7.82817
5.71646	7.92297
5.71017	8.0589
5.70389	8.054
5.69762	8.0002
5.69136	8.06523
5.68513	8.14208
5.6789	8.21208
5.67268	8.29745
5.66648	8.3335
5.6603	8.34543
5.65413	8.45104
5.64797	8.56602
5.64182	8.59899
5.63569	8.6473
5.62957	8.6277
5.62347	8.636
5.61737	8.72635
5.61129	8.76737
5.60522	8.84917
5.59917	8.93888
5.59313	8.98608
5.5871	9.04739
5.58109	9.21049
5.57509	9.27524
5.5691	9.25868
5.56312	9.30087
5.55716	9.36067
5.55121	9.42342
5.54528	9.51776
5.53935	9.59451
5.53344	9.62164
5.52754	9.69981
5.52166	9.8094
5.51578	9.87839
5.50992	9.87508
5.50407	9.94935
5.49823	9.99281
5.49241	10.06
5.4866	10.1612
5.4808	10.2334
5.47501	10.286
5.46923	10.4477
5.46347	10.5379
5.45772	10.5561
5.45198	10.6167
5.44625	10.6729
5.44054	10.7202
5.43484	10.7803
5.42914	10.9436
5.42347	11.1244
5.4178	11.173
5.41214	11.2021
5.4065	11.315
5.40087	11.4203
5.39525	11.5355
5.38964	11.6237
5.38404	11.6715
5.37846	11.7532
5.37288	11.8495
5.36732	11.9425
5.36177	12.095
5.35623	12.2771
5.35071	12.485
5.34519	12.5142
5.33968	12.542
5.33419	12.6725
5.32871	12.814
5.32324	12.9204
5.31778	13.0263
5.31233	13.1145
5.30689	13.1711
5.30147	13.3084
5.29605	13.4844
5.29065	13.6475
5.28525	13.7627
5.27987	13.8795
5.2745	13.9941
5.26914	14.0248
5.26379	14.1861
5.25845	14.4326
5.25312	14.5571
5.24781	14.6558
5.2425	14.7918
5.23721	14.9174
5.23192	15.0218
5.22665	15.1385
5.22138	15.2656
5.21613	15.5359
5.21089	15.7525
5.20566	15.9443
5.20044	16.1074
5.19522	16.2651
5.19002	16.4665
5.18483	16.5904
5.17965	16.6747
5.17448	16.9001
5.16933	17.0722
5.16418	17.1945
5.15904	17.4326
5.15391	17.6601
5.14879	17.8288
5.14368	18.0596
5.13859	18.3321
5.1335	18.4828
5.12842	18.5968
5.12335	18.8031
5.1183	18.9858
5.11325	19.2357
5.10821	19.4518
5.10318	19.6946
5.09817	19.9391
5.09316	20.0132
5.08816	20.1143
5.08317	20.4657
5.07819	20.7427
5.07322	20.8688
5.06826	21.0503
5.06331	21.2563
5.05837	21.454
5.05344	21.6321
5.04852	21.7588
5.04361	21.9463
5.03871	22.1291
5.03382	22.3914
5.02894	22.6493
5.02406	22.7933
5.0192	22.9431
5.01435	23.1157
5.0095	23.2624
5.00467	23.4756
4.99984	23.6236
4.99502	23.7303
4.99021	23.8809
4.98542	24.0558
4.98063	24.1783
4.97585	24.2651
4.97108	24.3836
4.96632	24.5081
4.96156	24.6409
4.95682	24.8319
4.95209	24.9257
4.94736	25.0301
4.94264	25.2027
4.93794	25.3591
4.93324	25.4548
4.92855	25.5327
4.92387	25.6084
4.9192	25.7203
4.91453	25.8328
4.90988	26.0083
4.90524	26.1227
4.9006	26.2607
4.89597	26.3721
4.89135	26.4328
4.88674	26.5333
4.88214	26.6228
4.87755	26.7242
4.87296	26.8133
4.86839	26.8934
4.86382	27.0421
4.85926	27.1781
4.85471	27.2883
4.85017	27.3751
4.84564	27.4891
4.84111	27.6165
4.8366	27.6984
4.83209	27.8138
4.82759	27.9691
4.8231	28.068
4.81862	28.1466
4.81415	28.2625
4.80968	28.3998
4.80522	28.5531
4.80077	28.6793
4.79633	28.75
4.7919	28.8193
4.78747	28.9883
4.78306	29.1267
4.77865	29.2199
4.77425	29.3444
4.76986	29.495
4.76547	29.6878
4.7611	29.8951
4.75673	30.0391
4.75237	30.0731
4.74802	30.2255
4.74367	30.4222
4.73934	30.5157
4.73501	30.7278
4.73069	30.9098
4.72638	31.0301
4.72207	31.1742
4.71777	31.339
4.71348	31.5431
4.7092	31.7575
4.70493	31.9017
4.70066	32.0741
4.69641	32.298
4.69216	32.5425
4.68791	32.7803
4.68368	32.9928
4.67945	33.199
4.67523	33.4313
4.67102	33.6358
4.66682	33.8103
4.66262	34.026
4.65843	34.2833
4.65425	34.4825
4.65007	34.701
4.64591	35.0165
4.64175	35.2979
4.6376	35.5604
4.63345	35.8512
4.62932	36.0874
4.62519	36.3299
4.62106	36.6394
4.61695	36.9392
4.61284	37.2414
4.60874	37.477
4.60465	37.7387
4.60056	37.9929
4.59648	38.2924
4.59241	38.6311
4.58835	38.9101
4.58429	39.1439
4.58024	39.4723
4.5762	39.7603
4.57216	40.0357
4.56814	40.3492
4.56411	40.5756
4.5601	40.7963
4.55609	41.1501
4.55209	41.4916
4.5481	41.7459
4.54411	41.9601
4.54013	42.2624
4.53616	42.5579
4.5322	42.8442
4.52824	43.0725
4.52429	43.3709
4.52034	43.7258
4.51641	44.0497
4.51247	44.2804
4.50855	44.4707
4.50463	44.6859
4.50072	45.0295
4.49682	45.3628
4.49292	45.5992
4.48903	45.8421
4.48515	46.1115
4.48127	46.3497
4.4774	46.6066
4.47354	46.8628
4.46968	47.0335
4.46584	47.2714
4.46199	47.6216
4.45815	47.8912
4.45432	48.0995
4.4505	48.3804
4.44668	48.6106
4.44287	48.7357
4.43907	49.0766
4.43527	49.3679
4.43148	49.4886
4.4277	49.66
4.42392	49.8899
4.42015	50.1705
4.41638	50.4266
4.41262	50.6317
4.40887	50.9075
4.40513	51.1905
4.40139	51.3438
4.39765	51.4996
4.39393	51.7416
4.39021	51.9881
4.38649	52.1721
4.38278	52.3874
4.37908	52.6145
4.37539	52.8554
4.3717	53.1425
4.36801	53.356
4.36434	53.5456
4.36067	53.7601
4.357	53.9937
4.35335	54.2352
4.34969	54.473
4.34605	54.7322
4.34241	54.9772
4.33877	55.1841
4.33514	55.3644
4.33152	55.5481
4.32791	55.7529
4.3243	55.9194
4.32069	56.1221
4.3171	56.3415
4.31351	56.5553
4.30992	56.785
4.30634	56.947
4.30277	57.1069
4.2992	57.3176
4.29564	57.5309
4.29208	57.7049
4.28853	57.8669
4.28499	58.0749
4.28145	58.3141
4.27792	58.5926
4.27439	58.8899
4.27087	59.1663
4.26735	59.5352
4.26384	59.9728
4.26034	60.3542
4.25684	60.6791
4.25335	60.8025
4.24986	60.7578
4.24638	60.7907
4.24291	60.8881
4.23944	61.0071
4.23598	61.1841
4.23252	61.4084
4.22906	61.689
4.22562	61.9806
4.22218	62.3097
4.21874	62.7246
4.21531	63.0649
4.21189	63.3398
4.20847	63.6746
4.20506	63.9456
4.20165	64.1748
4.19825	64.4936
4.19485	64.7698
4.19146	64.9223
4.18807	65.0282
4.18469	65.141
4.18132	65.271
4.17795	65.4279
4.17458	65.6281
4.17123	65.8068
4.16787	65.9867
4.16453	66.1078
4.16118	66.2193
4.15785	66.3095
4.15451	66.4743
4.15119	66.6386
4.14787	66.7471
4.14455	66.7409
4.14124	66.7996
4.13794	66.9266
4.13464	66.9866
4.13134	67.0154
4.12805	67.1455
4.12477	67.2927
4.12149	67.4136
4.11822	67.5215
4.11495	67.6216
4.11168	67.7427
4.10843	67.81
4.10517	67.8701
4.10192	67.9471
4.09868	68.0394
4.09545	68.1542
4.09221	68.2194
4.08899	68.279
4.08576	68.3345
4.08255	68.4368
4.07933	68.5849
4.07613	68.6994
4.07292	68.7809
4.06973	68.8522
4.06654	68.991
4.06335	69.1274
4.06017	69.2386
4.05699	69.3074
4.05382	69.326
4.05065	69.4622
4.04749	69.6254
4.04433	69.6819
4.04118	69.7301
4.03803	69.8726
4.03489	69.9676
4.03175	69.9696
4.02862	70.019
4.02549	70.2219
4.02237	70.3778
4.01925	70.4612
4.01614	70.5263
4.01303	70.6583
4.00993	70.7671
4.00683	70.8419
4.00373	70.8907
4.00064	70.9582
3.99756	70.9866
3.99448	71.0033
3.9914	71.0516
3.98833	71.1845
3.98527	71.3031
3.98221	71.3888
3.97915	71.4857
3.9761	71.5411
3.97305	71.5501
3.97001	71.5836
3.96697	71.6946
3.96394	71.7892
3.96091	71.8634
3.95789	71.9247
3.95487	71.9311
3.95186	71.9743
3.94885	72.0069
3.94584	72.0662
3.94284	72.1152
3.93984	72.179
3.93685	72.3253
3.93386	72.4246
3.93088	72.428
3.9279	72.4381
3.92493	72.4468
3.92196	72.5439
3.919	72.6262
3.91604	72.6499
3.91308	72.7132
3.91013	72.7632
3.90718	72.8085
3.90424	72.8992
3.9013	72.9169
3.89837	72.9344
3.89544	72.9991
3.89252	73.0339
3.8896	73.0105
3.88668	73.0247
3.88377	73.1097
3.88086	73.1931
3.87796	73.2241
3.87506	73.2981
3.87217	73.3473
3.86928	73.3956
3.86639	73.4347
3.86351	73.4596
3.86064	73.4769
3.85776	73.5186
3.8549	73.5404
3.85203	73.5385
3.84917	73.5233
3.84631	73.6007
3.84346	73.6512
3.84062	73.7113
3.83777	73.7731
3.83494	73.7971
3.8321	73.8035
3.82927	73.7782
3.82644	73.8196
3.82362	73.883
3.82081	73.8654
3.81799	73.8121
3.81518	73.8518
3.81238	73.9528
3.80958	73.9406
3.80678	73.912
3.80399	73.9365
3.8012	73.9395
3.79841	73.9239
3.79563	73.8529
3.79286	73.8448
3.79008	73.9781
3.78731	74.0074
3.78455	73.9455
3.78179	73.9607
3.77903	73.9245
3.77628	73.921
3.77353	74.0013
3.77079	74.0602
3.76805	74.0726
3.76531	73.9961
3.76258	73.9256
3.75985	73.9311
3.75713	73.9696
3.7544	73.9496
3.75169	73.9277
3.74898	73.8323
3.74627	73.8064
3.74356	73.8103
3.74086	73.7925
3.73816	73.7933
3.73547	73.8551
3.73278	73.8257
3.7301	73.7334
3.72741	73.6594
3.72474	73.6874
3.72206	73.6849
3.71939	73.6193
3.71673	73.5618
3.71406	73.5145
3.71141	73.4919
3.70875	73.4958
3.7061	73.504
3.70345	73.3998
3.70081	73.2908
3.69817	73.2562
3.69553	73.2154
3.6929	73.2275
3.69027	73.2156
3.68765	73.2102
3.68503	73.1537
3.68241	73.0785
3.6798	73.0191
3.67719	72.949
3.67458	72.9009
3.67198	72.8055
3.66938	72.729
3.66678	72.7086
3.66419	72.672
3.66161	72.6991
3.65902	72.6314
3.65644	72.5845
3.65387	72.5515
3.65129	72.4836
3.64872	72.4238
3.64616	72.325
3.64359	72.2426
3.64103	72.2364
3.63848	72.2373
3.63593	72.2829
3.63338	72.2704
3.63084	72.1859
3.6283	72.0727
3.62576	71.9658
3.62322	71.9368
3.62069	71.8947
3.61817	71.8378
3.61564	71.7982
3.61312	71.7075
3.61061	71.6257
3.6081	71.6368
3.60559	71.6072
3.60308	71.5033
3.60058	71.4209
3.59808	71.3736
3.59558	71.3388
3.59309	71.2381
3.59061	71.1637
3.58812	71.1177
3.58564	70.9316
3.58316	70.8601
3.58069	70.8446
3.57822	70.7023
3.57575	70.6959
3.57328	70.6598
3.57082	70.5759
3.56836	70.5183
3.56591	70.3874
3.56346	70.2848
3.56101	70.1963
3.55857	70.1156
3.55613	70.0803
3.55369	70.0596
3.55126	69.9863
3.54883	69.8977
3.5464	69.8469
3.54397	69.7099
3.54155	69.6119
3.53914	69.4853
3.53672	69.3307
3.53431	69.2327
3.5319	69.1908
3.5295	69.0591
3.5271	68.9992
3.5247	68.9452
3.52231	68.8136
3.51991	68.695
3.51753	68.5868
3.51514	68.4478
3.51276	68.3005
3.51038	68.1174
3.50801	67.9455
3.50563	67.7176
3.50327	67.4616
3.5009	67.3242
3.49854	67.3009
3.49618	67.2813
3.49382	67.2035
3.49147	67.0976
3.48912	67.0151
3.48677	66.9522
3.48443	66.9536
3.48209	67.0046
3.47975	66.9477
3.47742	66.7986
3.47509	66.698
