Name: Corrensite (Mg,Fe)_9(Si,Al)_8O_20(OH)_10._xH_2O
Type: Mineral
Class: Silicates
Subclass: Phyllosilicates
Particle Size: 45-125um
Sample No.: PS-10A
Owner: JPL
Wavelength range: IR
Origin: USA, Washington, Packwood
Collected by Clay Mineral Society
Description: 





Measurement: Hemispherical reflectance
First Column: X
Second Column: Y
X Units:  Wavelength (micrometers)
Y Units:  Reflectance (percent)
First X Value: 15.3853
Last X Value: 2.00032
Number of X Values: 2256
Additional information: ps10aa.txt
 
15.3853	1.83438
15.3397	2.09068
15.2945	2.23678
15.2495	2.20094
15.2048	2.11765
15.1603	2.05282
15.1161	1.91066
15.0722	1.83208
15.0285	2.09609
14.9851	2.04048
14.9419	1.87286
14.8989	1.89896
14.8563	1.86358
14.8138	1.83591
14.7716	1.88724
14.7296	1.85935
14.6879	1.63312
14.6464	1.677
14.6052	1.67709
14.5641	1.72904
14.5233	1.90391
14.4828	2.06204
14.4424	2.01817
14.4023	1.93244
14.3624	1.86462
14.3227	1.74863
14.2833	1.62032
14.244	1.70453
14.205	1.89486
14.1662	1.92579
14.1276	1.97571
14.0892	2.30544
14.051	2.24074
14.0131	1.91265
13.9753	1.78138
13.9377	1.8537
13.9004	1.97852
13.8632	2.10543
13.8262	2.06787
13.7895	2.03501
13.7529	2.24089
13.7165	2.17347
13.6803	2.07122
13.6443	2.12907
13.6085	2.1627
13.5729	2.11834
13.5374	2.0051
13.5022	2.0644
13.4671	2.12311
13.4322	2.09021
13.3975	2.05194
13.363	2.17346
13.3286	2.19494
13.2944	2.18721
13.2604	2.30087
13.2266	2.22327
13.193	2.12031
13.1595	2.09763
13.1262	2.18505
13.093	2.25671
13.06	2.24771
13.0272	2.0837
12.9946	1.94067
12.9621	1.99301
12.9298	2.23831
12.8976	2.52463
12.8656	2.58606
12.8337	2.50599
12.8021	2.35363
12.7705	2.24173
12.7391	2.21461
12.7079	2.24838
12.6769	2.07583
12.6459	1.90069
12.6152	2.14331
12.5845	2.26917
12.5541	2.21424
12.5238	2.2737
12.4936	2.22414
12.4635	2.10659
12.4337	2.1158
12.4039	2.02907
12.3743	1.94866
12.3448	1.87439
12.3155	1.70699
12.2863	1.81246
12.2573	1.86753
12.2284	1.79106
12.1996	1.83453
12.171	1.83077
12.1425	2.02814
12.1141	2.18755
12.0859	2.1586
12.0578	2.24077
12.0298	2.33347
12.0019	2.36622
11.9742	2.4004
11.9466	2.40961
11.9192	2.48132
11.8918	2.50874
11.8646	2.50863
11.8375	2.58689
11.8106	2.60029
11.7837	2.51973
11.757	2.66048
11.7304	2.77115
11.7039	2.77268
11.6776	2.75248
11.6513	2.80233
11.6252	2.88954
11.5992	2.9056
11.5733	2.84358
11.5475	2.88849
11.5219	2.98306
11.4963	3.05682
11.4709	3.07974
11.4455	3.12032
11.4203	3.15862
11.3952	3.27194
11.3702	3.24062
11.3454	3.14576
11.3206	3.21002
11.2959	3.37623
11.2714	3.33391
11.2469	3.27555
11.2226	3.25132
11.1983	3.23378
11.1742	3.37832
11.1502	3.47508
11.1263	3.48985
11.1024	3.57391
11.0787	3.69437
11.0551	3.74917
11.0316	3.79622
11.0081	3.70625
10.9848	3.61946
10.9616	3.74971
10.9385	3.88866
10.9154	3.95628
10.8925	4.0504
10.8697	4.09404
10.8469	4.13448
10.8243	4.12358
10.8017	4.12859
10.7793	4.23806
10.7569	4.31097
10.7346	4.36005
10.7125	4.44078
10.6904	4.60875
10.6684	4.83063
10.6465	4.97222
10.6247	4.95161
10.6029	4.95832
10.5813	5.07679
10.5597	5.13855
10.5383	5.15951
10.5169	5.32571
10.4956	5.39135
10.4744	5.34594
10.4533	5.41676
10.4323	5.40091
10.4113	5.42169
10.3904	5.43592
10.3697	5.55713
10.349	5.80992
10.3284	5.87052
10.3078	5.94541
10.2874	6.06501
10.267	6.14007
10.2467	6.17343
10.2265	6.38975
10.2064	6.51827
10.1863	6.45064
10.1663	6.37394
10.1464	6.48002
10.1266	6.861
10.1069	7.08829
10.0872	7.16439
10.0676	7.3153
10.0481	7.48225
10.0287	7.62606
10.0093	7.71239
9.99005	7.84922
9.97084	7.92785
9.95169	8.05747
9.93263	8.27506
9.91364	8.34157
9.89472	8.44859
9.87587	8.47931
9.8571	8.53788
9.83839	8.63368
9.81976	8.7294
9.80119	8.80006
9.78271	8.7903
9.76428	8.86201
9.74592	8.96558
9.72764	9.08058
9.70943	9.10925
9.69128	9.20275
9.6732	9.35296
9.65518	9.42323
9.63724	9.3982
9.61935	9.4894
9.60155	9.52226
9.5838	9.40168
9.56611	9.23274
9.5485	9.00863
9.53094	8.85256
9.51345	8.74254
9.49604	8.70827
9.47867	8.65601
9.46137	8.38817
9.44414	8.1528
9.42697	8.13681
9.40986	8.2419
9.39281	8.26928
9.37583	8.2166
9.35891	8.29608
9.34204	8.50573
9.32524	8.64667
9.3085	8.67559
9.29182	8.66477
9.27519	8.6155
9.25863	8.46876
9.24213	8.49102
9.22568	8.49833
9.2093	8.36433
9.19297	8.22991
9.17669	8.15242
9.16048	7.9647
9.14433	7.92246
9.12823	7.88532
9.11218	7.88415
9.0962	7.77315
9.08027	7.66197
9.06439	7.69175
9.04858	7.69217
9.03281	7.6893
9.0171	7.65154
9.00145	7.54634
8.98585	7.40471
8.9703	7.22152
8.9548	7.24655
8.93937	7.42795
8.92398	7.34376
8.90865	7.07391
8.89337	7.04678
8.87814	7.18323
8.86296	7.21393
8.84784	7.1887
8.83277	7.02073
8.81774	6.87527
8.80277	6.96266
8.78786	7.08904
8.77298	7.0851
8.75816	7.1162
8.7434	7.05995
8.72868	7.02796
8.714	7.06461
8.69938	7.10924
8.68481	7.06614
8.67029	6.85621
8.65581	6.62587
8.64139	6.60319
8.62701	6.61972
8.61268	6.74152
8.5984	7.06254
8.58416	7.31886
8.56997	7.38146
8.55583	7.60992
8.54174	7.86246
8.52769	7.98712
8.51368	8.10564
8.49973	8.05463
8.48582	7.88701
8.47195	8.01156
8.45813	8.26406
8.44436	8.31858
8.43062	8.31305
8.41693	8.33686
8.4033	8.30293
8.3897	8.3417
8.37614	8.51291
8.36264	8.56573
8.34917	8.49088
8.33574	8.54098
8.32236	8.56754
8.30903	8.56033
8.29573	8.62808
8.28248	8.63208
8.26927	8.51111
8.2561	8.43762
8.24298	8.32033
8.2299	8.12123
8.21685	8.09573
8.20385	8.10041
8.19089	7.95831
8.17797	7.61595
8.16509	7.29114
8.15225	7.14447
8.13946	6.93705
8.1267	6.49576
8.11398	6.07991
8.10131	5.82726
8.08867	5.59377
8.07606	5.33281
8.0635	5.0602
8.05099	4.73676
8.0385	4.42657
8.02606	4.28125
8.01366	4.21298
8.00129	4.09135
7.98896	3.86905
7.97667	3.62735
7.96442	3.52371
7.9522	3.4409
7.94002	3.39527
7.92788	3.35691
7.91578	3.21707
7.90371	3.05631
7.89168	2.86693
7.87969	2.79641
7.86773	2.82192
7.85581	2.68295
7.84392	2.57309
7.83207	2.56865
7.82026	2.51755
7.80849	2.43545
7.79674	2.44731
7.78503	2.42101
7.77337	2.44386
7.76173	2.47815
7.75012	2.46592
7.73856	2.43849
7.72703	2.38804
7.71553	2.44172
7.70406	2.52562
7.69263	2.45968
7.68123	2.31289
7.66987	2.23199
7.65855	2.2907
7.64725	2.35584
7.63598	2.36294
7.62475	2.42479
7.61356	2.38701
7.60239	2.32808
7.59126	2.27617
7.58017	2.35729
7.5691	2.44798
7.55806	2.44976
7.54707	2.46727
7.5361	2.49328
7.52516	2.39553
7.51425	2.34718
7.50338	2.37612
7.49253	2.46064
7.48172	2.43733
7.47094	2.41169
7.46019	2.41711
7.44947	2.41057
7.43879	2.44997
7.42813	2.42739
7.4175	2.45246
7.4069	2.49478
7.39634	2.59807
7.3858	2.67679
7.37529	2.61953
7.36482	2.62805
7.35437	2.66623
7.34396	2.71717
7.33357	2.69596
7.32321	2.61461
7.31288	2.65655
7.30258	2.7024
7.29231	2.68629
7.28207	2.77322
7.27185	2.89948
7.26167	2.87409
7.25152	2.81993
7.24139	2.79045
7.23129	2.87678
7.22122	2.94905
7.21117	2.90509
7.20116	2.9466
7.19117	3.10373
7.18121	3.20077
7.17128	3.16278
7.16137	3.16829
7.1515	3.10908
7.14164	3.06337
7.13182	3.18318
7.12203	3.36241
7.11225	3.39083
7.10251	3.38768
7.0928	3.38572
7.08311	3.36676
7.07344	3.25631
7.06381	3.21724
7.0542	3.35949
7.04461	3.42504
7.03506	3.41118
7.02552	3.4008
7.01601	3.35664
7.00653	3.37497
6.99708	3.45338
6.98765	3.54658
6.97824	3.4993
6.96886	3.50851
6.95951	3.65302
6.95018	3.68826
6.94087	3.65803
6.9316	3.7092
6.92234	3.74814
6.91311	3.7901
6.90391	3.74925
6.89473	3.69842
6.88557	3.73644
6.87644	3.78838
6.86733	3.81854
6.85824	3.86
6.84918	3.83195
6.84015	3.79876
6.83114	3.84416
6.82215	3.871
6.81319	3.93727
6.80424	3.97378
6.79532	3.96957
6.78643	3.90881
6.77756	3.91638
6.76871	3.9013
6.75989	3.88581
6.75109	3.91525
6.74231	3.93216
6.73355	3.88223
6.72482	3.84903
6.71611	3.82717
6.70742	3.77425
6.69875	3.8526
6.69011	3.93588
6.68149	3.92974
6.67289	3.98713
6.66431	4.07555
6.65576	4.1584
6.64722	4.14007
6.63871	4.13625
6.63022	4.16198
6.62175	4.11877
6.61331	3.98064
6.60488	4.01931
6.59648	4.08328
6.5881	4.07168
6.57974	4.0327
6.5714	4.00475
6.56308	4.02467
6.55478	4.01307
6.54651	4.08451
6.53825	4.21065
6.53001	4.23437
6.5218	4.2112
6.51361	4.29317
6.50544	4.33541
6.49729	4.36756
6.48915	4.46518
6.48104	4.51929
6.47295	4.60768
6.46488	4.62136
6.45683	4.52874
6.4488	4.50448
6.44079	4.48822
6.4328	4.41585
6.42482	4.33657
6.41687	4.24096
6.40894	4.18106
6.40103	4.25379
6.39314	4.20989
6.38526	4.17347
6.37741	4.14225
6.36957	4.03151
6.36176	3.93422
6.35396	3.83592
6.34618	3.66079
6.33843	3.57249
6.33069	3.5784
6.32297	3.52822
6.31527	3.46298
6.30758	3.37685
6.29992	3.30458
6.29227	3.20701
6.28465	3.06918
6.27704	3.0057
6.26945	3.09622
6.26188	3.148
6.25432	3.04579
6.24679	2.87694
6.23927	2.75222
6.23177	2.67132
6.22429	2.61727
6.21683	2.57056
6.20938	2.60655
6.20195	2.54252
6.19454	2.32844
6.18715	2.29459
6.17978	2.28908
6.17242	2.22487
6.16508	2.25778
6.15776	2.30212
6.15045	2.25102
6.14317	2.24447
6.1359	2.22143
6.12864	2.2378
6.12141	2.20555
6.11419	2.21453
6.10699	2.2077
6.0998	2.17482
6.09263	2.11464
6.08549	2.14454
6.07835	2.19474
6.07123	2.20913
6.06413	2.18342
6.05705	2.22786
6.04998	2.25759
6.04293	2.30293
6.0359	2.25865
6.02888	2.31398
6.02187	2.35957
6.01489	2.33119
6.00792	2.39038
6.00096	2.50207
5.99403	2.55004
5.98711	2.54584
5.9802	2.51156
5.97331	2.55155
5.96644	2.67055
5.95958	2.78512
5.95274	2.82957
5.94591	2.87447
5.9391	2.94607
5.9323	3.04842
5.92552	3.0959
5.91876	3.13858
5.91201	3.30496
5.90528	3.42517
5.89856	3.42152
5.89186	3.52857
5.88517	3.6511
5.8785	3.83702
5.87184	4.06422
5.8652	4.17969
5.85857	4.28628
5.85196	4.37462
5.84536	4.47895
5.83878	4.60034
5.83221	4.70055
5.82566	4.72803
5.81912	4.82968
5.81259	5.0358
5.80608	5.19108
5.79959	5.26033
5.79311	5.19003
5.78665	5.24799
5.78019	5.37311
5.77376	5.42679
5.76734	5.4597
5.76093	5.545
5.75453	5.6389
5.74815	5.66949
5.74179	5.70379
5.73543	5.78331
5.7291	5.86038
5.72277	5.91787
5.71646	5.87779
5.71017	5.82071
5.70389	5.88308
5.69762	5.93652
5.69136	5.91198
5.68513	5.91996
5.6789	5.90736
5.67268	5.9026
5.66648	5.85894
5.6603	5.78327
5.65413	5.69592
5.64797	5.58563
5.64182	5.55274
5.63569	5.55394
5.62957	5.51043
5.62347	5.47733
5.61737	5.46774
5.61129	5.38874
5.60522	5.30174
5.59917	5.26849
5.59313	5.29222
5.5871	5.2783
5.58109	5.21772
5.57509	5.35575
5.5691	5.45508
5.56312	5.4441
5.55716	5.46354
5.55121	5.52535
5.54528	5.67168
5.53935	5.86544
5.53344	6.10186
5.52754	6.21588
5.52166	6.23681
5.51578	6.28473
5.50992	6.4361
5.50407	6.54664
5.49823	6.68285
5.49241	6.89317
5.4866	7.08525
5.4808	7.18806
5.47501	7.24712
5.46923	7.35288
5.46347	7.49648
5.45772	7.62768
5.45198	7.6406
5.44625	7.64839
5.44054	7.62221
5.43484	7.62739
5.42914	7.66051
5.42347	7.57261
5.4178	7.45673
5.41214	7.43425
5.4065	7.37865
5.40087	7.14456
5.39525	6.8957
5.38964	6.82931
5.38404	6.81496
5.37846	6.73884
5.37288	6.6578
5.36732	6.61978
5.36177	6.59295
5.35623	6.59244
5.35071	6.55753
5.34519	6.57865
5.33968	6.58679
5.33419	6.66904
5.32871	6.71596
5.32324	6.75451
5.31778	6.77914
5.31233	6.83462
5.30689	6.93769
5.30147	7.05775
5.29605	7.13596
5.29065	7.21071
5.28525	7.29997
5.27987	7.37362
5.2745	7.4903
5.26914	7.68354
5.26379	7.86202
5.25845	8.00952
5.25312	8.16096
5.24781	8.40054
5.2425	8.56622
5.23721	8.70315
5.23192	8.9986
5.22665	9.32058
5.22138	9.4592
5.21613	9.56443
5.21089	9.82847
5.20566	10.0306
5.20044	10.0837
5.19522	10.1593
5.19002	10.2329
5.18483	10.2915
5.17965	10.3318
5.17448	10.3733
5.16933	10.4249
5.16418	10.4663
5.15904	10.4944
5.15391	10.5685
5.14879	10.6702
5.14368	10.6601
5.13859	10.589
5.1335	10.6452
5.12842	10.7855
5.12335	10.8189
5.1183	10.8458
5.11325	10.9198
5.10821	10.9175
5.10318	10.8588
5.09817	10.8323
5.09316	10.9085
5.08816	10.842
5.08317	10.6986
5.07819	10.7474
5.07322	10.7933
5.06826	10.7327
5.06331	10.7708
5.05837	10.8761
5.05344	10.8478
5.04852	10.8692
5.04361	10.9545
5.03871	11.0093
5.03382	11.0449
5.02894	10.9586
5.02406	10.9263
5.0192	11.0023
5.01435	11.07
5.0095	11.1173
5.00467	11.3101
4.99984	11.3556
4.99502	11.3815
4.99021	11.4871
4.98542	11.6702
4.98063	11.905
4.97585	12.0895
4.97108	12.3088
4.96632	12.5549
4.96156	12.7975
4.95682	13.0971
4.95209	13.2921
4.94736	13.4531
4.94264	13.5735
4.93794	13.6844
4.93324	13.8806
4.92855	14.0377
4.92387	14.1874
4.9192	14.417
4.91453	14.6479
4.90988	14.8484
4.90524	15.1665
4.9006	15.537
4.89597	15.8238
4.89135	16.1151
4.88674	16.372
4.88214	16.6289
4.87755	16.8673
4.87296	17.007
4.86839	17.1982
4.86382	17.3965
4.85926	17.5421
4.85471	17.7077
4.85017	17.8905
4.84564	18.0207
4.84111	18.09
4.8366	18.1937
4.83209	18.2786
4.82759	18.3795
4.8231	18.4516
4.81862	18.5182
4.81415	18.6926
4.80968	18.7572
4.80522	18.7731
4.80077	18.8364
4.79633	18.9613
4.7919	19.0333
4.78747	19.0877
4.78306	19.1978
4.77865	19.2761
4.77425	19.2859
4.76986	19.3188
4.76547	19.4238
4.7611	19.4428
4.75673	19.5359
4.75237	19.6987
4.74802	19.8021
4.74367	19.8709
4.73934	19.9535
4.73501	19.9701
4.73069	20.068
4.72638	20.1912
4.72207	20.2204
4.71777	20.3269
4.71348	20.4295
4.7092	20.482
4.70493	20.4351
4.70066	20.4232
4.69641	20.5591
4.69216	20.6236
4.68791	20.6099
4.68368	20.6
4.67945	20.703
4.67523	20.8862
4.67102	20.9872
4.66682	21.1301
4.66262	21.3162
4.65843	21.4615
4.65425	21.5543
4.65007	21.6377
4.64591	21.7997
4.64175	22.0081
4.6376	22.1587
4.63345	22.3022
4.62932	22.474
4.62519	22.6247
4.62106	22.8434
4.61695	22.9551
4.61284	22.9667
4.60874	23.0811
4.60465	23.2395
4.60056	23.3306
4.59648	23.5029
4.59241	23.6806
4.58835	23.7708
4.58429	23.8082
4.58024	23.9126
4.5762	24.075
4.57216	24.2107
4.56814	24.3222
4.56411	24.4037
4.5601	24.4554
4.55609	24.5701
4.55209	24.7187
4.5481	24.7974
4.54411	24.8792
4.54013	24.8951
4.53616	24.8944
4.5322	24.9376
4.52824	24.9924
4.52429	25.0666
4.52034	25.1072
4.51641	25.1819
4.51247	25.2512
4.50855	25.235
4.50463	25.2336
4.50072	25.2419
4.49682	25.2297
4.49292	25.3175
4.48903	25.3596
4.48515	25.3451
4.48127	25.4517
4.4774	25.6024
4.47354	25.7395
4.46968	25.8314
4.46584	25.8285
4.46199	25.9433
4.45815	26.1706
4.45432	26.3061
4.4505	26.4005
4.44668	26.513
4.44287	26.5867
4.43907	26.687
4.43527	26.8096
4.43148	26.9217
4.4277	27.1084
4.42392	27.2762
4.42015	27.3943
4.41638	27.4513
4.41262	27.589
4.40887	27.7275
4.40513	27.7699
4.40139	27.9013
4.39765	28.1273
4.39393	28.2491
4.39021	28.3212
4.38649	28.4799
4.38278	28.6959
4.37908	28.8249
4.37539	28.9446
4.3717	29.1035
4.36801	29.279
4.36434	29.3258
4.36067	29.3665
4.357	29.566
4.35335	29.7389
4.34969	29.8144
4.34605	29.9017
4.34241	30.0225
4.33877	30.152
4.33514	30.1975
4.33152	30.314
4.32791	30.494
4.3243	30.5726
4.32069	30.6553
4.3171	30.7406
4.31351	30.7899
4.30992	30.9012
4.30634	31.026
4.30277	31.0754
4.2992	31.0888
4.29564	31.1305
4.29208	31.2746
4.28853	31.4119
4.28499	31.4909
4.28145	31.6081
4.27792	31.6867
4.27439	31.721
4.27087	31.8152
4.26735	31.9377
4.26384	32.0417
4.26034	32.2311
4.25684	32.4018
4.25335	32.4253
4.24986	32.4363
4.24638	32.5174
4.24291	32.6724
4.23944	32.746
4.23598	32.8642
4.23252	32.9622
4.22906	33.0132
4.22562	33.12
4.22218	33.2343
4.21874	33.3513
4.21531	33.4309
4.21189	33.5056
4.20847	33.571
4.20506	33.6554
4.20165	33.7587
4.19825	33.8267
4.19485	33.9172
4.19146	34.0104
4.18807	34.0889
4.18469	34.1983
4.18132	34.2466
4.17795	34.3514
4.17458	34.4153
4.17123	34.4314
4.16787	34.5144
4.16453	34.6603
4.16118	34.7838
4.15785	34.8083
4.15451	34.879
4.15119	35.0225
4.14787	35.1558
4.14455	35.2153
4.14124	35.2029
4.13794	35.218
4.13464	35.3351
4.13134	35.4495
4.12805	35.5348
4.12477	35.5626
4.12149	35.6102
4.11822	35.6536
4.11495	35.7517
4.11168	35.8904
4.10843	35.9886
4.10517	36.0205
4.10192	36.0517
4.09868	36.0686
4.09545	36.0823
4.09221	36.1379
4.08899	36.2224
4.08576	36.3006
4.08255	36.3811
4.07933	36.3459
4.07613	36.2987
4.07292	36.3698
4.06973	36.5181
4.06654	36.5421
4.06335	36.5327
4.06017	36.5388
4.05699	36.5425
4.05382	36.5101
4.05065	36.5425
4.04749	36.5496
4.04433	36.5166
4.04118	36.4765
4.03803	36.4019
4.03489	36.3334
4.03175	36.3278
4.02862	36.339
4.02549	36.3566
4.02237	36.3887
4.01925	36.3958
4.01614	36.3423
4.01303	36.253
4.00993	36.1083
4.00683	35.9788
4.00373	35.9139
4.00064	35.89
3.99756	35.8889
3.99448	35.8717
3.9914	35.8366
3.98833	35.8334
3.98527	35.847
3.98221	35.8389
3.97915	35.8399
3.9761	35.9047
3.97305	35.9575
3.97001	35.9998
3.96697	36.0341
3.96394	36.0428
3.96091	36.0491
3.95789	36.1409
3.95487	36.2549
3.95186	36.3084
3.94885	36.4473
3.94584	36.5243
3.94284	36.5324
3.93984	36.5967
3.93685	36.7178
3.93386	36.8153
3.93088	36.8412
3.9279	36.781
3.92493	36.7757
3.92196	36.8175
3.919	36.8741
3.91604	36.891
3.91308	36.9403
3.91013	37.0655
3.90718	37.0107
3.90424	36.864
3.9013	36.8251
3.89837	36.8643
3.89544	36.7829
3.89252	36.7079
3.8896	36.7441
3.88668	36.7082
3.88377	36.626
3.88086	36.6269
3.87796	36.6718
3.87506	36.6846
3.87217	36.6194
3.86928	36.5199
3.86639	36.4498
3.86351	36.4272
3.86064	36.462
3.85776	36.4627
3.8549	36.4052
3.85203	36.3725
3.84917	36.2771
3.84631	36.2139
3.84346	36.2177
3.84062	36.2145
3.83777	36.1713
3.83494	36.1722
3.8321	36.2038
3.82927	36.2039
3.82644	36.1714
3.82362	36.1286
3.82081	36.1469
3.81799	36.1723
3.81518	36.1773
3.81238	36.1855
3.80958	36.1888
3.80678	36.1266
3.80399	36.1052
3.8012	36.2389
3.79841	36.2164
3.79563	36.1042
3.79286	36.0678
3.79008	36.0487
3.78731	36.0016
3.78455	35.9197
3.78179	35.8763
3.77903	35.8567
3.77628	35.779
3.77353	35.6226
3.77079	35.5662
3.76805	35.5493
3.76531	35.4421
3.76258	35.3231
3.75985	35.2836
3.75713	35.2839
3.7544	35.1405
3.75169	35.0072
3.74898	35.0091
3.74627	34.9457
3.74356	34.8123
3.74086	34.7269
3.73816	34.6624
3.73547	34.56
3.73278	34.4471
3.7301	34.3529
3.72741	34.275
3.72474	34.2574
3.72206	34.1135
3.71939	33.9907
3.71673	33.9297
3.71406	33.8618
3.71141	33.7701
3.70875	33.7061
3.7061	33.6931
3.70345	33.5264
3.70081	33.3497
3.69817	33.3164
3.69553	33.1856
3.6929	33.0684
3.69027	33.0035
3.68765	32.8481
3.68503	32.6565
3.68241	32.5724
3.6798	32.585
3.67719	32.5094
3.67458	32.3526
3.67198	32.2215
3.66938	32.1918
3.66678	32.0771
3.66419	31.889
3.66161	31.795
3.65902	31.7078
3.65644	31.5792
3.65387	31.4709
3.65129	31.3389
3.64872	31.171
3.64616	31.1157
3.64359	31.0976
3.64103	31.0025
3.63848	30.791
3.63593	30.5681
3.63338	30.4925
3.63084	30.4393
3.6283	30.2737
3.62576	30.1337
3.62322	30.0168
3.62069	29.8815
3.61817	29.7811
3.61564	29.7113
3.61312	29.642
3.61061	29.4513
3.6081	29.313
3.60559	29.2149
3.60308	29.0466
3.60058	28.9033
3.59808	28.7954
3.59558	28.592
3.59309	28.503
3.59061	28.3695
3.58812	28.1808
3.58564	28.1158
3.58316	28
3.58069	27.7154
3.57822	27.5674
3.57575	27.4957
3.57328	27.2871
3.57082	27.0829
3.56836	26.9575
3.56591	26.7967
3.56346	26.6779
3.56101	26.6117
3.55857	26.465
3.55613	26.31
3.55369	26.1649
3.55126	26.0675
3.54883	25.9569
3.5464	25.7573
3.54397	25.5872
3.54155	25.4336
3.53914	25.3034
3.53672	25.143
3.53431	24.9795
3.5319	24.7664
3.5295	24.5265
3.5271	24.396
3.5247	24.2593
3.52231	24.0157
3.51991	23.8382
3.51753	23.7135
3.51514	23.4763
3.51276	23.2984
3.51038	23.2139
3.50801	23.0848
3.50563	22.9144
3.50327	22.6977
3.5009	22.5031
3.49854	22.3452
3.49618	22.1828
3.49382	22.0804
3.49147	22.0058
3.48912	21.9484
3.48677	21.8608
3.48443	21.6774
3.48209	21.5077
3.47975	21.3509
3.47742	21.2849
3.47509	21.1688
3.47276	20.9719
3.47044	20.9123
3.46812	20.83
