Name: Quartzite
Type: Rock
Class: Metamorphic
Subclass:  Quartzite 
Particle Size: Solid surface
Sample No.: Ward93.txt
Owner: JPL
Wavelength range:  VNIR SWIR IR 
Origin: Ward's Collection of American Rocks.  Sample locality - Ableman, Sauk County, Wisconsin.  Collected by - JPL.
Collected by:  Ward's Natural Science
Description: A fine crystalline, purplish quartz rock.  
Geologic age - Pre-Cambrian




Measurement: Hemispherical reflectance
First Column: X
Second Column: Y
X Units: Wavelength (micrometers)
Y Units: Reflectance (percent)
First X Value: 2.500
Last X Value: 0.400
Number of X Values: 2101
Additional information: None

2.500  10.995011
2.499  10.807197
2.498  10.829950
2.497  11.174885
2.496  10.284576
2.495  11.106151
2.494  10.900796
2.493  11.046440
2.492  10.712992
2.491  10.956392
2.490  10.769799
2.489  11.168182
2.488  10.973764
2.487  11.092857
2.486  10.964749
2.485  11.134656
2.484  11.113150
2.483  11.242449
2.482  11.041448
2.481  11.297702
2.480  11.242750
2.479  11.330211
2.478  11.140368
2.477  11.300512
2.476  11.133424
2.475  11.466836
2.474  11.285401
2.473  11.431233
2.472  11.250083
2.471  11.567949
2.470  11.317397
2.469  11.526674
2.468  11.478556
2.467  11.772728
2.466  11.449436
2.465  11.692373
2.464  11.684203
2.463  11.718398
2.462  11.352981
2.461  11.616398
2.460  11.483925
2.459  11.621902
2.458  11.530509
2.457  11.653409
2.456  11.489700
2.455  11.652836
2.454  11.515470
2.453  11.663290
2.452  11.427635
2.451  11.558865
2.450  11.596761
2.449  11.669296
2.448  11.726084
2.447  11.821979
2.446  11.602396
2.445  11.688426
2.444  11.573205
2.443  11.670461
2.442  11.541883
2.441  11.653006
2.440  11.611673
2.439  11.777655
2.438  11.629803
2.437  11.630962
2.436  11.636458
2.435  11.736765
2.434  11.581112
2.433  11.710137
2.432  11.682307
2.431  11.733093
2.430  11.693916
2.429  11.684136
2.428  11.716264
2.427  11.725460
2.426  11.593750
2.425  11.672729
2.424  11.561929
2.423  11.732487
2.422  11.626118
2.421  11.782599
2.420  11.697735
2.419  11.740548
2.418  11.753488
2.417  11.763048
2.416  11.786295
2.415  11.829008
2.414  11.873467
2.413  11.867364
2.412  11.757904
2.411  11.960263
2.410  11.872914
2.409  11.827948
2.408  11.887429
2.407  11.973294
2.406  11.821817
2.405  11.935953
2.404  11.947941
2.403  11.891652
2.402  11.869990
2.401  11.874421
2.400  11.879819
2.399  11.926149
2.398  11.903473
2.397  11.857304
2.396  11.854757
2.395  11.908307
2.394  11.905191
2.393  11.928422
2.392  11.915587
2.391  11.970608
2.390  11.961735
2.389  11.971460
2.388  11.933017
2.387  11.918393
2.386  11.936225
2.385  12.002688
2.384  12.040974
2.383  12.015053
2.382  12.036982
2.381  12.147282
2.380  12.128899
2.379  12.139045
2.378  12.171612
2.377  12.271365
2.376  12.210327
2.375  12.273028
2.374  12.207369
2.373  12.245890
2.372  12.259077
2.371  12.302572
2.370  12.314075
2.369  12.322241
2.368  12.324875
2.367  12.411916
2.366  12.401616
2.365  12.360613
2.364  12.398589
2.363  12.373494
2.362  12.325642
2.361  12.274509
2.360  12.247257
2.359  12.312010
2.358  12.312518
2.357  12.315617
2.356  12.353580
2.355  12.322001
2.354  12.313853
2.353  12.269589
2.352  12.273935
2.351  12.227942
2.350  12.237978
2.349  12.292890
2.348  12.284742
2.347  12.286024
2.346  12.240245
2.345  12.248679
2.344  12.342056
2.343  12.317500
2.342  12.298718
2.341  12.301148
2.340  12.311674
2.339  12.256251
2.338  12.275623
2.337  12.288915
2.336  12.329296
2.335  12.278171
2.334  12.234004
2.333  12.272925
2.332  12.242600
2.331  12.212326
2.330  12.253140
2.329  12.197281
2.328  12.176258
2.327  12.120961
2.326  12.123395
2.325  12.053228
2.324  12.014985
2.323  12.013267
2.322  12.073343
2.321  11.977559
2.320  11.954273
2.319  11.953421
2.318  11.977355
2.317  11.959506
2.316  12.007488
2.315  11.975123
2.314  12.034956
2.313  11.991060
2.312  12.048226
2.311  12.053229
2.310  12.095571
2.309  12.109017
2.308  12.125209
2.307  12.138774
2.306  12.237082
2.305  12.268195
2.304  12.347648
2.303  12.270185
2.302  12.376556
2.301  12.354821
2.300  12.388067
2.299  12.394254
2.298  12.485542
2.297  12.453342
2.296  12.528044
2.295  12.536706
2.294  12.532274
2.293  12.531132
2.292  12.616633
2.291  12.541965
2.290  12.561111
2.289  12.593282
2.288  12.702360
2.287  12.563473
2.286  12.686776
2.285  12.697048
2.284  12.769383
2.283  12.775442
2.282  12.866001
2.281  12.774443
2.280  12.811278
2.279  12.794415
2.278  12.915389
2.277  12.854944
2.276  12.918954
2.275  12.882699
2.274  13.004932
2.273  12.900632
2.272  13.032331
2.271  12.994345
2.270  13.060247
2.269  12.963679
2.268  13.077637
2.267  13.063622
2.266  13.110672
2.265  13.085607
2.264  13.166691
2.263  13.230918
2.262  13.204437
2.261  13.187631
2.260  13.176114
2.259  13.183070
2.258  13.272685
2.257  13.209773
2.256  13.260950
2.255  13.205850
2.254  13.314955
2.253  13.264701
2.252  13.346802
2.251  13.258923
2.250  13.317128
2.249  13.336945
2.248  13.365268
2.247  13.321495
2.246  13.444015
2.245  13.347756
2.244  13.329678
2.243  13.284885
2.242  13.451373
2.241  13.369524
2.240  13.502504
2.239  13.453055
2.238  13.476210
2.237  13.394579
2.236  13.534853
2.235  13.370125
2.234  13.431011
2.233  13.389748
2.232  13.460491
2.231  13.462392
2.230  13.481526
2.229  13.429657
2.228  13.497003
2.227  13.451611
2.226  13.488430
2.225  13.337994
2.224  13.534019
2.223  13.401601
2.222  13.442604
2.221  13.387247
2.220  13.404086
2.219  13.359276
2.218  13.401506
2.217  13.267205
2.216  13.432838
2.215  13.270940
2.214  13.465582
2.213  13.350418
2.212  13.522062
2.211  13.260124
2.210  13.530657
2.209  13.340201
2.208  13.350349
2.207  13.339655
2.206  13.497772
2.205  13.419004
2.204  13.398923
2.203  13.328584
2.202  13.386463
2.201  13.445603
2.200  13.472663
2.199  13.396892
2.198  13.464152
2.197  13.429037
2.196  13.574206
2.195  13.454509
2.194  13.521499
2.193  13.422017
2.192  13.513368
2.191  13.411925
2.190  13.512609
2.189  13.424937
2.188  13.490251
2.187  13.319993
2.186  13.397872
2.185  13.343389
2.184  13.301606
2.183  13.254838
2.182  13.133317
2.181  13.047759
2.180  12.959842
2.179  12.843222
2.178  12.729048
2.177  12.524825
2.176  12.461055
2.175  12.206935
2.174  12.059293
2.173  11.914653
2.172  11.707421
2.171  11.492473
2.170  11.428864
2.169  11.278981
2.168  11.295911
2.167  11.117483
2.166  11.151412
2.165  11.154876
2.164  11.309058
2.163  11.408050
2.162  11.550248
2.161  11.665915
2.160  11.912352
2.159  12.029631
2.158  12.240294
2.157  12.315977
2.156  12.599949
2.155  12.684545
2.154  12.875997
2.153  12.991073
2.152  13.120980
2.151  13.206532
2.150  13.374263
2.149  13.412849
2.148  13.475974
2.147  13.496080
2.146  13.651191
2.145  13.640961
2.144  13.809727
2.143  13.728802
2.142  13.805918
2.141  13.816582
2.140  13.912569
2.139  13.805445
2.138  13.904395
2.137  13.877849
2.136  13.942186
2.135  13.898318
2.134  13.940072
2.133  13.958449
2.132  13.987197
2.131  13.939954
2.130  13.969965
2.129  13.908301
2.128  14.021656
2.127  13.973188
2.126  14.030561
2.125  13.994173
2.124  14.036279
2.123  14.070193
2.122  14.131615
2.121  14.056765
2.120  14.080536
2.119  14.092124
2.118  14.166882
2.117  14.097061
2.116  14.143001
2.115  14.136676
2.114  14.170897
2.113  14.109318
2.112  14.158590
2.111  14.147886
2.110  14.152494
2.109  14.101553
2.108  14.160793
2.107  14.139067
2.106  14.195695
2.105  14.192077
2.104  14.181560
2.103  14.061507
2.102  14.147670
2.101  14.146266
2.100  14.161013
2.099  14.116381
2.098  14.124440
2.097  14.139591
2.096  14.193368
2.095  14.192774
2.094  14.212364
2.093  14.164336
2.092  14.151926
2.091  14.168485
2.090  14.206819
2.089  14.142155
2.088  14.128362
2.087  14.165561
2.086  14.210392
2.085  14.171152
2.084  14.144573
2.083  14.131319
2.082  14.152324
2.081  14.150667
2.080  14.125945
2.079  14.129911
2.078  14.153497
2.077  14.169173
2.076  14.193347
2.075  14.203451
2.074  14.185389
2.073  14.167555
2.072  14.174931
2.071  14.190458
2.070  14.194380
2.069  14.199025
2.068  14.176908
2.067  14.191824
2.066  14.220682
2.065  14.185636
2.064  14.181430
2.063  14.285135
2.062  14.302200
2.061  14.257063
2.060  14.251697
2.059  14.290795
2.058  14.297255
2.057  14.321014
2.056  14.317655
2.055  14.316461
2.054  14.287616
2.053  14.283398
2.052  14.333727
2.051  14.426714
2.050  14.377384
2.049  14.394111
2.048  14.384683
2.047  14.372667
2.046  14.412233
2.045  14.436110
2.044  14.405544
2.043  14.444636
2.042  14.419141
2.041  14.426109
2.040  14.439908
2.039  14.473479
2.038  14.442046
2.037  14.487645
2.036  14.416746
2.035  14.462973
2.034  14.471216
2.033  14.435734
2.032  14.417932
2.031  14.464029
2.030  14.430289
2.029  14.460151
2.028  14.469533
2.027  14.534453
2.026  14.434423
2.025  14.400088
2.024  14.394433
2.023  14.470971
2.022  14.390022
2.021  14.456100
2.020  14.407987
2.019  14.464440
2.018  14.423436
2.017  14.482199
2.016  14.439155
2.015  14.474396
2.014  14.432290
2.013  14.522680
2.012  14.414388
2.011  14.436485
2.010  14.423524
2.009  14.529820
2.008  14.429159
2.007  14.436129
2.006  14.432653
2.005  14.507722
2.004  14.450481
2.003  14.528263
2.002  14.385808
2.001  14.489840
2.000  14.445412
1.999  14.491386
1.998  14.420025
1.997  14.461447
1.996  14.402349
1.995  14.442628
1.994  14.377233
1.993  14.464795
1.992  14.409700
1.991  14.458038
1.990  14.375178
1.989  14.442998
1.988  14.346318
1.987  14.458161
1.986  14.404177
1.985  14.450757
1.984  14.330960
1.983  14.445881
1.982  14.340458
1.981  14.401653
1.980  14.390442
1.979  14.290115
1.978  14.307174
1.977  14.354410
1.976  14.296002
1.975  14.332392
1.974  14.319137
1.973  14.308674
1.972  14.361877
1.971  14.397206
1.970  14.189503
1.969  14.329020
1.968  14.252519
1.967  14.446782
1.966  14.295834
1.965  14.350896
1.964  14.292668
1.963  14.298389
1.962  14.322791
1.961  14.340389
1.960  14.333353
1.959  14.297352
1.958  14.220536
1.957  14.367697
1.956  14.230196
1.955  14.368966
1.954  14.190286
1.953  14.289871
1.952  14.146448
1.951  14.334746
1.950  14.199597
1.949  14.268089
1.948  14.221670
1.947  14.313029
1.946  14.147340
1.945  14.266953
1.944  14.176316
1.943  14.246486
1.942  14.044717
1.941  14.286462
1.940  14.094983
1.939  14.156562
1.938  14.110430
1.937  14.160114
1.936  14.101786
1.935  14.246884
1.934  14.080095
1.933  14.170901
1.932  14.145013
1.931  14.231305
1.930  14.118042
1.929  14.266062
1.928  14.074314
1.927  14.248821
1.926  13.931474
1.925  14.261500
1.924  14.023968
1.923  14.192129
1.922  14.042434
1.921  14.210814
1.920  14.050967
1.919  14.137105
1.918  14.139107
1.917  14.209053
1.916  14.125643
1.915  14.169299
1.914  14.178787
1.913  14.219793
1.912  14.132033
1.911  14.293855
1.910  14.186221
1.909  14.293658
1.908  14.213622
1.907  14.282405
1.906  14.228163
1.905  14.335853
1.904  14.198167
1.903  14.343030
1.902  14.285199
1.901  14.339890
1.900  14.249852
1.899  14.406147
1.898  14.324755
1.897  14.431208
1.896  14.396372
1.895  14.449722
1.894  14.405752
1.893  14.479017
1.892  14.446546
1.891  14.555774
1.890  14.516978
1.889  14.527276
1.888  14.491297
1.887  14.564419
1.886  14.411280
1.885  14.562585
1.884  14.541713
1.883  14.571985
1.882  14.539755
1.881  14.570621
1.880  14.537540
1.879  14.557890
1.878  14.568732
1.877  14.641593
1.876  14.555221
1.875  14.649361
1.874  14.494416
1.873  14.592396
1.872  14.541390
1.871  14.508967
1.870  14.556837
1.869  14.537892
1.868  14.555421
1.867  14.610106
1.866  14.612388
1.865  14.673898
1.864  14.601850
1.863  14.708690
1.862  14.718919
1.861  14.713892
1.860  14.659646
1.859  14.636320
1.858  14.632177
1.857  14.679952
1.856  14.651212
1.855  14.665646
1.854  14.622752
1.853  14.707322
1.852  14.651459
1.851  14.707466
1.850  14.597055
1.849  14.602295
1.848  14.611603
1.847  14.732784
1.846  14.641955
1.845  14.696367
1.844  14.707970
1.843  14.693410
1.842  14.671589
1.841  14.746348
1.840  14.720651
1.839  14.683267
1.838  14.663384
1.837  14.635692
1.836  14.582871
1.835  14.696346
1.834  14.660449
1.833  14.719446
1.832  14.697874
1.831  14.681818
1.830  14.638619
1.829  14.740872
1.828  14.734610
1.827  14.729473
1.826  14.716596
1.825  14.731687
1.824  14.748359
1.823  14.740593
1.822  14.669986
1.821  14.710026
1.820  14.684048
1.819  14.687882
1.818  14.688012
1.817  14.767066
1.816  14.738499
1.815  14.734826
1.814  14.697262
1.813  14.739470
1.812  14.673023
1.811  14.740078
1.810  14.791838
1.809  14.762827
1.808  14.736621
1.807  14.783291
1.806  14.721342
1.805  14.740812
1.804  14.768790
1.803  14.728141
1.802  14.704946
1.801  14.764585
1.800  14.758834
1.799  14.755652
1.798  14.758200
1.797  14.764390
1.796  14.715110
1.795  14.723358
1.794  14.709922
1.793  14.749724
1.792  14.750805
1.791  14.737769
1.790  14.717097
1.789  14.736558
1.788  14.753059
1.787  14.757789
1.786  14.770207
1.785  14.706022
1.784  14.743656
1.783  14.788423
1.782  14.752002
1.781  14.731957
1.780  14.788626
1.779  14.739118
1.778  14.709742
1.777  14.785011
1.776  14.743859
1.775  14.704981
1.774  14.748664
1.773  14.692450
1.772  14.709037
1.771  14.738684
1.770  14.761084
1.769  14.779757
1.768  14.780694
1.767  14.778978
1.766  14.787988
1.765  14.763097
1.764  14.725366
1.763  14.708473
1.762  14.746901
1.761  14.732299
1.760  14.762328
1.759  14.746274
1.758  14.762289
1.757  14.728790
1.756  14.769454
1.755  14.775912
1.754  14.752871
1.753  14.713030
1.752  14.757988
1.751  14.757082
1.750  14.830147
1.749  14.818582
1.748  14.829735
1.747  14.814358
1.746  14.798574
1.745  14.784999
1.744  14.804897
1.743  14.745509
1.742  14.802499
1.741  14.729643
1.740  14.796506
1.739  14.811798
1.738  14.886672
1.737  14.827180
1.736  14.836559
1.735  14.806354
1.734  14.857895
1.733  14.831807
1.732  14.866219
1.731  14.798325
1.730  14.810639
1.729  14.780266
1.728  14.893126
1.727  14.847659
1.726  14.837031
1.725  14.851937
1.724  14.866991
1.723  14.778576
1.722  14.838172
1.721  14.803968
1.720  14.863678
1.719  14.809029
1.718  14.877371
1.717  14.816064
1.716  14.855224
1.715  14.772027
1.714  14.849135
1.713  14.801981
1.712  14.854053
1.711  14.856587
1.710  14.962749
1.709  14.834976
1.708  14.855362
1.707  14.824236
1.706  14.933020
1.705  14.837502
1.704  14.917641
1.703  14.846192
1.702  14.870694
1.701  14.786608
1.700  14.921369
1.699  14.823162
1.698  14.902087
1.697  14.801032
1.696  14.899301
1.695  14.822809
1.694  14.983652
1.693  14.847976
1.692  14.925997
1.691  14.829111
1.690  14.970188
1.689  14.830055
1.688  14.924593
1.687  14.843280
1.686  14.863863
1.685  14.834545
1.684  14.866989
1.683  14.862484
1.682  14.931999
1.681  14.868544
1.680  14.917788
1.679  14.848758
1.678  14.946036
1.677  14.875753
1.676  14.944080
1.675  14.872986
1.674  14.921791
1.673  14.887578
1.672  15.002619
1.671  14.874361
1.670  14.961203
1.669  14.984251
1.668  14.788202
1.667  14.957263
1.666  14.870365
1.665  14.803346
1.664  14.937717
1.663  14.853054
1.662  14.907226
1.661  14.909824
1.660  14.972271
1.659  14.880357
1.658  14.935349
1.657  14.893337
1.656  15.050771
1.655  14.904189
1.654  15.030630
1.653  14.909799
1.652  14.920975
1.651  14.916363
1.650  14.949974
1.649  14.812712
1.648  15.028665
1.647  14.975495
1.646  15.006000
1.645  14.866815
1.644  14.986185
1.643  14.832888
1.642  15.073271
1.641  14.782569
1.640  15.057570
1.639  14.933634
1.638  15.027648
1.637  14.843064
1.636  14.954402
1.635  14.886862
1.634  15.002410
1.633  14.954671
1.632  15.084959
1.631  14.910384
1.630  14.933540
1.629  14.925459
1.628  15.005537
1.627  14.913908
1.626  14.935108
1.625  14.982432
1.624  14.974976
1.623  14.949663
1.622  15.003857
1.621  14.955643
1.620  15.004317
1.619  14.913473
1.618  14.936369
1.617  15.008704
1.616  14.996484
1.615  14.956275
1.614  15.070055
1.613  14.980955
1.612  14.948688
1.611  14.963369
1.610  15.117534
1.609  14.916946
1.608  15.055938
1.607  15.026477
1.606  15.097637
1.605  15.025450
1.604  15.081960
1.603  15.016283
1.602  15.116733
1.601  15.017032
1.600  15.057471
1.599  14.974972
1.598  15.106789
1.597  14.964512
1.596  15.073482
1.595  15.009925
1.594  15.102861
1.593  14.966742
1.592  15.028509
1.591  15.016359
1.590  15.117529
1.589  15.045149
1.588  15.150252
1.587  15.083359
1.586  15.048865
1.585  15.062202
1.584  15.091070
1.583  15.026201
1.582  15.069595
1.581  15.034496
1.580  15.059701
1.579  15.088095
1.578  15.117592
1.577  15.008520
1.576  15.130330
1.575  15.040171
1.574  15.098172
1.573  15.062333
1.572  15.128952
1.571  15.093517
1.570  15.137895
1.569  15.079928
1.568  15.171147
1.567  15.067475
1.566  15.145315
1.565  15.099547
1.564  15.126042
1.563  15.093649
1.562  15.180734
1.561  15.148804
1.560  15.165466
1.559  15.127016
1.558  15.193341
1.557  15.132072
1.556  15.081407
1.555  15.076786
1.554  15.084389
1.553  15.012329
1.552  15.116654
1.551  15.140109
1.550  15.148480
1.549  15.107321
1.548  15.146404
1.547  15.120686
1.546  15.145355
1.545  15.128170
1.544  15.132672
1.543  15.161684
1.542  15.176207
1.541  15.135568
1.540  15.196887
1.539  15.226144
1.538  15.225376
1.537  15.187056
1.536  15.251163
1.535  15.165141
1.534  15.222666
1.533  15.172650
1.532  15.149345
1.531  15.135194
1.530  15.253087
1.529  15.290457
1.528  15.260956
1.527  15.196438
1.526  15.193381
1.525  15.172076
1.524  15.247639
1.523  15.205869
1.522  15.220934
1.521  15.264283
1.520  15.232647
1.519  15.177023
1.518  15.233991
1.517  15.209377
1.516  15.195005
1.515  15.263899
1.514  15.258599
1.513  15.209284
1.512  15.263371
1.511  15.262201
1.510  15.289088
1.509  15.276618
1.508  15.256599
1.507  15.225696
1.506  15.234439
1.505  15.239763
1.504  15.289715
1.503  15.318595
1.502  15.301263
1.501  15.283377
1.500  15.310248
1.499  15.349396
1.498  15.334537
1.497  15.327719
1.496  15.337248
1.495  15.331481
1.494  15.309887
1.493  15.305059
1.492  15.271361
1.491  15.278684
1.490  15.343093
1.489  15.342700
1.488  15.300673
1.487  15.308548
1.486  15.302979
1.485  15.342548
1.484  15.363124
1.483  15.412789
1.482  15.354425
1.481  15.328444
1.480  15.304414
1.479  15.318013
1.478  15.324195
1.477  15.347568
1.476  15.339399
1.475  15.379246
1.474  15.347933
1.473  15.369828
1.472  15.385992
1.471  15.430558
1.470  15.392211
1.469  15.373132
1.468  15.429616
1.467  15.439670
1.466  15.379447
1.465  15.406858
1.464  15.339183
1.463  15.414980
1.462  15.436341
1.461  15.471277
1.460  15.423033
1.459  15.454666
1.458  15.373695
1.457  15.402265
1.456  15.416027
1.455  15.415949
1.454  15.408862
1.453  15.460941
1.452  15.443708
1.451  15.480496
1.450  15.444404
1.449  15.446134
1.448  15.511513
1.447  15.529966
1.446  15.458059
1.445  15.498111
1.444  15.459184
1.443  15.574063
1.442  15.466237
1.441  15.486741
1.440  15.434845
1.439  15.574393
1.438  15.473504
1.437  15.496773
1.436  15.473930
1.435  15.548354
1.434  15.486485
1.433  15.533320
1.432  15.484313
1.431  15.559028
1.430  15.464949
1.429  15.564856
1.428  15.529941
1.427  15.545634
