Name: Argillaceous Sandstone
Type: Rock
Class: Sedimentary
Subclass:  Sandstone
Particle Size: Solid surface
Sample No.: Ward63.txt
Owner: JPL
Wavelength range:  VNIR SWIR IR
Origin: Ward's Collection of American Rocks.  Sample locality - Portageville, Wyoming County, New York.
Collected by:  Ward's Natural Science
Description: A light greenish-gray, fine-grained sandstone.
Geologic age - Devonian.




Measurement: Hemispherical reflectance
First Column: X
Second Column: Y
X Units: Wavelength (micrometers)
Y Units: Reflectance (percent)
First X Value: 2.500
Last X Value: 0.400
Number of X Values: 2101
Additional information: None

2.500  23.144182
2.499  22.647749
2.498  23.016452
2.497  23.076321
2.496  22.810522
2.495  22.944495
2.494  23.116684
2.493  22.813295
2.492  23.134933
2.491  22.933930
2.490  23.047780
2.489  22.961753
2.488  23.204312
2.487  22.977889
2.486  23.225734
2.485  22.987976
2.484  23.129555
2.483  23.054750
2.482  23.279172
2.481  23.014165
2.480  23.211722
2.479  23.036271
2.478  23.198721
2.477  23.165924
2.476  23.101273
2.475  23.066401
2.474  23.280081
2.473  23.149804
2.472  23.202366
2.471  23.077306
2.470  23.316609
2.469  23.202660
2.468  23.318368
2.467  23.133688
2.466  23.298295
2.465  23.155039
2.464  23.405262
2.463  23.310847
2.462  23.352753
2.461  23.087486
2.460  23.322009
2.459  23.286552
2.458  23.386155
2.457  23.201895
2.456  23.241635
2.455  23.199468
2.454  23.379977
2.453  23.217905
2.452  23.473417
2.451  23.303235
2.450  23.462127
2.449  23.369919
2.448  23.409017
2.447  23.319813
2.446  23.398502
2.445  23.339395
2.444  23.469502
2.443  23.324918
2.442  23.390912
2.441  23.374987
2.440  23.452950
2.439  23.430314
2.438  23.506975
2.437  23.553814
2.436  23.633778
2.435  23.453587
2.434  23.576564
2.433  23.495971
2.432  23.611005
2.431  23.565522
2.430  23.662424
2.429  23.621553
2.428  23.716813
2.427  23.671420
2.426  23.764943
2.425  23.799524
2.424  23.891828
2.423  23.918556
2.422  23.943119
2.421  23.921560
2.420  24.057859
2.419  23.979657
2.418  24.056191
2.417  24.041581
2.416  24.167741
2.415  23.995336
2.414  24.223507
2.413  24.264789
2.412  24.315869
2.411  24.300394
2.410  24.340223
2.409  24.324900
2.408  24.307250
2.407  24.299791
2.406  24.406320
2.405  24.420920
2.404  24.439151
2.403  24.369883
2.402  24.410322
2.401  24.487755
2.400  24.478172
2.399  24.449640
2.398  24.451581
2.397  24.458027
2.396  24.462493
2.395  24.436507
2.394  24.475296
2.393  24.424576
2.392  24.453577
2.391  24.450332
2.390  24.437806
2.389  24.396232
2.388  24.404235
2.387  24.386577
2.386  24.405271
2.385  24.326232
2.384  24.390026
2.383  24.393401
2.382  24.342523
2.381  24.309693
2.380  24.352688
2.379  24.325903
2.378  24.307773
2.377  24.320624
2.376  24.307759
2.375  24.240640
2.374  24.257273
2.373  24.184438
2.372  24.216959
2.371  24.218969
2.370  24.167333
2.369  24.122510
2.368  24.132488
2.367  24.129229
2.366  24.132111
2.365  24.097820
2.364  24.017188
2.363  24.001962
2.362  24.063233
2.361  24.018392
2.360  23.975806
2.359  23.974600
2.358  23.988123
2.357  23.949176
2.356  23.951051
2.355  23.962593
2.354  23.952941
2.353  23.952005
2.352  23.946873
2.351  24.008911
2.350  23.962068
2.349  23.929776
2.348  23.927065
2.347  23.988612
2.346  24.116622
2.345  24.136240
2.344  24.077249
2.343  24.092829
2.342  24.121736
2.341  24.194663
2.340  24.256995
2.339  24.323639
2.338  24.388712
2.337  24.433733
2.336  24.449473
2.335  24.530744
2.334  24.592343
2.333  24.643524
2.332  24.684171
2.331  24.768841
2.330  24.775140
2.329  24.839273
2.328  24.946840
2.327  25.007155
2.326  25.012640
2.325  25.120195
2.324  25.138876
2.323  25.205895
2.322  25.284369
2.321  25.428700
2.320  25.440879
2.319  25.449130
2.318  25.471107
2.317  25.560531
2.316  25.597224
2.315  25.712934
2.314  25.692333
2.313  25.768432
2.312  25.803651
2.311  25.889237
2.310  25.884484
2.309  25.954981
2.308  26.017546
2.307  26.059986
2.306  26.113163
2.305  26.225496
2.304  26.145702
2.303  26.189887
2.302  26.234506
2.301  26.354800
2.300  26.406677
2.299  26.443469
2.298  26.424424
2.297  26.445271
2.296  26.412256
2.295  26.523912
2.294  26.524173
2.293  26.543517
2.292  26.533345
2.291  26.637827
2.290  26.538010
2.289  26.632095
2.288  26.548541
2.287  26.637444
2.286  26.625043
2.285  26.648297
2.284  26.639993
2.283  26.655549
2.282  26.602831
2.281  26.590159
2.280  26.603549
2.279  26.613163
2.278  26.549572
2.277  26.593405
2.276  26.561594
2.275  26.566169
2.274  26.450044
2.273  26.526526
2.272  26.379662
2.271  26.422590
2.270  26.352519
2.269  26.427398
2.268  26.325125
2.267  26.358913
2.266  26.249740
2.265  26.163303
2.264  26.164418
2.263  26.133004
2.262  26.125390
2.261  26.181056
2.260  25.982896
2.259  26.087123
2.258  25.997529
2.257  26.120785
2.256  25.993290
2.255  26.087032
2.254  25.911756
2.253  26.065457
2.252  26.030336
2.251  26.023333
2.250  26.064220
2.249  26.057254
2.248  26.110324
2.247  26.163817
2.246  26.128561
2.245  26.246716
2.244  26.161740
2.243  26.264535
2.242  26.315913
2.241  26.350410
2.240  26.329443
2.239  26.451911
2.238  26.398265
2.237  26.474615
2.236  26.414152
2.235  26.435874
2.234  26.464407
2.233  26.491522
2.232  26.362285
2.231  26.456874
2.230  26.299545
2.229  26.476098
2.228  26.365074
2.227  26.428565
2.226  26.268370
2.225  26.352602
2.224  26.149790
2.223  26.263380
2.222  26.148377
2.221  26.155448
2.220  26.031448
2.219  26.095423
2.218  26.012699
2.217  26.036167
2.216  25.826487
2.215  25.938896
2.214  25.832508
2.213  25.859526
2.212  25.852749
2.211  25.673970
2.210  25.798885
2.209  25.830876
2.208  25.720226
2.207  25.918412
2.206  25.730548
2.205  25.875096
2.204  25.803365
2.203  25.934160
2.202  25.879400
2.201  25.986278
2.200  26.008296
2.199  26.115103
2.198  26.161674
2.197  26.231757
2.196  26.134328
2.195  26.363188
2.194  26.382903
2.193  26.487067
2.192  26.573111
2.191  26.754781
2.190  26.713461
2.189  26.976209
2.188  26.968281
2.187  27.104730
2.186  27.102619
2.185  27.219173
2.184  27.333896
2.183  27.507620
2.182  27.495994
2.181  27.658285
2.180  27.691039
2.179  27.833359
2.178  27.850450
2.177  27.987007
2.176  27.946880
2.175  28.141098
2.174  28.137265
2.173  28.230858
2.172  28.225954
2.171  28.334095
2.170  28.344743
2.169  28.487194
2.168  28.543169
2.167  28.514099
2.166  28.610139
2.165  28.654075
2.164  28.649587
2.163  28.716198
2.162  28.712299
2.161  28.794926
2.160  28.731882
2.159  28.866981
2.158  28.830184
2.157  28.862684
2.156  28.870109
2.155  28.981573
2.154  28.929802
2.153  29.030403
2.152  28.994408
2.151  29.035618
2.150  29.015557
2.149  29.118839
2.148  29.104751
2.147  29.146052
2.146  29.097150
2.145  29.138342
2.144  29.039344
2.143  29.118286
2.142  29.160385
2.141  29.202956
2.140  29.193282
2.139  29.164476
2.138  29.118842
2.137  29.168568
2.136  29.127576
2.135  29.178804
2.134  29.119304
2.133  29.173536
2.132  29.121678
2.131  29.137887
2.130  29.119241
2.129  29.148533
2.128  29.111299
2.127  29.118213
2.126  29.099936
2.125  29.084537
2.124  29.041806
2.123  29.045315
2.122  29.020368
2.121  29.029532
2.120  29.013806
2.119  29.017448
2.118  29.006093
2.117  28.995463
2.116  28.959059
2.115  28.942864
2.114  28.924620
2.113  28.972091
2.112  28.930582
2.111  28.939137
2.110  28.898659
2.109  28.935166
2.108  28.904616
2.107  28.901201
2.106  28.859017
2.105  28.907424
2.104  28.920455
2.103  28.921513
2.102  28.912406
2.101  28.954026
2.100  28.887355
2.099  28.921823
2.098  28.911101
2.097  28.985124
2.096  28.986045
2.095  28.961469
2.094  28.988953
2.093  29.040925
2.092  28.989024
2.091  29.040029
2.090  29.046875
2.089  29.065376
2.088  29.102486
2.087  29.087105
2.086  29.117004
2.085  29.133991
2.084  29.101075
2.083  29.112724
2.082  29.108020
2.081  29.202211
2.080  29.226664
2.079  29.166297
2.078  29.162987
2.077  29.204525
2.076  29.258647
2.075  29.238585
2.074  29.211943
2.073  29.226838
2.072  29.220230
2.071  29.212750
2.070  29.214558
2.069  29.275648
2.068  29.295204
2.067  29.260086
2.066  29.285757
2.065  29.327867
2.064  29.297448
2.063  29.272592
2.062  29.291422
2.061  29.309565
2.060  29.333561
2.059  29.310518
2.058  29.359090
2.057  29.344138
2.056  29.323958
2.055  29.328884
2.054  29.341940
2.053  29.324472
2.052  29.354431
2.051  29.323957
2.050  29.330948
2.049  29.348988
2.048  29.374646
2.047  29.354532
2.046  29.420721
2.045  29.349184
2.044  29.320617
2.043  29.355078
2.042  29.387800
2.041  29.380747
2.040  29.346640
2.039  29.289508
2.038  29.344864
2.037  29.302673
2.036  29.313145
2.035  29.353566
2.034  29.347143
2.033  29.294713
2.032  29.272241
2.031  29.253706
2.030  29.325821
2.029  29.274752
2.028  29.295155
2.027  29.265242
2.026  29.321536
2.025  29.301608
2.024  29.298199
2.023  29.298812
2.022  29.252797
2.021  29.232001
2.020  29.235320
2.019  29.172487
2.018  29.269440
2.017  29.209787
2.016  29.208070
2.015  29.156041
2.014  29.179487
2.013  29.140766
2.012  29.163031
2.011  29.150827
2.010  29.169009
2.009  29.155409
2.008  29.148082
2.007  29.091240
2.006  29.173475
2.005  29.137720
2.004  29.198941
2.003  29.144363
2.002  29.169956
2.001  29.146085
2.000  29.194724
1.999  29.098798
1.998  29.138226
1.997  29.062062
1.996  29.173821
1.995  29.112218
1.994  29.126175
1.993  29.099426
1.992  29.125996
1.991  29.146570
1.990  29.161335
1.989  29.117807
1.988  29.129458
1.987  29.105473
1.986  29.141278
1.985  29.099900
1.984  29.142539
1.983  29.118815
1.982  29.167209
1.981  29.046262
1.980  29.080900
1.979  29.057018
1.978  29.110623
1.977  29.104002
1.976  29.148875
1.975  29.034868
1.974  29.113996
1.973  29.071242
1.972  29.055747
1.971  29.067997
1.970  29.139373
1.969  29.067633
1.968  29.148764
1.967  29.070657
1.966  29.156105
1.965  28.991830
1.964  29.075569
1.963  28.986202
1.962  29.141898
1.961  29.069104
1.960  29.061930
1.959  28.956543
1.958  29.155833
1.957  29.100787
1.956  29.031420
1.955  28.984950
1.954  29.062478
1.953  28.953612
1.952  28.972455
1.951  29.007621
1.950  29.068357
1.949  28.990132
1.948  29.033481
1.947  28.965226
1.946  29.020711
1.945  28.937972
1.944  29.058820
1.943  28.944407
1.942  29.064662
1.941  28.947082
1.940  29.083199
1.939  28.999981
1.938  29.089967
1.937  28.968349
1.936  29.055229
1.935  28.995097
1.934  29.040236
1.933  29.048272
1.932  29.077941
1.931  28.974456
1.930  29.090425
1.929  28.980593
1.928  29.180560
1.927  29.092775
1.926  29.060616
1.925  29.074931
1.924  29.153538
1.923  29.003906
1.922  29.125474
1.921  29.008514
1.920  29.140351
1.919  29.079285
1.918  29.212896
1.917  29.002690
1.916  29.192566
1.915  28.980085
1.914  29.141278
1.913  29.028954
1.912  29.238108
1.911  29.118234
1.910  29.275943
1.909  29.186717
1.908  29.223039
1.907  29.301613
1.906  29.346009
1.905  29.343836
1.904  29.503441
1.903  29.417588
1.902  29.568151
1.901  29.612346
1.900  29.629692
1.899  29.644287
1.898  29.751433
1.897  29.804186
1.896  29.866568
1.895  29.923389
1.894  30.015401
1.893  29.962318
1.892  30.029828
1.891  30.105281
1.890  30.153951
1.889  30.168774
1.888  30.295930
1.887  30.239811
1.886  30.331873
1.885  30.323642
1.884  30.482833
1.883  30.400678
1.882  30.443041
1.881  30.429629
1.880  30.531122
1.879  30.571742
1.878  30.581989
1.877  30.474562
1.876  30.620430
1.875  30.537171
1.874  30.667208
1.873  30.583396
1.872  30.639067
1.871  30.677194
1.870  30.720971
1.869  30.715712
1.868  30.706049
1.867  30.695905
1.866  30.749187
1.865  30.690816
1.864  30.816785
1.863  30.762260
1.862  30.819770
1.861  30.744424
1.860  30.801203
1.859  30.698146
1.858  30.832574
1.857  30.804666
1.856  30.801852
1.855  30.846402
1.854  30.845459
1.853  30.811924
1.852  30.870267
1.851  30.818096
1.850  30.856825
1.849  30.827620
1.848  30.862018
1.847  30.869568
1.846  30.862907
1.845  30.871150
1.844  30.933693
1.843  30.904424
1.842  30.929831
1.841  30.876803
1.840  30.937588
1.839  30.899741
1.838  30.985859
1.837  30.868191
1.836  30.894262
1.835  30.883355
1.834  30.925945
1.833  30.959286
1.832  31.015520
1.831  30.930997
1.830  30.982864
1.829  30.915128
1.828  30.951249
1.827  30.977123
1.826  30.999370
1.825  30.930515
1.824  31.001072
1.823  30.971797
1.822  30.992133
1.821  30.962083
1.820  30.966185
1.819  30.938308
1.818  30.951780
1.817  30.928753
1.816  30.992188
1.815  30.998947
1.814  31.026732
1.813  30.956164
1.812  30.959230
1.811  30.986051
1.810  31.002127
1.809  30.998920
1.808  31.000231
1.807  31.040267
1.806  31.041737
1.805  31.008823
1.804  31.012480
1.803  31.020290
1.802  31.059577
1.801  31.030947
1.800  31.033402
1.799  31.018362
1.798  31.044209
1.797  31.043763
1.796  31.020089
1.795  31.004906
1.794  31.038125
1.793  31.046386
1.792  31.029895
1.791  31.010191
1.790  31.014764
1.789  31.011754
1.788  30.988155
1.787  31.006725
1.786  31.017160
1.785  30.960670
1.784  30.987955
1.783  31.030147
1.782  31.050239
1.781  31.053609
1.780  31.001813
1.779  30.981959
1.778  30.995782
1.777  31.021274
1.776  31.051419
1.775  31.082458
1.774  31.042738
1.773  31.023075
1.772  30.998987
1.771  31.014749
1.770  31.005281
1.769  31.041050
1.768  31.034339
1.767  31.034849
1.766  31.095874
1.765  31.079991
1.764  31.016673
1.763  31.011188
1.762  31.058421
1.761  31.090642
1.760  31.049070
1.759  31.029457
1.758  30.998996
1.757  31.003032
1.756  31.045341
1.755  31.055679
1.754  31.028074
1.753  31.047457
1.752  31.025595
1.751  31.042336
1.750  31.023903
1.749  31.068254
1.748  31.019385
1.747  31.019091
1.746  31.017115
1.745  31.073008
1.744  31.022768
1.743  31.051497
1.742  30.994848
1.741  31.036074
1.740  31.064917
1.739  31.105860
1.738  31.081586
1.737  31.129679
1.736  31.070161
1.735  31.083837
1.734  31.022113
1.733  31.085642
1.732  31.049948
1.731  31.083309
1.730  31.081999
1.729  31.056728
1.728  31.023916
1.727  31.110530
1.726  31.049247
1.725  31.119081
1.724  31.087420
1.723  31.073217
1.722  31.098646
1.721  31.100079
1.720  31.052727
1.719  31.127496
1.718  31.086024
1.717  31.090864
1.716  31.051872
1.715  31.102151
1.714  31.052276
1.713  31.167636
1.712  31.072866
1.711  31.118469
1.710  31.075463
1.709  31.109655
1.708  31.035331
1.707  31.075598
1.706  31.035558
1.705  31.022299
1.704  30.982279
1.703  31.063430
1.702  31.004002
1.701  31.070080
1.700  31.018133
1.699  31.071834
1.698  31.009534
1.697  31.115101
1.696  31.032219
1.695  31.086590
1.694  30.981883
1.693  31.015703
1.692  31.052238
1.691  31.015251
1.690  30.966405
1.689  31.016557
1.688  30.962601
1.687  31.069685
1.686  30.941734
1.685  31.010590
1.684  30.939178
1.683  31.052501
1.682  30.945550
1.681  31.036309
1.680  30.948454
1.679  30.968141
1.678  30.969247
1.677  30.933806
1.676  30.921431
1.675  31.007764
1.674  30.965220
1.673  30.946192
1.672  30.971571
1.671  30.964445
1.670  30.954523
1.669  31.011559
1.668  30.746164
1.667  31.065485
1.666  30.866680
1.665  30.992576
1.664  30.912180
1.663  31.058153
1.662  30.852741
1.661  30.897158
1.660  30.848939
1.659  30.973753
1.658  30.875594
1.657  30.962559
1.656  30.809493
1.655  31.006525
1.654  30.848871
1.653  30.940385
1.652  30.864193
1.651  30.897771
1.650  30.839736
1.649  30.827374
1.648  30.836838
1.647  30.924855
1.646  30.866600
1.645  30.913782
1.644  30.791710
1.643  30.887408
1.642  30.862181
1.641  30.787449
1.640  30.910846
1.639  30.921633
1.638  30.729020
1.637  30.911934
1.636  30.827593
1.635  30.838477
1.634  30.753673
1.633  30.898569
1.632  30.716175
1.631  30.899111
1.630  30.781961
1.629  30.899076
1.628  30.811201
1.627  30.834893
1.626  30.764319
1.625  30.794965
1.624  30.715474
1.623  30.849544
1.622  30.803271
1.621  30.790264
1.620  30.707632
1.619  30.834204
1.618  30.704324
1.617  30.827920
1.616  30.715166
1.615  30.818469
1.614  30.699947
1.613  30.750205
1.612  30.685025
1.611  30.760556
1.610  30.659070
1.609  30.731929
1.608  30.640455
1.607  30.723446
1.606  30.660479
1.605  30.709142
1.604  30.666044
1.603  30.702559
1.602  30.689831
1.601  30.731477
1.600  30.541040
1.599  30.658960
1.598  30.652816
1.597  30.647034
1.596  30.690440
1.595  30.661487
1.594  30.619819
1.593  30.636292
1.592  30.624789
1.591  30.637549
1.590  30.634244
1.589  30.554738
1.588  30.523918
1.587  30.560055
1.586  30.555211
1.585  30.623598
1.584  30.544168
1.583  30.622963
1.582  30.548372
1.581  30.576901
1.580  30.488172
1.579  30.566189
1.578  30.508536
1.577  30.545108
1.576  30.538780
1.575  30.522521
1.574  30.555828
1.573  30.558571
1.572  30.469912
1.571  30.496037
1.570  30.457863
1.569  30.529090
1.568  30.414973
1.567  30.472065
1.566  30.410155
1.565  30.410851
1.564  30.424636
1.563  30.468182
1.562  30.454076
1.561  30.471597
1.560  30.373920
1.559  30.405818
1.558  30.338724
1.557  30.427998
1.556  30.418731
1.555  30.414696
1.554  30.406216
1.553  30.469641
1.552  30.378244
1.551  30.364935
1.550  30.376103
1.549  30.379720
1.548  30.340083
1.547  30.374497
1.546  30.295035
1.545  30.321320
1.544  30.327157
1.543  30.336363
1.542  30.294673
1.541  30.293897
1.540  30.307964
1.539  30.369501
1.538  30.331342
1.537  30.336600
1.536  30.326735
1.535  30.332773
1.534  30.273440
1.533  30.285307
1.532  30.258755
1.531  30.302735
1.530  30.244388
1.529  30.227903
1.528  30.227738
1.527  30.219675
1.526  30.178303
1.525  30.228298
1.524  30.246203
1.523  30.233179
1.522  30.218187
1.521  30.235871
1.520  30.141351
1.519  30.148585
1.518  30.202822
1.517  30.235779
1.516  30.181452
1.515  30.210669
1.514  30.192255
1.513  30.153696
1.512  30.131237
1.511  30.123022
1.510  30.085383
1.509  30.124387
1.508  30.173585
1.507  30.154131
1.506  30.102902
1.505  30.104773
1.504  30.095701
1.503  30.138455
1.502  30.121326
1.501  30.076812
1.500  30.111782
1.499  30.110409
1.498  30.078517
1.497  30.048772
1.496  30.050901
1.495  30.057378
1.494  30.065953
1.493  30.075801
1.492  30.055846
1.491  30.011099
1.490  30.018479
1.489  29.958271
1.488  29.975161
1.487  29.965344
1.486  29.893311
1.485  29.934022
1.484  29.982000
1.483  29.929388
1.482  29.981260
1.481  29.970609
1.480  29.923102
1.479  29.888988
1.478  29.894017
1.477  29.832036
1.476  29.804460
1.475  29.794709
1.474  29.857122
1.473  29.839528
1.472  29.852439
1.471  29.786454
1.470  29.787209
1.469  29.762875
1.468  29.799321
1.467  29.678399
1.466  29.697529
1.465  29.676869
1.464  29.728843
1.463  29.669414
1.462  29.664811
1.461  29.644206
1.460  29.661550
1.459  29.624771
1.458  29.689785
1.457  29.636424
1.456  29.612598
1.455  29.589370
1.454  29.612012
1.453  29.559338
1.452  29.542202
1.451  29.508138
1.450  29.544167
1.449  29.445102
1.448  29.525535
1.447  29.477147
1.446  29.469298
1.445  29.433308
1.444  29.487184
1.443  29.433355
1.442  29.472252
1.441  29.360300
1.440  29.429116
1.439  29.354443
1.438  29.365623
1.437  29.268097
1.436  29.345775
1.435  29.297107
1.434  29.314213
1.433  29.225306
1.432  29.220240
1.431  29.101566
1.430  29.115951
1.429  29.042085
1.428  29.049826
1.427  28.899322
