Name: Labradorite (Feldspar) (NaSi,CaAl)AlSi_2O_8
Type: Mineral
Class: Silicates
Subclass: Tectosilicates
Particle Size: 45-125um
Sample No.: TS-2A
Owner: JPL
Wavelength range: VNIR-SWIR
Origin: Mexico, Sonora, Pinacate.
Collected by:  Burminco
Description:




 
Measurement: Hemispherical reflectance
First Column: X
Second Column: Y
X Units: Wavelength (micrometers)
Y Units: Reflectance (percent)
First X Value: 2.500
Last X Value: 0.400
Number of X Values: 2101
Additional information: ts02aa.txt

2.500  74.997390
2.499  75.124775
2.498  75.117274
2.497  75.064641
2.496  75.060085
2.495  75.231983
2.494  75.091758
2.493  75.019003
2.492  75.006787
2.491  75.106727
2.490  75.091982
2.489  75.202900
2.488  75.129604
2.487  75.138486
2.486  75.246692
2.485  75.285012
2.484  75.239223
2.483  75.337814
2.482  75.246046
2.481  75.223181
2.480  75.174687
2.479  75.180288
2.478  75.321923
2.477  75.072102
2.476  75.146166
2.475  75.350019
2.474  75.265034
2.473  75.251866
2.472  75.272389
2.471  75.312842
2.470  75.367518
2.469  75.361442
2.468  75.365068
2.467  75.387543
2.466  75.524930
2.465  75.493361
2.464  75.367344
2.463  75.423353
2.462  75.497413
2.461  75.480727
2.460  75.551322
2.459  75.500751
2.458  75.512303
2.457  75.437865
2.456  75.453327
2.455  75.398367
2.454  75.463336
2.453  75.486747
2.452  75.486791
2.451  75.437004
2.450  75.401024
2.449  75.458885
2.448  75.558318
2.447  75.440349
2.446  75.594116
2.445  75.617188
2.444  75.477740
2.443  75.552818
2.442  75.604573
2.441  75.583219
2.440  75.642651
2.439  75.577127
2.438  75.595480
2.437  75.619198
2.436  75.513507
2.435  75.686664
2.434  75.681297
2.433  75.672379
2.432  75.692535
2.431  75.619511
2.430  75.710366
2.429  75.603028
2.428  75.651151
2.427  75.675132
2.426  75.643085
2.425  75.746080
2.424  75.698496
2.423  75.682464
2.422  75.703203
2.421  75.704655
2.420  75.782483
2.419  75.712499
2.418  75.654886
2.417  75.750104
2.416  75.814775
2.415  75.836404
2.414  75.739699
2.413  75.742934
2.412  75.772084
2.411  75.762455
2.410  75.839809
2.409  75.834503
2.408  75.874386
2.407  75.805744
2.406  75.819024
2.405  75.792248
2.404  75.824996
2.403  75.827587
2.402  75.866558
2.401  75.889891
2.400  75.840334
2.399  75.866091
2.398  75.921881
2.397  75.938421
2.396  75.933488
2.395  75.989767
2.394  75.981442
2.393  75.938689
2.392  76.020515
2.391  75.952734
2.390  75.951883
2.389  75.993609
2.388  75.900391
2.387  75.920617
2.386  76.002143
2.385  76.065667
2.384  76.052997
2.383  76.035392
2.382  76.083774
2.381  76.069609
2.380  76.098769
2.379  76.098744
2.378  76.046498
2.377  76.140351
2.376  76.189789
2.375  76.142705
2.374  76.121184
2.373  76.138783
2.372  76.211253
2.371  76.230934
2.370  76.280073
2.369  76.269988
2.368  76.282486
2.367  76.324587
2.366  76.271579
2.365  76.231963
2.364  76.225377
2.363  76.243955
2.362  76.301456
2.361  76.306683
2.360  76.281240
2.359  76.301506
2.358  76.321996
2.357  76.336449
2.356  76.357485
2.355  76.321184
2.354  76.314499
2.353  76.277334
2.352  76.288069
2.351  76.313427
2.350  76.314643
2.349  76.366797
2.348  76.342114
2.347  76.376227
2.346  76.420696
2.345  76.371515
2.344  76.375523
2.343  76.346935
2.342  76.301727
2.341  76.298203
2.340  76.346905
2.339  76.334127
2.338  76.328340
2.337  76.343741
2.336  76.342043
2.335  76.353153
2.334  76.342765
2.333  76.280010
2.332  76.302946
2.331  76.303566
2.330  76.277089
2.329  76.281542
2.328  76.249985
2.327  76.262592
2.326  76.213067
2.325  76.173294
2.324  76.201791
2.323  76.221399
2.322  76.179841
2.321  76.171425
2.320  76.169925
2.319  76.137393
2.318  76.085401
2.317  76.130666
2.316  76.147727
2.315  76.170641
2.314  76.113403
2.313  76.110942
2.312  76.074685
2.311  76.078206
2.310  76.076096
2.309  76.090240
2.308  76.082438
2.307  76.037921
2.306  76.068531
2.305  76.125121
2.304  76.092996
2.303  76.135916
2.302  76.169244
2.301  76.136936
2.300  76.068870
2.299  76.027580
2.298  76.034777
2.297  76.019014
2.296  76.087264
2.295  76.006744
2.294  75.996939
2.293  76.021302
2.292  76.065808
2.291  76.067407
2.290  76.076004
2.289  75.983513
2.288  76.027954
2.287  76.063214
2.286  76.018641
2.285  75.989748
2.284  76.007041
2.283  76.017005
2.282  75.954237
2.281  75.932918
2.280  75.899841
2.279  75.979145
2.278  75.890615
2.277  75.868670
2.276  75.926336
2.275  75.912001
2.274  75.785327
2.273  75.875529
2.272  75.856953
2.271  75.804696
2.270  75.789454
2.269  75.848346
2.268  75.939436
2.267  75.942371
2.266  75.941914
2.265  75.883538
2.264  75.811978
2.263  75.889384
2.262  75.868493
2.261  75.895677
2.260  75.828898
2.259  75.807707
2.258  75.794978
2.257  75.828398
2.256  75.760661
2.255  75.780242
2.254  75.776923
2.253  75.791090
2.252  75.818932
2.251  75.828924
2.250  75.817771
2.249  75.726282
2.248  75.777689
2.247  75.803325
2.246  75.717228
2.245  75.802115
2.244  75.749666
2.243  75.899808
2.242  75.783569
2.241  75.728634
2.240  75.740011
2.239  75.789908
2.238  75.722247
2.237  75.856560
2.236  75.812725
2.235  75.833005
2.234  75.824345
2.233  75.821996
2.232  75.825713
2.231  75.883971
2.230  75.777810
2.229  75.790675
2.228  75.806640
2.227  75.821932
2.226  75.819817
2.225  75.752506
2.224  75.807442
2.223  75.844825
2.222  75.783940
2.221  75.786661
2.220  75.885891
2.219  75.905204
2.218  75.806818
2.217  75.885261
2.216  75.937842
2.215  75.834016
2.214  75.827033
2.213  75.916465
2.212  75.973138
2.211  75.871153
2.210  76.000501
2.209  75.951919
2.208  76.000869
2.207  76.085397
2.206  76.047490
2.205  76.114817
2.204  76.121823
2.203  76.063298
2.202  76.085648
2.201  76.145816
2.200  76.125560
2.199  76.212740
2.198  76.186997
2.197  76.251433
2.196  76.179428
2.195  76.153104
2.194  76.164084
2.193  76.165090
2.192  76.187810
2.191  76.265578
2.190  76.152207
2.189  76.125519
2.188  76.317994
2.187  76.266464
2.186  76.226380
2.185  76.299172
2.184  76.303268
2.183  76.351870
2.182  76.318093
2.181  76.360533
2.180  76.445551
2.179  76.428692
2.178  76.414069
2.177  76.421229
2.176  76.389966
2.175  76.518727
2.174  76.473668
2.173  76.533217
2.172  76.557940
2.171  76.579105
2.170  76.561432
2.169  76.637238
2.168  76.668016
2.167  76.648172
2.166  76.696406
2.165  76.704712
2.164  76.747894
2.163  76.866217
2.162  76.782176
2.161  76.841232
2.160  76.923817
2.159  76.864293
2.158  76.784917
2.157  76.853398
2.156  76.851369
2.155  76.937082
2.154  76.917364
2.153  76.889107
2.152  76.938161
2.151  76.970050
2.150  76.953532
2.149  76.976271
2.148  76.904736
2.147  76.957468
2.146  76.980510
2.145  76.915582
2.144  77.000492
2.143  77.015977
2.142  77.003779
2.141  77.005713
2.140  76.961968
2.139  76.923461
2.138  76.944666
2.137  76.921658
2.136  76.922506
2.135  76.902024
2.134  76.894035
2.133  76.841840
2.132  76.823354
2.131  76.801331
2.130  76.769784
2.129  76.749868
2.128  76.708917
2.127  76.688341
2.126  76.681205
2.125  76.660173
2.124  76.596234
2.123  76.578162
2.122  76.471502
2.121  76.475064
2.120  76.510898
2.119  76.475795
2.118  76.424522
2.117  76.375144
2.116  76.298967
2.115  76.288498
2.114  76.253569
2.113  76.183571
2.112  76.149954
2.111  76.142019
2.110  76.052671
2.109  75.976173
2.108  75.945182
2.107  75.915979
2.106  75.889783
2.105  75.863006
2.104  75.858871
2.103  75.811892
2.102  75.775108
2.101  75.709046
2.100  75.647175
2.099  75.673573
2.098  75.672038
2.097  75.686923
2.096  75.637853
2.095  75.662474
2.094  75.726099
2.093  75.723746
2.092  75.674219
2.091  75.704266
2.090  75.725751
2.089  75.723823
2.088  75.785682
2.087  75.784010
2.086  75.759101
2.085  75.757067
2.084  75.759182
2.083  75.819431
2.082  75.826080
2.081  75.844875
2.080  75.863102
2.079  75.830885
2.078  75.864701
2.077  75.901219
2.076  75.921747
2.075  75.878893
2.074  75.862401
2.073  75.892784
2.072  75.922715
2.071  75.933815
2.070  75.918917
2.069  75.937024
2.068  75.925253
2.067  75.937335
2.066  75.946735
2.065  75.975828
2.064  76.033101
2.063  76.018474
2.062  76.043253
2.061  76.041944
2.060  76.033315
2.059  76.021830
2.058  75.979344
2.057  76.017102
2.056  76.069195
2.055  76.085294
2.054  76.121683
2.053  76.118141
2.052  76.097401
2.051  76.142545
2.050  76.142905
2.049  76.128551
2.048  76.128495
2.047  76.137389
2.046  76.176724
2.045  76.153574
2.044  76.191868
2.043  76.175550
2.042  76.107213
2.041  76.167960
2.040  76.244025
2.039  76.252880
2.038  76.219488
2.037  76.212835
2.036  76.247224
2.035  76.238670
2.034  76.225335
2.033  76.212230
2.032  76.257813
2.031  76.280375
2.030  76.228397
2.029  76.239107
2.028  76.258430
2.027  76.223893
2.026  76.256143
2.025  76.264464
2.024  76.191803
2.023  76.215642
2.022  76.214904
2.021  76.196284
2.020  76.204568
2.019  76.190990
2.018  76.235206
2.017  76.172066
2.016  76.206592
2.015  76.226985
2.014  76.221759
2.013  76.240500
2.012  76.257712
2.011  76.217021
2.010  76.213472
2.009  76.143086
2.008  76.171976
2.007  76.236212
2.006  76.232552
2.005  76.194440
2.004  76.181000
2.003  76.199759
2.002  76.195196
2.001  76.222675
2.000  76.261866
1.999  76.240785
1.998  76.225855
1.997  76.198758
1.996  76.173098
1.995  76.152264
1.994  76.201297
1.993  76.147777
1.992  76.112729
1.991  76.031687
1.990  76.094460
1.989  76.101064
1.988  76.040269
1.987  75.953159
1.986  75.999970
1.985  76.099145
1.984  76.021789
1.983  75.997702
1.982  75.994582
1.981  76.045018
1.980  75.985523
1.979  75.899978
1.978  75.935291
1.977  75.925424
1.976  75.814972
1.975  75.909070
1.974  75.911180
1.973  75.976968
1.972  75.923079
1.971  75.904860
1.970  75.910306
1.969  75.876771
1.968  75.882232
1.967  75.836494
1.966  75.813200
1.965  75.832051
1.964  75.856456
1.963  75.837197
1.962  75.875379
1.961  75.857868
1.960  75.867844
1.959  75.809471
1.958  75.769694
1.957  75.829775
1.956  75.782891
1.955  75.833889
1.954  75.830001
1.953  75.836325
1.952  75.829007
1.951  75.783978
1.950  75.821140
1.949  75.803408
1.948  75.793494
1.947  75.779899
1.946  75.783801
1.945  75.806012
1.944  75.761025
1.943  75.810141
1.942  75.814280
1.941  75.736736
1.940  75.797863
1.939  75.761117
1.938  75.769254
1.937  75.795221
1.936  75.822016
1.935  75.788234
1.934  75.749153
1.933  75.818389
1.932  75.765177
1.931  75.824344
1.930  75.780317
1.929  75.798819
1.928  75.793015
1.927  75.871115
1.926  75.779811
1.925  75.835603
1.924  75.778990
1.923  75.796385
1.922  75.917415
1.921  75.879653
1.920  75.862506
1.919  75.816621
1.918  75.855399
1.917  75.870052
1.916  75.964220
1.915  75.892912
1.914  75.915421
1.913  75.904803
1.912  76.001260
1.911  76.011707
1.910  76.024084
1.909  75.936465
1.908  75.998621
1.907  75.999558
1.906  76.038907
1.905  75.974635
1.904  76.047499
1.903  75.925345
1.902  76.044119
1.901  76.111167
1.900  76.054289
1.899  75.995188
1.898  76.080101
1.897  76.112113
1.896  76.091855
1.895  76.163302
1.894  76.134871
1.893  76.145633
1.892  76.194460
1.891  76.111917
1.890  76.122607
1.889  76.168133
1.888  76.130862
1.887  76.090824
1.886  76.197909
1.885  76.169256
1.884  76.128266
1.883  76.127362
1.882  76.178668
1.881  76.203759
1.880  76.197379
1.879  76.097121
1.878  76.210636
1.877  76.218178
1.876  76.245725
1.875  76.204554
1.874  76.159778
1.873  76.210788
1.872  76.236547
1.871  76.165853
1.870  76.199518
1.869  76.254330
1.868  76.200520
1.867  76.189756
1.866  76.235052
1.865  76.182390
1.864  76.204948
1.863  76.164236
1.862  76.233763
1.861  76.234763
1.860  76.198236
1.859  76.201010
1.858  76.229654
1.857  76.214263
1.856  76.228443
1.855  76.226032
1.854  76.224355
1.853  76.168806
1.852  76.209709
1.851  76.215813
1.850  76.193587
1.849  76.108515
1.848  76.157217
1.847  76.139253
1.846  76.243348
1.845  76.154908
1.844  76.180504
1.843  76.173743
1.842  76.210815
1.841  76.161483
1.840  76.206789
1.839  76.169687
1.838  76.221192
1.837  76.167845
1.836  76.144687
1.835  76.078655
1.834  76.113230
1.833  76.137836
1.832  76.179122
1.831  76.136699
1.830  76.107758
1.829  76.119725
1.828  76.125687
1.827  76.123521
1.826  76.099846
1.825  76.061748
1.824  76.045480
1.823  76.024367
1.822  76.053201
1.821  76.062872
1.820  76.090304
1.819  76.032993
1.818  76.077413
1.817  76.060913
1.816  76.059965
1.815  76.042548
1.814  76.034659
1.813  76.025233
1.812  76.033067
1.811  76.031417
1.810  76.024648
1.809  76.006167
1.808  75.995194
1.807  75.963685
1.806  75.962742
1.805  75.972708
1.804  75.960865
1.803  76.006311
1.802  76.008245
1.801  76.011128
1.800  76.010035
1.799  75.982463
1.798  75.989079
1.797  75.959870
1.796  75.935032
1.795  75.944064
1.794  75.920779
1.793  75.912154
1.792  75.880535
1.791  75.855080
1.790  75.864629
1.789  75.841532
1.788  75.815113
1.787  75.826098
1.786  75.832609
1.785  75.835479
1.784  75.801275
1.783  75.789877
1.782  75.772681
1.781  75.733446
1.780  75.726228
1.779  75.764326
1.778  75.765701
1.777  75.742359
1.776  75.756820
1.775  75.766338
1.774  75.729343
1.773  75.722330
1.772  75.660243
1.771  75.659282
1.770  75.687753
1.769  75.700619
1.768  75.670325
1.767  75.679466
1.766  75.672731
1.765  75.663526
1.764  75.637039
1.763  75.601148
1.762  75.614494
1.761  75.587882
1.760  75.603224
1.759  75.618641
1.758  75.616772
1.757  75.572804
1.756  75.576198
1.755  75.615385
1.754  75.610417
1.753  75.609515
1.752  75.619379
1.751  75.642857
1.750  75.608292
1.749  75.548203
1.748  75.541573
1.747  75.541163
1.746  75.603502
1.745  75.573245
1.744  75.536475
1.743  75.536129
1.742  75.522292
1.741  75.542191
1.740  75.493342
1.739  75.553587
1.738  75.565713
1.737  75.565273
1.736  75.538838
1.735  75.546435
1.734  75.479942
1.733  75.509835
1.732  75.516631
1.731  75.486118
1.730  75.495629
1.729  75.500380
1.728  75.529925
1.727  75.518325
1.726  75.427766
1.725  75.459120
1.724  75.463427
1.723  75.482625
1.722  75.536040
1.721  75.527960
1.720  75.537724
1.719  75.487490
1.718  75.405085
1.717  75.408965
1.716  75.413616
1.715  75.378335
1.714  75.425099
1.713  75.401820
1.712  75.422597
1.711  75.399654
1.710  75.312101
1.709  75.383707
1.708  75.351866
1.707  75.385965
1.706  75.398711
1.705  75.305370
1.704  75.280618
1.703  75.215553
1.702  75.241967
1.701  75.318911
1.700  75.226602
1.699  75.251335
1.698  75.250982
1.697  75.314605
1.696  75.220068
1.695  75.228143
1.694  75.186903
1.693  75.304028
1.692  75.246802
1.691  75.120883
1.690  75.111715
1.689  75.141378
1.688  75.221934
1.687  75.187820
1.686  75.221415
1.685  75.116565
1.684  75.151304
1.683  75.189145
1.682  75.133279
1.681  75.191275
1.680  75.032930
1.679  75.175854
1.678  75.101171
1.677  75.097603
1.676  75.096197
1.675  75.114395
1.674  75.110093
1.673  75.095615
1.672  75.056446
1.671  75.104561
1.670  75.064437
1.669  75.105777
1.668  75.015488
1.667  75.064411
1.666  75.014807
1.665  75.005129
1.664  74.968480
1.663  74.970200
1.662  75.014629
1.661  74.990953
1.660  75.055612
1.659  75.058135
1.658  75.031126
1.657  74.983422
1.656  74.971230
1.655  75.055607
1.654  75.005948
1.653  74.942437
1.652  74.912459
1.651  75.047833
1.650  74.903571
1.649  74.850864
1.648  74.854896
1.647  74.884861
1.646  74.878286
1.645  74.915214
1.644  74.913962
1.643  74.947427
1.642  74.865989
1.641  74.828428
1.640  74.879225
1.639  74.992929
1.638  74.850077
1.637  74.883543
1.636  74.819362
1.635  74.808014
1.634  74.874525
1.633  74.812578
1.632  74.815032
1.631  74.803678
1.630  74.781954
1.629  74.810859
1.628  74.840658
1.627  74.826384
1.626  74.783838
1.625  74.772041
1.624  74.711900
1.623  74.731814
1.622  74.702382
1.621  74.786666
1.620  74.734560
1.619  74.740097
1.618  74.675877
1.617  74.745227
1.616  74.621573
1.615  74.732027
1.614  74.628029
1.613  74.663318
1.612  74.685896
1.611  74.725604
1.610  74.617783
1.609  74.623222
1.608  74.636994
1.607  74.658573
1.606  74.571976
1.605  74.591426
1.604  74.557359
1.603  74.594245
1.602  74.575174
1.601  74.527517
1.600  74.466812
1.599  74.475366
1.598  74.533509
1.597  74.523617
1.596  74.518468
1.595  74.507975
1.594  74.486082
1.593  74.404079
1.592  74.443930
1.591  74.431555
1.590  74.380831
1.589  74.358346
1.588  74.400907
1.587  74.359069
1.586  74.412686
1.585  74.327464
1.584  74.259465
1.583  74.257270
1.582  74.217557
1.581  74.345628
1.580  74.292791
1.579  74.244033
1.578  74.174851
1.577  74.189926
1.576  74.256969
1.575  74.140440
1.574  74.173260
1.573  74.222686
1.572  74.199353
1.571  74.112165
1.570  74.106833
1.569  74.069652
1.568  74.067878
1.567  74.071240
1.566  73.984305
1.565  74.027340
1.564  74.026022
1.563  74.031601
1.562  74.012326
1.561  73.954991
1.560  73.992570
1.559  73.935730
1.558  73.894029
1.557  73.847363
1.556  73.819055
1.555  73.900478
1.554  73.880989
1.553  73.888444
1.552  73.802538
1.551  73.785205
1.550  73.817550
1.549  73.764912
1.548  73.715034
1.547  73.738703
1.546  73.738779
1.545  73.688928
1.544  73.616755
1.543  73.658421
1.542  73.651398
1.541  73.636209
1.540  73.675528
1.539  73.668846
1.538  73.621980
1.537  73.604713
1.536  73.574438
1.535  73.526499
1.534  73.483909
1.533  73.465081
1.532  73.446240
1.531  73.427781
1.530  73.446000
1.529  73.417458
1.528  73.346954
1.527  73.360993
1.526  73.338504
1.525  73.330464
1.524  73.291802
1.523  73.224781
1.522  73.187543
1.521  73.207084
1.520  73.186759
1.519  73.189120
1.518  73.170858
1.517  73.101571
1.516  73.087906
1.515  73.073977
1.514  72.998240
1.513  72.985626
1.512  72.938752
1.511  72.934028
1.510  72.961200
1.509  72.959715
1.508  72.891227
1.507  72.865823
1.506  72.851300
1.505  72.862650
1.504  72.903489
1.503  72.831317
1.502  72.720941
1.501  72.714007
1.500  72.684598
1.499  72.657277
1.498  72.664109
1.497  72.621151
1.496  72.619000
1.495  72.638624
1.494  72.597394
1.493  72.568669
1.492  72.561505
1.491  72.549300
1.490  72.521613
1.489  72.477191
1.488  72.423810
1.487  72.422483
1.486  72.430561
1.485  72.350772
1.484  72.321086
1.483  72.312191
1.482  72.327359
1.481  72.314895
1.480  72.230297
1.479  72.168194
1.478  72.229422
1.477  72.194694
1.476  72.096393
1.475  72.076428
1.474  72.114220
1.473  72.049407
1.472  71.979264
1.471  71.969854
1.470  71.975532
1.469  71.960338
1.468  71.911971
1.467  71.890857
1.466  71.909840
1.465  71.883767
1.464  71.849377
1.463  71.819109
1.462  71.784314
1.461  71.770611
1.460  71.749633
1.459  71.716249
1.458  71.694378
1.457  71.655439
1.456  71.586361
1.455  71.577599
1.454  71.601589
1.453  71.555640
1.452  71.540863
1.451  71.518672
1.450  71.547665
1.449  71.499969
1.448  71.456383
1.447  71.400504
1.446  71.426257
1.445  71.370958
1.444  71.318437
1.443  71.280666
1.442  71.314509
1.441  71.302018
1.440  71.286615
1.439  71.251522
1.438  71.230336
1.437  71.166959
1.436  71.183417
1.435  71.128722
1.434  71.109957
1.433  71.030201
1.432  71.032582
1.431  71.017242
1.430  70.978566
1.429  70.938591
1.428  70.941779
1.427  70.935258
1.426  70.849622
1.425  70.830527
1.424  70.887244
1.423  70.858408
1.422  70.836006
1.421  70.794547
1.420  70.788133
