Name: Fluvial deposit
Type:  Soils
Class: Entisol
Subclass: 
Particle Size:  see additional information
Sample No.: fgg003
Owner:  University of NSW
Wavelength range:  All
Origin: Fowlers Gap, western New South Wales, Australia
Hewson(1998) PhD thesis
Description: Parent material consists of phyllite and shale grits with some quartz-rich sands deposited as alluvium

Physiography: Floodplain outwash along ephemeral watercourse.



Measurement: Directional hemispherical reflectance 
First Column:  X
Second Column:  Y
X Units:  Wavelength (micrometers)
Y Units:  Reflectance (percent)
First X Value:  14.0131
Last X Value:  2.00032
Number of X Values:  2223
Additional information:  fgg003a.txt
14.013    1.8277
13.975    2.0248
13.938    2.1761
13.900    2.1578
13.863    2.1372
13.826    2.1173
13.790    2.1098
13.753    2.1715
13.717    2.1191
13.680    2.0072
13.644    1.9567
13.608    1.9720
13.573    2.1786
13.537    2.1829
13.502    1.9707
13.467    1.9618
13.432    2.0031
13.398    2.0312
13.363    2.2206
13.329    2.4327
13.294    2.3481
13.260    2.1315
13.227    2.2113
13.193    2.0686
13.160    1.9481
13.126    2.0758
13.093    2.0842
13.060    2.2172
13.027    2.1390
12.995    2.2402
12.962    2.4421
12.930    2.4877
12.898    2.3527
12.866    2.3912
12.834    2.4049
12.802    2.3443
12.771    2.2364
12.739    2.2647
12.708    2.2282
12.677    2.0295
12.646    1.9149
12.615    1.9002
12.585    2.0024
12.554    2.0799
12.524    2.0975
12.494    2.1522
12.464    2.0692
12.434    1.9388
12.404    1.7011
12.374    1.5246
12.345    1.3687
12.316    1.3047
12.286    1.3453
12.257    1.4749
12.228    1.6297
12.200    1.7205
12.171    1.7612
12.143    1.8455
12.114    1.9424
12.086    1.9898
12.058    2.0599
12.030    2.2489
12.002    2.3818
11.974    2.3696
11.947    2.5277
11.919    2.5735
11.892    2.6610
11.865    2.6666
11.838    2.6261
11.811    2.6620
11.784    2.7439
11.757    2.8355
11.730    2.9348
11.704    3.0046
11.678    3.0419
11.651    2.9737
11.625    2.8874
11.599    3.0643
11.573    3.1545
11.547    3.0608
11.522    3.0476
11.496    3.0293
11.471    2.9166
11.445    2.7619
11.420    2.6145
11.395    2.7502
11.370    2.9002
11.345    2.7129
11.321    2.6484
11.296    2.8999
11.271    2.9906
11.247    2.8443
11.223    2.8366
11.198    2.8935
11.174    2.9953
11.150    2.9887
11.126    2.9324
11.102    2.9479
11.079    2.9522
11.055    2.9881
11.032    2.9009
11.008    2.7529
10.985    2.6565
10.962    2.5845
10.938    2.5715
10.915    2.6670
10.893    2.6821
10.870    2.6491
10.847    2.5483
10.824    2.5387
10.802    2.6267
10.779    2.6567
10.757    2.6065
10.735    2.5816
10.713    2.5614
10.690    2.6454
10.668    2.7484
10.647    2.6518
10.625    2.6335
10.603    2.7906
10.581    2.9043
10.560    2.9090
10.538    3.0504
10.517    3.1036
10.496    2.9737
10.474    3.1025
10.453    3.2268
10.432    3.1595
10.411    3.0754
10.390    3.1583
10.370    3.2792
10.349    3.2948
10.328    3.1726
10.308    3.2989
10.287    3.4346
10.267    3.4704
10.247    3.5028
10.227    3.5271
10.206    3.6181
10.186    3.7809
10.166    3.7866
10.146    3.7531
10.127    3.7867
10.107    3.8958
10.087    4.0893
10.068    4.2091
10.048    4.3300
10.029    4.3543
10.009    4.3993
 9.990    4.5775
 9.971    4.6761
 9.952    4.7055
 9.933    4.7850
 9.914    4.8340
 9.895    4.7880
 9.876    4.8763
 9.857    5.0243
 9.838    5.0725
 9.820    5.0157
 9.801    5.1143
 9.783    5.3153
 9.764    5.4202
 9.746    5.4806
 9.728    5.6821
 9.709    5.9244
 9.691    6.0821
 9.673    6.1501
 9.655    6.1739
 9.637    6.4734
 9.619    6.6517
 9.602    6.6486
 9.584    6.6510
 9.566    6.7469
 9.549    7.0140
 9.531    7.1029
 9.514    7.0645
 9.496    7.2910
 9.479    7.4073
 9.461    7.3760
 9.444    7.3433
 9.427    7.4071
 9.410    7.5792
 9.393    7.8477
 9.376    8.0065
 9.359    8.1970
 9.342    8.3503
 9.325    8.4583
 9.309    8.4871
 9.292    8.4414
 9.275    8.4058
 9.259    8.1589
 9.242    7.9703
 9.226    8.0834
 9.209    8.1343
 9.193    8.0100
 9.177    7.8939
 9.161    7.7839
 9.144    7.8304
 9.128    7.7943
 9.112    7.7343
 9.096    7.5539
 9.080    7.3909
 9.064    7.4267
 9.049    7.2600
 9.033    7.1124
 9.017    6.9806
 9.002    6.7609
 8.986    6.6835
 8.970    6.8044
 8.955    7.0532
 8.939    7.1587
 8.924    7.2448
 8.909    7.5208
 8.893    7.7123
 8.878    7.7697
 8.863    7.8323
 8.848    7.7673
 8.833    7.7723
 8.818    7.7969
 8.803    7.7929
 8.788    7.7347
 8.773    7.8250
 8.758    7.7896
 8.743    7.6251
 8.729    7.5023
 8.714    7.4564
 8.699    7.2683
 8.685    7.1182
 8.670    6.9666
 8.656    6.5660
 8.641    6.0735
 8.627    6.0195
 8.613    6.3371
 8.598    6.7554
 8.584    7.2172
 8.570    7.5616
 8.556    7.7135
 8.542    7.7585
 8.528    7.8960
 8.514    8.0837
 8.500    8.0143
 8.486    8.0762
 8.472    8.2314
 8.458    8.1564
 8.444    8.3633
 8.431    8.5509
 8.417    8.5320
 8.403    8.6748
 8.390    8.8439
 8.376    8.9264
 8.363    9.1116
 8.349    9.2510
 8.336    9.4036
 8.322    9.5837
 8.309    9.7420
 8.296    9.8796
 8.283    9.9589
 8.269   10.1589
 8.256   10.4757
 8.243   10.6663
 8.230   10.7238
 8.217   10.8270
 8.204   10.8603
 8.191   10.7644
 8.178   10.6192
 8.165   10.3387
 8.152    9.9887
 8.140    9.5211
 8.127    9.0903
 8.114    8.6905
 8.101    8.2151
 8.089    7.7090
 8.076    7.2899
 8.063    6.8931
 8.051    6.5725
 8.039    6.2809
 8.026    6.0429
 8.014    5.7626
 8.001    5.5630
 7.989    5.3208
 7.977    5.0338
 7.964    4.9071
 7.952    4.7706
 7.940    4.4850
 7.928    4.2592
 7.916    4.0664
 7.904    3.8279
 7.892    3.6751
 7.880    3.5256
 7.868    3.3836
 7.856    3.3455
 7.844    3.2533
 7.832    3.1020
 7.820    3.0400
 7.809    3.0179
 7.797    3.0287
 7.785    3.0869
 7.773    3.1298
 7.762    3.0437
 7.750    2.9273
 7.739    2.8831
 7.727    2.9177
 7.715    2.9747
 7.704    3.0171
 7.693    2.9512
 7.681    2.8844
 7.670    2.9438
 7.659    2.9417
 7.647    2.8933
 7.636    2.8637
 7.625    2.8908
 7.614    2.9017
 7.602    2.9208
 7.591    2.9090
 7.580    2.7798
 7.569    2.8150
 7.558    2.8985
 7.547    2.8937
 7.536    2.8797
 7.525    2.9634
 7.514    2.9594
 7.503    2.9023
 7.492    2.8486
 7.482    2.8642
 7.471    2.8599
 7.460    2.7872
 7.449    2.8304
 7.439    2.9525
 7.428    2.9503
 7.418    2.9718
 7.407    2.9087
 7.396    2.9194
 7.386    3.0748
 7.375    3.1515
 7.365    3.0349
 7.354    2.8685
 7.344    2.8776
 7.334    2.9844
 7.323    3.0095
 7.313    3.0229
 7.303    3.0082
 7.292    2.9859
 7.282    3.1161
 7.272    3.1915
 7.262    3.1313
 7.252    3.1391
 7.241    3.2315
 7.231    3.3157
 7.221    3.3410
 7.211    3.3375
 7.201    3.3242
 7.191    3.3371
 7.181    3.3098
 7.171    3.2529
 7.161    3.3316
 7.152    3.3977
 7.142    3.3872
 7.132    3.3413
 7.122    3.3674
 7.112    3.4649
 7.103    3.4611
 7.093    3.4180
 7.083    3.4225
 7.073    3.5105
 7.064    3.6044
 7.054    3.5066
 7.045    3.4365
 7.035    3.5001
 7.026    3.5347
 7.016    3.5001
 7.007    3.5022
 6.997    3.5748
 6.988    3.5962
 6.978    3.6209
 6.969    3.6850
 6.960    3.7258
 6.950    3.7636
 6.941    3.8410
 6.932    3.9206
 6.922    4.0171
 6.913    4.0706
 6.904    4.0997
 6.895    4.1078
 6.886    4.1022
 6.876    4.1360
 6.867    4.1855
 6.858    4.2073
 6.849    4.2134
 6.840    4.2326
 6.831    4.2541
 6.822    4.3060
 6.813    4.3373
 6.804    4.3308
 6.795    4.3974
 6.786    4.4455
 6.778    4.5076
 6.769    4.5131
 6.760    4.4674
 6.751    4.4527
 6.742    4.4553
 6.734    4.4074
 6.725    4.3331
 6.716    4.3486
 6.707    4.4325
 6.699    4.4379
 6.690    4.5284
 6.681    4.6065
 6.673    4.6420
 6.664    4.6404
 6.656    4.6251
 6.647    4.7193
 6.639    4.8126
 6.630    4.8297
 6.622    4.7439
 6.613    4.6024
 6.605    4.5027
 6.596    4.5582
 6.588    4.6335
 6.580    4.5721
 6.571    4.4703
 6.563    4.4827
 6.555    4.5431
 6.547    4.4880
 6.538    4.4864
 6.530    4.5964
 6.522    4.7454
 6.514    5.0008
 6.505    5.1872
 6.497    5.2631
 6.489    5.3553
 6.481    5.4194
 6.473    5.4768
 6.465    5.5988
 6.457    5.6908
 6.449    5.7726
 6.441    5.8017
 6.433    5.9053
 6.425    5.9514
 6.417    5.9405
 6.409    5.8718
 6.401    5.7252
 6.393    5.6571
 6.385    5.6679
 6.377    5.5469
 6.370    5.4383
 6.362    5.3117
 6.354    5.1589
 6.346    5.0730
 6.338    5.0465
 6.331    4.9163
 6.323    4.7184
 6.315    4.5650
 6.308    4.4715
 6.300    4.3382
 6.292    4.1479
 6.285    3.9873
 6.277    3.8280
 6.269    3.7167
 6.262    3.6780
 6.254    3.6349
 6.247    3.5608
 6.239    3.4139
 6.232    3.2363
 6.224    3.1795
 6.217    3.0504
 6.209    2.9428
 6.202    2.9049
 6.194    2.9023
 6.187    2.8489
 6.180    2.6948
 6.172    2.5924
 6.165    2.6933
 6.158    2.7377
 6.151    2.7257
 6.143    2.7604
 6.136    2.7585
 6.129    2.6606
 6.121    2.6186
 6.114    2.6851
 6.107    2.7302
 6.100    2.6839
 6.093    2.7710
 6.085    2.8350
 6.078    2.7808
 6.071    2.7497
 6.064    2.7978
 6.057    2.8277
 6.050    2.9078
 6.043    2.9779
 6.036    3.0107
 6.029    3.0561
 6.022    3.0641
 6.015    3.0594
 6.008    3.0768
 6.001    3.1754
 5.994    3.3056
 5.987    3.3363
 5.980    3.3075
 5.973    3.3627
 5.966    3.4548
 5.960    3.5027
 5.953    3.5258
 5.946    3.5638
 5.939    3.6604
 5.932    3.7317
 5.926    3.8497
 5.919    4.0017
 5.912    4.1589
 5.905    4.4533
 5.899    4.7376
 5.892    4.9321
 5.885    5.1800
 5.878    5.4025
 5.872    5.5525
 5.865    5.8332
 5.859    6.1057
 5.852    6.3494
 5.845    6.4962
 5.839    6.7007
 5.832    7.0016
 5.826    7.2520
 5.819    7.4424
 5.813    7.6700
 5.806    7.8422
 5.800    8.0311
 5.793    8.2752
 5.787    8.4532
 5.780    8.6166
 5.774    8.7861
 5.767    8.9719
 5.761    9.1087
 5.755    9.2032
 5.748    9.3825
 5.742    9.5867
 5.735    9.7057
 5.729    9.7950
 5.723    9.9079
 5.716    9.9942
 5.710   10.1156
 5.704   10.1693
 5.698   10.2111
 5.691   10.2348
 5.685   10.1573
 5.679   10.0720
 5.673    9.9154
 5.667    9.7397
 5.660    9.5652
 5.654    9.2980
 5.648    9.0684
 5.642    8.8176
 5.636    8.5289
 5.630    8.2986
 5.623    8.0777
 5.617    7.9305
 5.611    7.8512
 5.605    7.7289
 5.599    7.6101
 5.593    7.5426
 5.587    7.5530
 5.581    7.5847
 5.575    7.5554
 5.569    7.5625
 5.563    7.6039
 5.557    7.6517
 5.551    7.8040
 5.545    7.9270
 5.539    8.0723
 5.533    8.2234
 5.527    8.3424
 5.522    8.4993
 5.516    8.7005
 5.510    8.8669
 5.504    8.9740
 5.498    9.1868
 5.492    9.4323
 5.487    9.6088
 5.481    9.8320
 5.475   10.0047
 5.469   10.0930
 5.463   10.2334
 5.458   10.3377
 5.452   10.3769
 5.446   10.3346
 5.441   10.2802
 5.435   10.1678
 5.429   10.0281
 5.423    9.8704
 5.418    9.5651
 5.412    9.2403
 5.407    8.8746
 5.401    8.4558
 5.395    8.0781
 5.390    7.7944
 5.384    7.5859
 5.378    7.3739
 5.373    7.1593
 5.367    6.8704
 5.362    6.6175
 5.356    6.5736
 5.351    6.6643
 5.345    6.6786
 5.340    6.6994
 5.334    6.7499
 5.329    6.7476
 5.323    6.7444
 5.318    6.7994
 5.312    6.8542
 5.307    6.9509
 5.301    7.1696
 5.296    7.3502
 5.291    7.4444
 5.285    7.5534
 5.280    7.6643
 5.274    7.8130
 5.269    8.1022
 5.264    8.4231
 5.258    8.6879
 5.253    8.9324
 5.248    9.2766
 5.242    9.7165
 5.237   10.1024
 5.232   10.4330
 5.227   10.8010
 5.221   11.1614
 5.216   11.5047
 5.211   11.8341
 5.206   12.0034
 5.200   12.1478
 5.195   12.3202
 5.190   12.3799
 5.185   12.3733
 5.180   12.2725
 5.175   12.2592
 5.169   12.2531
 5.164   12.2400
 5.159   12.2679
 5.154   12.3031
 5.149   12.2972
 5.144   12.2482
 5.139   12.2139
 5.133   12.1902
 5.128   12.2198
 5.123   12.2533
 5.118   12.2651
 5.113   12.3444
 5.108   12.3790
 5.103   12.3671
 5.098   12.3731
 5.093   12.2791
 5.088   12.1103
 5.083   11.9846
 5.078   11.8819
 5.073   11.7501
 5.068   11.7268
 5.063   11.7302
 5.058   11.6819
 5.053   11.6282
 5.048   11.5925
 5.044   11.6168
 5.039   11.6941
 5.034   11.7008
 5.029   11.7030
 5.024   11.7296
 5.019   11.7099
 5.014   11.6642
 5.010   11.6810
 5.005   11.7752
 5.000   11.9415
 4.995   12.0900
 4.990   12.2057
 4.985   12.3360
 4.981   12.5877
 4.976   12.9057
 4.971   13.3030
 4.966   13.7339
 4.962   14.0712
 4.957   14.4451
 4.952   14.7215
 4.947   14.9131
 4.943   15.0972
 4.938   15.2605
 4.933   15.4226
 4.929   15.6692
 4.924   15.9203
 4.919   16.3054
 4.915   16.7831
 4.910   17.3305
 4.905   17.9537
 4.901   18.5267
 4.896   19.1232
 4.891   19.7449
 4.887   20.3188
 4.882   20.8612
 4.878   21.3293
 4.873   21.7262
 4.868   22.0932
 4.864   22.3973
 4.859   22.6790
 4.855   22.9240
 4.850   23.0722
 4.846   23.2385
 4.841   23.5239
 4.837   23.8108
 4.832   23.9598
 4.828   24.0904
 4.823   24.1842
 4.819   24.2901
 4.814   24.4069
 4.810   24.5447
 4.805   24.6578
 4.801   24.7650
 4.796   24.8803
 4.792   24.9315
 4.787   24.9791
 4.783   25.0369
 4.779   25.1466
 4.774   25.2706
 4.770   25.4112
 4.766   25.5558
 4.761   25.6106
 4.757   25.6704
 4.752   25.7268
 4.748   25.7916
 4.744   25.8347
 4.739   25.9059
 4.735   25.9791
 4.731   26.0125
 4.726   26.0910
 4.722   26.0808
 4.718   26.0365
 4.713   26.0320
 4.709   26.0355
 4.705   25.9836
 4.701   25.9329
 4.696   25.8182
 4.692   25.6425
 4.688   25.4967
 4.684   25.4987
 4.680   25.6324
 4.675   25.7490
 4.671   25.8795
 4.667   26.0507
 4.663   26.2073
 4.658   26.3814
 4.654   26.5731
 4.650   26.7281
 4.646   26.9233
 4.642   27.0916
 4.638   27.2374
 4.633   27.3285
 4.629   27.4406
 4.625   27.5725
 4.621   27.7452
 4.617   27.8850
 4.613   27.9979
 4.609   28.1348
 4.605   28.1912
 4.601   28.2559
 4.596   28.3806
 4.592   28.5047
 4.588   28.5876
 4.584   28.6038
 4.580   28.6331
 4.576   28.6653
 4.572   28.7063
 4.568   28.7847
 4.564   28.8609
 4.560   28.8456
 4.556   28.8660
 4.552   28.9264
 4.548   28.9272
 4.544   28.8812
 4.540   28.8579
 4.536   28.7365
 4.532   28.5892
 4.528   28.4560
 4.524   28.3710
 4.520   28.2248
 4.516   28.0185
 4.513   27.8810
 4.509   27.7222
 4.505   27.5392
 4.501   27.4029
 4.497   27.2877
 4.493   27.2490
 4.489   27.2118
 4.485   27.1957
 4.481   27.1455
 4.477   27.0261
 4.473   27.0027
 4.470   27.1181
 4.466   27.1626
 4.462   27.1640
 4.458   27.2838
 4.454   27.4950
 4.450   27.7142
 4.447   27.8698
 4.443   27.9948
 4.439   28.1568
 4.435   28.2341
 4.431   28.2071
 4.428   28.2823
 4.424   28.4864
 4.420   28.6414
 4.416   28.7920
 4.413   28.9263
 4.409   29.1160
 4.405   29.3098
 4.401   29.4571
 4.398   29.5950
 4.394   29.7388
 4.390   29.8629
 4.386   29.9395
 4.383   30.1438
 4.379   30.3324
 4.375   30.4130
 4.372   30.6083
 4.368   30.8334
 4.364   30.9655
 4.361   31.1515
 4.357   31.2596
 4.353   31.3577
 4.350   31.4869
 4.346   31.5791
 4.342   31.6325
 4.339   31.6800
 4.335   31.7679
 4.332   31.8431
 4.328   31.8512
 4.324   31.8785
 4.321   31.9927
 4.317   32.1124
 4.314   32.2052
 4.310   32.1933
 4.306   32.2285
 4.303   32.3063
 4.299   32.3456
 4.296   32.2967
 4.292   32.2912
 4.289   32.2807
 4.285   32.2820
 4.282   32.3532
 4.278   32.3684
 4.274   32.3580
 4.271   32.3662
 4.267   32.4075
 4.264   32.5191
 4.260   32.5931
 4.257   32.7264
 4.253   32.8513
 4.250   32.9165
 4.246   33.0848
 4.243   33.2468
 4.239   33.3202
 4.236   33.4077
 4.232   33.5083
 4.229   33.5246
 4.226   33.5579
 4.222   33.5735
 4.219   33.6210
 4.215   33.6896
 4.212   33.7740
 4.208   33.7866
 4.205   33.7366
 4.202   33.7890
 4.198   33.8688
 4.195   33.8486
 4.191   33.9049
 4.188   34.0147
 4.185   34.1295
 4.181   34.2244
 4.178   34.2945
 4.175   34.3505
 4.171   34.3913
 4.168   34.3951
 4.165   34.4027
 4.161   34.4572
 4.158   34.5628
 4.154   34.6436
 4.151   34.7192
 4.148   34.7416
 4.145   34.7816
 4.141   34.9242
 4.138   34.9824
 4.135   34.9400
 4.131   34.9694
 4.128   35.0829
 4.125   35.1902
 4.122   35.2028
 4.118   35.2216
 4.115   35.2559
 4.112   35.3395
 4.108   35.4545
 4.105   35.4850
 4.102   35.5441
 4.099   35.6785
 4.096   35.7105
 4.092   35.7043
 4.089   35.7519
 4.086   35.8015
 4.083   35.8116
 4.079   35.8275
 4.076   35.8780
 4.073   35.8650
 4.070   35.8872
 4.066   35.9104
 4.063   35.8885
 4.060   35.9353
 4.057   35.9775
 4.054   36.0066
 4.051   36.0255
 4.048   36.0201
 4.044   35.9863
 4.041   35.8744
 4.038   35.7778
 4.035   35.7671
 4.032   35.7698
 4.029   35.7165
 4.026   35.6280
 4.022   35.6152
 4.019   35.5247
 4.016   35.3798
 4.013   35.2962
 4.010   35.2478
 4.007   35.2077
 4.004   35.1395
 4.001   34.9858
 3.998   34.9292
 3.994   34.8673
 3.991   34.6609
 3.988   34.5037
 3.985   34.4827
 3.982   34.4851
 3.979   34.4820
 3.976   34.5514
 3.973   34.6454
 3.970   34.6158
 3.967   34.6141
 3.964   34.6729
 3.961   34.7371
 3.958   34.8855
 3.955   34.9964
 3.952   35.0308
 3.949   35.0752
 3.946   35.1695
 3.943   35.2796
 3.940   35.3319
 3.937   35.3912
 3.934   35.4241
 3.931   35.4765
 3.928   35.5016
 3.925   35.5177
 3.922   35.5060
 3.919   35.4539
 3.916   35.4056
 3.913   35.4020
 3.910   35.4427
 3.907   35.4224
 3.904   35.3772
 3.901   35.3538
 3.898   35.3184
 3.895   35.2934
 3.893   35.3098
 3.890   35.2569
 3.887   35.2379
 3.884   35.2078
 3.881   35.1214
 3.878   35.0991
 3.875   35.0434
 3.872   34.9336
 3.869   34.8808
 3.866   34.7605
 3.864   34.7250
 3.861   34.7778
 3.858   34.7461
 3.855   34.7497
 3.852   34.7057
 3.849   34.6317
 3.846   34.6001
 3.844   34.5896
 3.841   34.5675
 3.838   34.5395
 3.835   34.4501
 3.832   34.3503
 3.829   34.3452
 3.826   34.3610
 3.824   34.3360
 3.821   34.2680
 3.818   34.2846
 3.815   34.2392
 3.812   34.2383
 3.810   34.1925
 3.807   34.1745
 3.804   34.1428
 3.801   34.0096
 3.798   33.9794
 3.796   33.9819
 3.793   33.9244
 3.790   33.8684
 3.787   33.7776
 3.785   33.7186
 3.782   33.6168
 3.779   33.4835
 3.776   33.4601
 3.773   33.4201
 3.771   33.3353
 3.768   33.2832
 3.765   33.1548
 3.763   33.0131
 3.760   32.9099
 3.757   32.8647
 3.754   32.7512
 3.752   32.5872
 3.749   32.5407
 3.746   32.5184
 3.744   32.3640
 3.741   32.2393
 3.738   32.2196
 3.736   32.1502
 3.733   32.0700
 3.730   32.0022
 3.727   31.9743
 3.725   31.8808
 3.722   31.6181
 3.719   31.5080
 3.717   31.5288
 3.714   31.5051
 3.711   31.3910
 3.709   31.2594
 3.706   31.1489
 3.704   31.1136
 3.701   31.1175
 3.698   31.0078
 3.696   30.8907
 3.693   30.8349
 3.690   30.7828
 3.688   30.6991
 3.685   30.6621
 3.682   30.6167
 3.680   30.4990
 3.677   30.3799
 3.675   30.2840
 3.672   30.1948
 3.669   30.1452
 3.667   30.0876
 3.664   30.0188
 3.662   29.8923
 3.659   29.7193
 3.656   29.6684
 3.654   29.6115
 3.651   29.4370
 3.649   29.3141
 3.646   29.3027
 3.644   29.2061
 3.641   29.1012
 3.639   28.9901
 3.636   28.9249
 3.633   28.8469
 3.631   28.7344
 3.628   28.6429
 3.626   28.5283
 3.623   28.3991
 3.621   28.2510
 3.618   28.1429
 3.616   28.0417
 3.613   27.8882
 3.611   27.7905
 3.608   27.7134
 3.606   27.6762
 3.603   27.5929
