Name: Barite BaSO_4
Type: Mineral
Class: Sulfates
Subclass: 
Particle Size: 0-45um
Sample No.: SO-3A
Owner: JPL
Wavelength range: IR
Origin: USA, South Carolina, Cherokee County, Kings Creek
Collected by Ward's
Description: 





Measurement: Hemispherical reflectance
First Column: X
Second Column: Y
X Units:  Wavelength (micrometers)
Y Units:  Reflectance (percent)
First X Value: 15.3853
Last X Value: 2.00032
Number of X Values: 2256
Additional information: so03aa.txt
 
15.3853	2.99994
15.3397	2.62528
15.2945	2.17012
15.2495	2.36511
15.2048	2.83922
15.1603	3.47593
15.1161	4.15379
15.0722	5.24884
15.0285	6.86564
14.9851	8.34579
14.9419	10.0978
14.8989	12.22
14.8563	14.3837
14.8138	16.7038
14.7716	19.1846
14.7296	21.2297
14.6879	22.6855
14.6464	23.845
14.6052	24.8846
14.5641	25.6077
14.5233	26.0659
14.4828	26.5153
14.4424	26.7176
14.4023	26.5796
14.3624	26.536
14.3227	26.5594
14.2833	26.6522
14.244	26.7637
14.205	26.9602
14.1662	27.4806
14.1276	28.0148
14.0892	28.678
14.051	29.4181
14.0131	30.2657
13.9753	31.3594
13.9377	32.3236
13.9004	33.0943
13.8632	33.9294
13.8262	34.661
13.7895	35.1321
13.7529	35.423
13.7165	35.706
13.6803	35.948
13.6443	36.377
13.6085	36.8429
13.5729	37.0348
13.5374	37.3459
13.5022	37.8174
13.4671	38.2874
13.4322	38.7583
13.3975	39.226
13.363	39.588
13.3286	39.8707
13.2944	40.1371
13.2604	40.5142
13.2266	40.7047
13.193	40.5474
13.1595	40.2823
13.1262	40.057
13.093	39.6687
13.06	39.2527
13.0272	38.6098
12.9946	37.7786
12.9621	36.9997
12.9298	36.2418
12.8976	35.5554
12.8656	34.9659
12.8337	34.563
12.8021	34.4079
12.7705	34.4019
12.7391	34.4266
12.7079	34.253
12.6769	34.1448
12.6459	34.0856
12.6152	34.0651
12.5845	34.1607
12.5541	34.4137
12.5238	34.5683
12.4936	34.5512
12.4635	34.7129
12.4337	34.7767
12.4039	34.7827
12.3743	34.9682
12.3448	35.2126
12.3155	35.3165
12.2863	35.5535
12.2573	36.0486
12.2284	36.4937
12.1996	36.7503
12.171	37.174
12.1425	37.7564
12.1141	38.3659
12.0859	38.9293
12.0578	39.744
12.0298	40.5286
12.0019	41.3572
11.9742	42.2532
11.9466	43.2944
11.9192	44.6108
11.8918	45.8067
11.8646	46.8094
11.8375	47.7239
11.8106	48.5313
11.7837	49.295
11.757	49.9638
11.7304	50.4089
11.7039	50.9022
11.6776	51.2384
11.6513	51.3712
11.6252	51.3367
11.5992	51.1966
11.5733	50.8741
11.5475	50.3338
11.5219	49.7442
11.4963	48.8943
11.4709	47.944
11.4455	46.9898
11.4203	46.2321
11.3952	45.8815
11.3702	45.5824
11.3454	44.924
11.3206	43.9311
11.2959	42.9961
11.2714	42.5447
11.2469	42.2054
11.2226	41.8027
11.1983	41.3801
11.1742	40.8651
11.1502	40.434
11.1263	40.0386
11.1024	39.5667
11.0787	39.1331
11.0551	38.733
11.0316	38.3477
11.0081	37.9281
10.9848	37.5914
10.9616	37.3337
10.9385	37.0198
10.9154	36.6698
10.8925	36.1987
10.8697	35.8136
10.8469	35.8519
10.8243	36.1218
10.8017	36.3934
10.7793	36.5996
10.7569	36.7801
10.7346	37.086
10.7125	37.1406
10.6904	37.0146
10.6684	36.8993
10.6465	36.717
10.6247	36.4077
10.6029	35.8853
10.5813	35.3557
10.5597	34.8582
10.5383	34.2858
10.5169	33.6004
10.4956	33.0065
10.4744	32.4735
10.4533	31.7874
10.4323	30.8942
10.4113	29.4919
10.3904	27.27
10.3697	24.4869
10.349	23.4838
10.3284	23.6871
10.3078	22.7488
10.2874	21.0877
10.267	19.176
10.2467	16.6254
10.2265	13.3895
10.2064	9.71754
10.1863	6.40403
10.1663	4.69694
10.1464	5.24
10.1266	8.61784
10.1069	13.3082
10.0872	17.0303
10.0676	18.9403
10.0481	19.5881
10.0287	19.5959
10.0093	19.4193
9.99005	19.0876
9.97084	18.6266
9.95169	18.1731
9.93263	17.743
9.91364	17.2401
9.89472	16.7282
9.87587	16.3772
9.8571	15.9443
9.83839	15.5278
9.81976	15.0846
9.80119	14.629
9.78271	14.2339
9.76428	13.7807
9.74592	13.4218
9.72764	13.0597
9.70943	12.5366
9.69128	12.0492
9.6732	11.5362
9.65518	10.965
9.63724	10.3828
9.61935	9.86292
9.60155	9.38538
9.5838	8.99433
9.56611	8.57508
9.5485	8.13852
9.53094	7.8612
9.51345	7.6986
9.49604	7.62222
9.47867	7.49813
9.46137	7.38027
9.44414	7.4269
9.42697	7.48324
9.40986	7.47875
9.39281	7.67374
9.37583	7.93677
9.35891	8.19147
9.34204	8.34836
9.32524	8.47315
9.3085	8.70114
9.29182	8.98118
9.27519	9.18095
9.25863	9.36234
9.24213	9.54695
9.22568	9.81576
9.2093	10.1597
9.19297	10.5006
9.17669	10.6753
9.16048	10.8884
9.14433	11.1532
9.12823	11.5176
9.11218	11.8605
9.0962	12.044
9.08027	12.0731
9.06439	12.2607
9.04858	12.4018
9.03281	12.564
9.0171	12.6425
9.00145	12.6574
8.98585	12.7983
8.9703	13.0807
8.9548	13.1765
8.93937	13.1757
8.92398	13.1494
8.90865	13.1418
8.89337	12.9893
8.87814	12.9337
8.86296	12.9647
8.84784	12.9279
8.83277	12.8273
8.81774	12.6938
8.80277	12.4999
8.78786	12.2303
8.77298	11.8956
8.75816	11.5393
8.7434	11.1946
8.72868	10.7483
8.714	10.2831
8.69938	10.0362
8.68481	9.72503
8.67029	9.40986
8.65581	9.23795
8.64139	8.97842
8.62701	8.66672
8.61268	8.41838
8.5984	8.12204
8.58416	7.78393
8.56997	7.52771
8.55583	7.35118
8.54174	7.10296
8.52769	6.96725
8.51368	6.8106
8.49973	6.49657
8.48582	6.23957
8.47195	5.95277
8.45813	5.63537
8.44436	5.48553
8.43062	5.43818
8.41693	5.51638
8.4033	5.55129
8.3897	5.48855
8.37614	5.47999
8.36264	5.5185
8.34917	5.45397
8.33574	5.28552
8.32236	5.2179
8.30903	5.55541
8.29573	5.76392
8.28248	5.80741
8.26927	5.85997
8.2561	5.93531
8.24298	6.04467
8.2299	6.27282
8.21685	6.52048
8.20385	6.59196
8.19089	6.5197
8.17797	6.45521
8.16509	6.30742
8.15225	6.34289
8.13946	6.36332
8.1267	6.32002
8.11398	6.18201
8.10131	5.91795
8.08867	5.47552
8.07606	5.08989
8.0635	4.54641
8.05099	4.00435
8.0385	3.63904
8.02606	3.30006
8.01366	2.97859
8.00129	2.6905
7.98896	2.45519
7.97667	2.21919
7.96442	2.03172
7.9522	1.98799
7.94002	1.85949
7.92788	1.72708
7.91578	1.73128
7.90371	1.79107
7.89168	1.79582
7.87969	1.82937
7.86773	1.90063
7.85581	2.06698
7.84392	2.20153
7.83207	2.36675
7.82026	2.59865
7.80849	2.89076
7.79674	3.18921
7.78503	3.49247
7.77337	3.88658
7.76173	4.36386
7.75012	4.78021
7.73856	5.21772
7.72703	5.74517
7.71553	6.37453
7.70406	6.90329
7.69263	7.52613
7.68123	8.1657
7.66987	8.79388
7.65855	9.45456
7.64725	10.2389
7.63598	10.8291
7.62475	11.4185
7.61356	12.1613
7.60239	12.927
7.59126	13.6986
7.58017	14.5194
7.5691	15.3417
7.55806	16.1487
7.54707	16.9894
7.5361	17.797
7.52516	18.4536
7.51425	19.1114
7.50338	19.742
7.49253	20.2214
7.48172	20.6035
7.47094	21.0539
7.46019	21.5212
7.44947	21.9243
7.43879	22.4039
7.42813	22.9947
7.4175	23.7989
7.4069	24.6866
7.39634	25.5363
7.3858	26.4864
7.37529	27.4438
7.36482	28.3465
7.35437	29.3055
7.34396	30.31
7.33357	31.2392
7.32321	32.1502
7.31288	33.2788
7.30258	34.5452
7.29231	35.7699
7.28207	37.075
7.27185	38.4269
7.26167	39.7133
7.25152	41.1111
7.24139	42.5573
7.23129	43.8614
7.22122	45.0589
7.21117	46.3889
7.20116	47.2983
7.19117	47.8627
7.18121	48.5538
7.17128	49.1655
7.16137	49.0712
7.1515	48.3313
7.14164	47.9684
7.13182	49.276
7.12203	51.3066
7.11225	52.8519
7.10251	53.9708
7.0928	54.8123
7.08311	55.5222
7.07344	56.1897
7.06381	56.7634
7.0542	57.5502
7.04461	58.1818
7.03506	57.9845
7.02552	57.9433
7.01601	57.9467
7.00653	57.6634
6.99708	57.3735
6.98765	56.6881
6.97824	55.3344
6.96886	53.8296
6.95951	53.5041
6.95018	54.5122
6.94087	56.0927
6.9316	57.3313
6.92234	58.0312
6.91311	58.546
6.90391	58.9586
6.89473	59.1143
6.88557	59.4363
6.87644	60.0488
6.86733	61.3553
6.85824	61.7401
6.84918	61.2312
6.84015	61.3399
6.83114	62.0279
6.82215	62.5193
6.81319	62.7263
6.80424	63.1538
6.79532	63.9776
6.78643	64.4818
6.77756	64.4023
6.76871	64.3215
6.75989	64.2886
6.75109	64.5248
6.74231	64.6876
6.73355	64.9097
6.72482	65.1904
6.71611	65.4282
6.70742	65.3659
6.69875	64.9096
6.69011	64.9885
6.68149	65.2074
6.67289	64.6268
6.66431	63.7397
6.65576	62.9058
6.64722	62.8247
6.63871	62.8902
6.63022	61.0774
6.62175	58.8167
6.61331	57.045
6.60488	55.2663
6.59648	53.7016
6.5881	51.9279
6.57974	50.3292
6.5714	48.7456
6.56308	46.5008
6.55478	44.7712
6.54651	43.277
6.53825	41.8101
6.53001	40.5974
6.5218	39.9293
6.51361	39.0587
6.50544	38.7772
6.49729	39.5958
6.48915	39.8211
6.48104	39.4806
6.47295	39.3111
6.46488	39.0252
6.45683	38.8673
6.4488	38.8269
6.44079	38.9999
6.4328	39.6808
6.42482	40.7796
6.41687	42.6666
6.40894	43.4055
6.40103	43.2712
6.39314	43.8844
6.38526	44.6932
6.37741	45.6661
6.36957	46.7788
6.36176	47.3337
6.35396	48.1528
6.34618	49.3445
6.33843	49.2464
6.33069	48.5504
6.32297	48.0293
6.31527	46.9555
6.30758	45.1599
6.29992	42.7923
6.29227	40.3442
6.28465	38.7348
6.27704	38.607
6.26945	39.318
6.26188	40.1065
6.25432	40.4712
6.24679	40.2435
6.23927	39.9795
6.23177	40.3015
6.22429	41.2772
6.21683	42.8532
6.20938	44.3354
6.20195	45.5067
6.19454	46.6915
6.18715	48.1087
6.17978	48.5333
6.17242	48.6499
6.16508	49.4408
6.15776	50.3928
6.15045	51.2313
6.14317	52.4308
6.1359	53.6238
6.12864	54.9362
6.12141	56.9124
6.11419	59.2115
6.10699	60.3352
6.0998	61.2381
6.09263	62.5273
6.08549	63.8201
6.07835	65.3918
6.07123	66.3815
6.06413	66.3339
6.05705	67.3732
6.04998	69.3356
6.04293	68.5878
6.0359	67.5249
6.02888	67.6165
6.02187	68.1247
6.01489	68.8998
6.00792	69.0647
6.00096	69.1792
5.99403	70.0639
5.98711	70.5874
5.9802	70.4984
5.97331	70.9698
5.96644	71.2727
5.95958	70.8559
5.95274	70.9022
5.94591	71.2895
5.9391	72.4361
5.9323	72.1291
5.92552	71.0174
5.91876	70.7453
5.91201	70.5856
5.90528	70.8195
5.89856	71.787
5.89186	71.5695
5.88517	71.7855
5.8785	71.804
5.87184	70.4964
5.8652	70.3864
5.85857	70.0784
5.85196	69.6599
5.84536	69.494
5.83878	69.734
5.83221	70.3523
5.82566	71.2824
5.81912	71.5207
5.81259	70.9324
5.80608	70.9034
5.79959	71.1995
5.79311	71.5031
5.78665	71.9741
5.78019	72.4485
5.77376	73.2659
5.76734	74.3593
5.76093	73.8183
5.75453	73.2572
5.74815	73.5783
5.74179	73.4248
5.73543	73.3763
5.7291	73.4375
5.72277	73.6973
5.71646	73.9736
5.71017	74.139
5.70389	73.6843
5.69762	73.5152
5.69136	73.6496
5.68513	73.5509
5.6789	73.805
5.67268	73.916
5.66648	73.7514
5.6603	74.0068
5.65413	74.2746
5.64797	74.5985
5.64182	75.0864
5.63569	74.7364
5.62957	74.496
5.62347	74.6062
5.61737	74.7574
5.61129	74.789
5.60522	74.8449
5.59917	74.8529
5.59313	74.7853
5.5871	74.9629
5.58109	75.3612
5.57509	75.286
5.5691	74.8727
5.56312	74.8331
5.55716	74.9646
5.55121	75.0721
5.54528	74.9565
5.53935	74.9251
5.53344	74.9888
5.52754	75.1038
5.52166	75.2019
5.51578	75.2387
5.50992	75.2706
5.50407	75.4765
5.49823	75.558
5.49241	75.6088
5.4866	75.7749
5.4808	76.1391
5.47501	76.2137
5.46923	76.3942
5.46347	76.6991
5.45772	76.5974
5.45198	76.5742
5.44625	76.7476
5.44054	76.9136
5.43484	77.0639
5.42914	77.4361
5.42347	78.1256
5.4178	78.1936
5.41214	78.1386
5.4065	78.3789
5.40087	78.6337
5.39525	78.9583
5.38964	79.2773
5.38404	79.578
5.37846	79.8425
5.37288	80.0697
5.36732	80.3247
5.36177	80.6351
5.35623	81.0373
5.35071	81.3872
5.34519	81.3395
5.33968	81.2811
5.33419	81.4342
5.32871	81.584
5.32324	81.7478
5.31778	81.8576
5.31233	81.9541
5.30689	82.0648
5.30147	82.104
5.29605	82.2038
5.29065	82.2959
5.28525	82.2032
5.27987	82.156
5.2745	82.1067
5.26914	82.1244
5.26379	82.0782
5.25845	82.0386
5.25312	82.0484
5.24781	82.1024
5.2425	82.1718
5.23721	82.2095
5.23192	82.1451
5.22665	82.0875
5.22138	82.0742
5.21613	82.1378
5.21089	81.9745
5.20566	81.6704
5.20044	81.3527
5.19522	80.8277
5.19002	80.4476
5.18483	80.4093
5.17965	80.5306
5.17448	80.5906
5.16933	80.3838
5.16418	80.0275
5.15904	79.6547
5.15391	79.3343
5.14879	79.018
5.14368	78.3734
5.13859	77.5778
5.1335	76.7071
5.12842	75.7008
5.12335	74.4245
5.1183	72.778
5.11325	70.6283
5.10821	67.6744
5.10318	63.6593
5.09817	58.4739
5.09316	52.5253
5.08816	47.8587
5.08317	47.7259
5.07819	52.45
5.07322	58.9956
5.06826	64.8736
5.06331	69.0682
5.05837	71.6226
5.05344	73.0019
5.04852	73.6092
5.04361	73.8019
5.03871	73.7293
5.03382	73.5627
5.02894	73.3148
5.02406	72.9801
5.0192	72.614
5.01435	72.1558
5.0095	71.7298
5.00467	71.2429
4.99984	70.7538
4.99502	70.2409
4.99021	69.6381
4.98542	68.9777
4.98063	68.1672
4.97585	67.2593
4.97108	66.2705
4.96632	65.1405
4.96156	63.9006
4.95682	62.5676
4.95209	61.0315
4.94736	59.3871
4.94264	57.7348
4.93794	55.9414
4.93324	53.8869
4.92855	51.5545
4.92387	48.9411
4.9192	46.0801
4.91453	42.9929
4.90988	39.6568
4.90524	36.2095
4.9006	32.6158
4.89597	29.106
4.89135	26.1208
4.88674	24.0691
4.88214	23.0998
4.87755	23.0498
4.87296	23.3415
4.86839	23.5877
4.86382	23.4611
4.85926	22.9769
4.85471	22.3177
4.85017	21.6068
4.84564	21.1407
4.84111	21.1217
4.8366	21.4012
4.83209	21.9965
4.82759	22.9805
4.8231	24.2957
4.81862	25.6813
4.81415	26.7884
4.80968	27.5328
4.80522	27.7901
4.80077	27.6365
4.79633	27.0481
4.7919	26.3953
4.78747	26.0961
4.78306	26.2048
4.77865	26.635
4.77425	27.2833
4.76986	27.9591
4.76547	28.6417
4.7611	29.4948
4.75673	30.4287
4.75237	31.3259
4.74802	31.9094
4.74367	32.0415
4.73934	31.7856
4.73501	31.362
4.73069	30.7918
4.72638	30.2546
4.72207	29.9163
4.71777	29.656
4.71348	29.2276
4.7092	28.7057
4.70493	28.3327
4.70066	28.0046
4.69641	27.7017
4.69216	27.5634
4.68791	27.414
4.68368	27.1636
4.67945	26.7895
4.67523	26.59
4.67102	26.7239
4.66682	27.1457
4.66262	27.901
4.65843	28.9688
4.65425	30.2314
4.65007	31.4852
4.64591	32.5756
4.64175	33.3883
4.6376	33.7809
4.63345	33.9319
4.62932	33.933
4.62519	33.8828
4.62106	33.8556
4.61695	33.9174
4.61284	34.0525
4.60874	34.197
4.60465	34.2635
4.60056	34.2062
4.59648	34.0982
4.59241	33.9925
4.58835	33.8425
4.58429	33.5815
4.58024	33.1923
4.5762	32.7791
4.57216	32.3713
4.56814	32.0755
4.56411	31.932
4.5601	31.8816
4.55609	31.952
4.55209	32.1785
4.5481	32.4987
4.54411	32.9975
4.54013	33.5951
4.53616	34.1799
4.5322	34.7105
4.52824	35.2896
4.52429	35.9791
4.52034	36.7219
4.51641	37.4027
4.51247	38.0546
4.50855	38.6807
4.50463	39.2879
4.50072	39.8764
4.49682	40.3301
4.49292	40.7634
4.48903	41.1574
4.48515	41.4884
4.48127	41.7307
4.4774	41.9149
4.47354	42.0557
4.46968	42.0864
4.46584	42.1102
4.46199	42.1578
4.45815	42.1342
4.45432	42.2239
4.4505	42.3863
4.44668	42.6471
4.44287	42.9528
4.43907	43.1567
4.43527	43.3102
4.43148	43.5399
4.4277	43.7863
4.42392	44.0164
4.42015	44.2723
4.41638	44.5452
4.41262	44.8382
4.40887	45.1567
4.40513	45.5154
4.40139	45.882
4.39765	46.2088
4.39393	46.5166
4.39021	46.8349
4.38649	47.1217
4.38278	47.2728
4.37908	47.4073
4.37539	47.6317
4.3717	47.9272
4.36801	48.3016
4.36434	48.65
4.36067	48.9905
4.357	49.3553
4.35335	49.6738
4.34969	49.9457
4.34605	50.249
4.34241	50.5144
4.33877	50.6149
4.33514	50.6795
4.33152	50.7264
4.32791	50.7121
4.3243	50.5156
4.32069	50.2166
4.3171	49.8297
4.31351	49.3562
4.30992	48.7653
4.30634	48.1332
4.30277	47.5557
4.2992	47.039
4.29564	46.6485
4.29208	46.3689
4.28853	46.0806
4.28499	45.85
4.28145	45.724
4.27792	45.7229
4.27439	45.7681
4.27087	45.8936
4.26735	46.1189
4.26384	46.4333
4.26034	46.8339
4.25684	47.2183
4.25335	47.4141
4.24986	47.639
4.24638	47.9248
4.24291	48.1703
4.23944	48.5751
4.23598	49.0303
4.23252	49.56
4.22906	50.2345
4.22562	51.0317
4.22218	51.8833
4.21874	52.7415
4.21531	53.6751
4.21189	54.5959
4.20847	55.513
4.20506	56.4076
4.20165	57.3015
4.19825	58.2501
4.19485	59.2897
4.19146	60.38
4.18807	61.545
4.18469	62.732
4.18132	63.8845
4.17795	65.0047
4.17458	66.1081
4.17123	67.2148
4.16787	68.2581
4.16453	69.1932
4.16118	70.0363
4.15785	70.8871
4.15451	71.6246
4.15119	72.2699
4.14787	72.9357
4.14455	73.5644
4.14124	74.1619
4.13794	74.7722
4.13464	75.3577
4.13134	75.8664
4.12805	76.2886
4.12477	76.7111
4.12149	77.1672
4.11822	77.6191
4.11495	78.0586
4.11168	78.4465
4.10843	78.8537
4.10517	79.186
4.10192	79.4991
4.09868	79.8554
4.09545	80.1734
4.09221	80.4756
4.08899	80.7593
4.08576	81.1052
4.08255	81.4664
4.07933	81.7814
4.07613	82.0565
4.07292	82.3691
4.06973	82.7114
4.06654	82.9427
4.06335	83.1732
4.06017	83.4056
4.05699	83.6007
4.05382	83.7876
4.05065	84.0237
4.04749	84.2073
4.04433	84.4001
4.04118	84.6005
4.03803	84.7823
4.03489	84.9353
4.03175	85.0864
4.02862	85.128
4.02549	85.209
4.02237	85.363
4.01925	85.4936
4.01614	85.5916
4.01303	85.7207
4.00993	85.8192
4.00683	85.857
4.00373	85.8604
4.00064	85.857
3.99756	85.8782
3.99448	85.9368
3.9914	86.0157
3.98833	86.0176
3.98527	85.961
3.98221	85.9439
3.97915	85.9773
3.9761	86.0695
3.97305	86.1981
3.97001	86.2923
3.96697	86.3905
3.96394	86.5189
3.96091	86.5601
3.95789	86.6471
3.95487	86.8567
3.95186	86.9998
3.94885	87.1243
3.94584	87.2548
3.94284	87.3507
3.93984	87.5063
3.93685	87.6705
3.93386	87.7891
3.93088	87.8599
3.9279	87.9947
3.92493	88.1284
3.92196	88.2514
3.919	88.3466
3.91604	88.4521
3.91308	88.5183
3.91013	88.4747
3.90718	88.4024
3.90424	88.3139
3.9013	88.1374
3.89837	87.8679
3.89544	87.5823
3.89252	87.3711
3.8896	87.081
3.88668	86.911
3.88377	86.9924
3.88086	87.1239
3.87796	87.2094
3.87506	87.2844
3.87217	87.3114
3.86928	87.3422
3.86639	87.3771
3.86351	87.516
3.86064	87.733
3.85776	87.9028
3.8549	88.0429
3.85203	88.1817
3.84917	88.263
3.84631	88.421
3.84346	88.5847
3.84062	88.6928
3.83777	88.8389
3.83494	88.9858
3.8321	89.1475
3.82927	89.4124
3.82644	89.5926
3.82362	89.7556
3.82081	89.9302
3.81799	90.0301
3.81518	90.1821
3.81238	90.388
3.80958	90.4851
3.80678	90.4874
3.80399	90.4989
3.8012	90.62
3.79841	90.698
3.79563	90.6666
3.79286	90.617
3.79008	90.642
3.78731	90.6428
3.78455	90.6756
3.78179	90.6912
3.77903	90.6423
3.77628	90.6055
3.77353	90.6163
3.77079	90.5864
3.76805	90.5529
3.76531	90.5208
3.76258	90.4866
3.75985	90.4285
3.75713	90.3164
3.7544	90.2842
3.75169	90.276
3.74898	90.2007
3.74627	90.2175
3.74356	90.3458
3.74086	90.343
3.73816	90.3441
3.73547	90.3127
3.73278	90.3083
3.7301	90.3583
3.72741	90.2972
3.72474	90.3302
3.72206	90.3327
3.71939	90.292
3.71673	90.3109
3.71406	90.3126
3.71141	90.3741
3.70875	90.4178
3.7061	90.3996
3.70345	90.3898
3.70081	90.3655
3.69817	90.3606
3.69553	90.4109
3.6929	90.373
3.69027	90.3153
3.68765	90.376
3.68503	90.4579
3.68241	90.4559
3.6798	90.4345
3.67719	90.4099
3.67458	90.3865
3.67198	90.2939
3.66938	90.2213
3.66678	90.2396
3.66419	90.2414
3.66161	90.2362
3.65902	90.2524
3.65644	90.1889
3.65387	90.1106
3.65129	90.091
3.64872	90.0122
3.64616	89.988
3.64359	89.996
3.64103	89.9948
3.63848	90.0124
3.63593	89.9764
3.63338	89.8656
3.63084	89.8153
3.6283	89.8041
3.62576	89.8076
3.62322	89.7765
3.62069	89.6975
3.61817	89.5901
3.61564	89.5303
3.61312	89.4835
3.61061	89.4762
3.6081	89.4465
3.60559	89.3939
3.60308	89.3759
3.60058	89.3484
3.59808	89.2946
3.59558	89.2453
3.59309	89.2124
3.59061	89.1818
3.58812	89.2206
3.58564	89.1881
3.58316	89.1146
3.58069	89.0933
3.57822	89.0591
3.57575	89.0351
3.57328	89.052
3.57082	89.0288
3.56836	88.9651
3.56591	88.9461
3.56346	88.9825
3.56101	88.8574
3.55857	88.6809
3.55613	88.6945
3.55369	88.7066
3.55126	88.6182
3.54883	88.543
3.5464	88.5987
3.54397	88.6127
3.54155	88.513
3.53914	88.4633
3.53672	88.4864
3.53431	88.4233
3.5319	88.2132
3.5295	88.1128
3.5271	88.1446
3.5247	88.0629
3.52231	87.9719
3.51991	87.8812
3.51753	87.7033
3.51514	87.4707
3.51276	87.197
3.51038	87.0005
3.50801	86.8273
3.50563	86.5751
3.50327	86.4235
3.5009	86.3528
3.49854	86.2951
3.49618	86.3556
3.49382	86.4586
3.49147	86.5314
3.48912	86.6022
3.48677	86.6462
3.48443	86.7182
3.48209	86.7359
3.47975	86.7148
3.47742	86.672
3.47509	86.6578
3.47276	86.5938
3.47044	86.5885
3.46812	86.5996
3.4658	86.6333
3.46348	86.7228
