Name: Vermiculite (Mg,Fe^2+,Al)_3(Al,Si)_4O_10(OH)_2.4H_2O
Type: Mineral
Class: Silicates
Subclass: Phyllosilicates
Particle Size: 45-125um
Sample No.: PS-18B
Owner: JPL
Wavelength range: IR
Origin: USA, Montana, Lincoln County, Libby
Collected by Ward's
Description: 





Measurement: Hemispherical reflectance
First Column: X
Second Column: Y
X Units:  Wavelength (micrometers)
Y Units:  Reflectance (percent)
First X Value: 15.3853
Last X Value: 2.00032
Number of X Values: 2256
Additional information: ps18ba.txt
 
15.3853	1.04399
15.3397	1.01378
15.2945	1.04461
15.2495	1.02367
15.2048	0.995592
15.1603	1.01208
15.1161	1.14679
15.0722	1.24323
15.0285	1.19217
14.9851	1.29022
14.9419	1.33726
14.8989	1.41165
14.8563	1.2894
14.8138	1.15571
14.7716	1.16661
14.7296	1.09889
14.6879	1.01803
14.6464	1.12417
14.6052	1.20204
14.5641	1.00336
14.5233	0.915859
14.4828	1.05607
14.4424	1.30935
14.4023	1.30547
14.3624	1.13585
14.3227	1.01425
14.2833	0.959311
14.244	1.05216
14.205	1.21639
14.1662	1.14676
14.1276	1.13177
14.0892	1.10619
14.051	1.1436
14.0131	1.13762
13.9753	1.03124
13.9377	1.14862
13.9004	1.12182
13.8632	1.02188
13.8262	1.02224
13.7895	1.15919
13.7529	1.15924
13.7165	1.13317
13.6803	1.13189
13.6443	1.07333
13.6085	1.16571
13.5729	1.17626
13.5374	1.18095
13.5022	1.23812
13.4671	1.07191
13.4322	1.21961
13.3975	1.40645
13.363	1.29364
13.3286	1.2211
13.2944	1.23546
13.2604	1.26089
13.2266	1.35263
13.193	1.3202
13.1595	1.30781
13.1262	1.33013
13.093	1.37344
13.06	1.34235
13.0272	1.30694
12.9946	1.40931
12.9621	1.41731
12.9298	1.23806
12.8976	1.30311
12.8656	1.2638
12.8337	1.34466
12.8021	1.47334
12.7705	1.42114
12.7391	1.52461
12.7079	1.64717
12.6769	1.61885
12.6459	1.58191
12.6152	1.61287
12.5845	1.62162
12.5541	1.59034
12.5238	1.72371
12.4936	1.90459
12.4635	2.04146
12.4337	2.04551
12.4039	1.9948
12.3743	2.08087
12.3448	1.99715
12.3155	1.87546
12.2863	2.06633
12.2573	2.24853
12.2284	2.21186
12.1996	2.28704
12.171	2.42181
12.1425	2.43406
12.1141	2.32994
12.0859	2.3039
12.0578	2.46295
12.0298	2.51983
12.0019	2.61915
11.9742	2.81734
11.9466	2.90137
11.9192	2.8366
11.8918	2.79364
11.8646	2.91179
11.8375	3.05001
11.8106	3.06352
11.7837	3.16944
11.757	3.19079
11.7304	3.19903
11.7039	3.19397
11.6776	3.17437
11.6513	3.36097
11.6252	3.437
11.5992	3.41753
11.5733	3.53989
11.5475	3.51794
11.5219	3.5525
11.4963	3.56325
11.4709	3.5907
11.4455	3.64975
11.4203	3.6299
11.3952	3.66255
11.3702	3.72634
11.3454	3.69545
11.3206	3.75778
11.2959	3.86654
11.2714	3.89907
11.2469	3.86745
11.2226	3.83308
11.1983	3.84494
11.1742	3.97546
11.1502	4.09445
11.1263	4.0137
11.1024	3.9478
11.0787	4.00311
11.0551	4.04571
11.0316	3.97181
11.0081	3.91377
10.9848	3.95755
10.9616	4.07957
10.9385	4.21775
10.9154	4.21543
10.8925	4.25782
10.8697	4.30737
10.8469	4.42696
10.8243	4.41682
10.8017	4.29362
10.7793	4.32462
10.7569	4.32982
10.7346	4.25194
10.7125	4.24831
10.6904	4.34764
10.6684	4.49694
10.6465	4.64818
10.6247	4.64534
10.6029	4.75551
10.5813	4.90339
10.5597	4.9604
10.5383	5.05999
10.5169	5.08084
10.4956	5.17999
10.4744	5.23821
10.4533	5.22366
10.4323	5.20933
10.4113	5.24717
10.3904	5.30353
10.3697	5.45179
10.349	5.57807
10.3284	5.62387
10.3078	5.67383
10.2874	5.57124
10.267	5.59176
10.2467	5.68895
10.2265	5.68604
10.2064	5.76948
10.1863	6.0077
10.1663	6.35274
10.1464	6.57344
10.1266	6.58447
10.1069	6.58755
10.0872	6.78347
10.0676	7.059
10.0481	7.24624
10.0287	7.44855
10.0093	7.67735
9.99005	7.96239
9.97084	8.21633
9.95169	8.37213
9.93263	8.58183
9.91364	8.9237
9.89472	9.16933
9.87587	9.28943
9.8571	9.42351
9.83839	9.63867
9.81976	9.85553
9.80119	10.0083
9.78271	10.1115
9.76428	10.251
9.74592	10.2829
9.72764	10.1853
9.70943	10.1633
9.69128	10.2
9.6732	10.1873
9.65518	10.0415
9.63724	9.87462
9.61935	9.73677
9.60155	9.5564
9.5838	9.33375
9.56611	9.2119
9.5485	8.92724
9.53094	8.64366
9.51345	8.52534
9.49604	8.26723
9.47867	7.8624
9.46137	7.62938
9.44414	7.467
9.42697	7.29178
9.40986	7.10211
9.39281	6.87475
9.37583	6.68696
9.35891	6.60976
9.34204	6.46011
9.32524	6.27947
9.3085	6.09226
9.29182	5.90984
9.27519	5.63888
9.25863	5.50317
9.24213	5.35448
9.22568	5.09936
9.2093	4.75206
9.19297	4.71316
9.17669	4.65172
9.16048	4.55693
9.14433	4.48045
9.12823	4.39101
9.11218	4.37407
9.0962	4.41019
9.08027	4.32117
9.06439	4.07382
9.04858	4.04745
9.03281	3.94115
9.0171	3.81333
9.00145	3.77958
8.98585	3.65085
8.9703	3.55421
8.9548	3.50696
8.93937	3.3419
8.92398	3.24295
8.90865	3.11945
8.89337	2.85814
8.87814	2.68924
8.86296	2.56675
8.84784	2.40981
8.83277	2.25138
8.81774	2.09212
8.80277	1.93181
8.78786	1.80414
8.77298	1.70836
8.75816	1.61734
8.7434	1.40811
8.72868	1.20477
8.714	1.16439
8.69938	1.0754
8.68481	0.95378
8.67029	0.845817
8.65581	0.779686
8.64139	0.855035
8.62701	0.975418
8.61268	0.891482
8.5984	0.639901
8.58416	0.608645
8.56997	0.696603
8.55583	0.685816
8.54174	0.61897
8.52769	0.623183
8.51368	0.619885
8.49973	0.68791
8.48582	0.64317
8.47195	0.58461
8.45813	0.619373
8.44436	0.675504
8.43062	0.624114
8.41693	0.645554
8.4033	0.694173
8.3897	0.703494
8.37614	0.784891
8.36264	0.840058
8.34917	0.799006
8.33574	0.700703
8.32236	0.602348
8.30903	0.774284
8.29573	0.873325
8.28248	0.841163
8.26927	0.873877
8.2561	0.864402
8.24298	0.827341
8.2299	0.940018
8.21685	1.1332
8.20385	1.18807
8.19089	1.21279
8.17797	1.20921
8.16509	1.11604
8.15225	1.0982
8.13946	1.14838
8.1267	1.25969
8.11398	1.18492
8.10131	1.12291
8.08867	1.17916
8.07606	1.30828
8.0635	1.3047
8.05099	1.28248
8.0385	1.30383
8.02606	1.36007
8.01366	1.46957
8.00129	1.47082
7.98896	1.5384
7.97667	1.65787
7.96442	1.73112
7.9522	1.76161
7.94002	1.78268
7.92788	1.77948
7.91578	1.79186
7.90371	1.85615
7.89168	1.9655
7.87969	2.02588
7.86773	1.99004
7.85581	1.93283
7.84392	1.99775
7.83207	2.11486
7.82026	2.12806
7.80849	2.18686
7.79674	2.25471
7.78503	2.2212
7.77337	2.2682
7.76173	2.40399
7.75012	2.55241
7.73856	2.56813
7.72703	2.49796
7.71553	2.55762
7.70406	2.67684
7.69263	2.74658
7.68123	2.70565
7.66987	2.69691
7.65855	2.73676
7.64725	2.74787
7.63598	2.83164
7.62475	2.92873
7.61356	3.00503
7.60239	3.06421
7.59126	3.13283
7.58017	3.14515
7.5691	3.20753
7.55806	3.26819
7.54707	3.33168
7.5361	3.40149
7.52516	3.47604
7.51425	3.4315
7.50338	3.42637
7.49253	3.51802
7.48172	3.60953
7.47094	3.72266
7.46019	3.79207
7.44947	3.80011
7.43879	3.84023
7.42813	3.92841
7.4175	3.94283
7.4069	3.95055
7.39634	3.98213
7.3858	4.03945
7.37529	4.06668
7.36482	4.17077
7.35437	4.24248
7.34396	4.25755
7.33357	4.31073
7.32321	4.36104
7.31288	4.34184
7.30258	4.33744
7.29231	4.39514
7.28207	4.42708
7.27185	4.48849
7.26167	4.5655
7.25152	4.63539
7.24139	4.66479
7.23129	4.69778
7.22122	4.70553
7.21117	4.73159
7.20116	4.83608
7.19117	4.97302
7.18121	5.00981
7.17128	4.99609
7.16137	5.08839
7.1515	5.19545
7.14164	5.26954
7.13182	5.36716
7.12203	5.39553
7.11225	5.38047
7.10251	5.44192
7.0928	5.60027
7.08311	5.61563
7.07344	5.55245
7.06381	5.55271
7.0542	5.58205
7.04461	5.72922
7.03506	5.84625
7.02552	5.86904
7.01601	5.97743
7.00653	6.09151
6.99708	6.01763
6.98765	6.00589
6.97824	6.16454
6.96886	6.2358
6.95951	6.25919
6.95018	6.33704
6.94087	6.46891
6.9316	6.47216
6.92234	6.36484
6.91311	6.34761
6.90391	6.40685
6.89473	6.52474
6.88557	6.5687
6.87644	6.56558
6.86733	6.56139
6.85824	6.55352
6.84918	6.58979
6.84015	6.67959
6.83114	6.6984
6.82215	6.69512
6.81319	6.77905
6.80424	6.74071
6.79532	6.6667
6.78643	6.61936
6.77756	6.66928
6.76871	6.77903
6.75989	6.79393
6.75109	6.76496
6.74231	6.80093
6.73355	6.796
6.72482	6.75579
6.71611	6.74154
6.70742	6.72047
6.69875	6.68318
6.69011	6.69824
6.68149	6.76564
6.67289	6.77414
6.66431	6.72482
6.65576	6.64317
6.64722	6.66072
6.63871	6.68607
6.63022	6.70245
6.62175	6.7501
6.61331	6.71537
6.60488	6.67835
6.59648	6.66761
6.5881	6.75218
6.57974	6.79785
6.5714	6.66059
6.56308	6.56806
6.55478	6.53272
6.54651	6.45297
6.53825	6.44995
6.53001	6.46377
6.5218	6.44872
6.51361	6.42631
6.50544	6.42032
6.49729	6.38421
6.48915	6.28754
6.48104	6.29483
6.47295	6.3787
6.46488	6.31967
6.45683	6.15164
6.4488	6.19991
6.44079	6.24815
6.4328	6.12209
6.42482	6.13714
6.41687	6.14674
6.40894	6.09982
6.40103	6.05709
6.39314	5.97516
6.38526	5.87165
6.37741	5.8256
6.36957	5.80774
6.36176	5.80743
6.35396	5.80906
6.34618	5.69979
6.33843	5.55944
6.33069	5.42714
6.32297	5.32687
6.31527	5.26359
6.30758	5.24708
6.29992	5.19382
6.29227	5.01419
6.28465	4.8623
6.27704	4.78043
6.26945	4.59275
6.26188	4.39804
6.25432	4.34621
6.24679	4.20656
6.23927	4.02962
6.23177	3.96627
6.22429	3.852
6.21683	3.6214
6.20938	3.49832
6.20195	3.40572
6.19454	3.34036
6.18715	3.28262
6.17978	3.16726
6.17242	2.96554
6.16508	2.77212
6.15776	2.66027
6.15045	2.59195
6.14317	2.53097
6.1359	2.54095
6.12864	2.54425
6.12141	2.50618
6.11419	2.40169
6.10699	2.25884
6.0998	2.21704
6.09263	2.17994
6.08549	2.24926
6.07835	2.43534
6.07123	2.53159
6.06413	2.45627
6.05705	2.36238
6.04998	2.29637
6.04293	2.35922
6.0359	2.40242
6.02888	2.46354
6.02187	2.58824
6.01489	2.60366
6.00792	2.64318
6.00096	2.67717
5.99403	2.65972
5.98711	2.75261
5.9802	2.82555
5.97331	2.87386
5.96644	2.99819
5.95958	3.16356
5.95274	3.25381
5.94591	3.34583
5.9391	3.5172
5.9323	3.65192
5.92552	3.77471
5.91876	4.00287
5.91201	4.13257
5.90528	4.26532
5.89856	4.48713
5.89186	4.73628
5.88517	4.93503
5.8785	5.15354
5.87184	5.35308
5.8652	5.51787
5.85857	5.75452
5.85196	5.96612
5.84536	6.15317
5.83878	6.39914
5.83221	6.64183
5.82566	6.92654
5.81912	7.09722
5.81259	7.28973
5.80608	7.59525
5.79959	7.90045
5.79311	8.1386
5.78665	8.3214
5.78019	8.57235
5.77376	8.83156
5.76734	9.04814
5.76093	9.2295
5.75453	9.39215
5.74815	9.5853
5.74179	9.77946
5.73543	9.92248
5.7291	10.1044
5.72277	10.3147
5.71646	10.4847
5.71017	10.6028
5.70389	10.7354
5.69762	10.8573
5.69136	11.0145
5.68513	11.2036
5.6789	11.3349
5.67268	11.4864
5.66648	11.6284
5.6603	11.7635
5.65413	11.9106
5.64797	12.0296
5.64182	12.1624
5.63569	12.3349
5.62957	12.4486
5.62347	12.5548
5.61737	12.6535
5.61129	12.7963
5.60522	12.9133
5.59917	13.0224
5.59313	13.1708
5.5871	13.2665
5.58109	13.3199
5.57509	13.4359
5.5691	13.5747
5.56312	13.6714
5.55716	13.7499
5.55121	13.8791
5.54528	14.0141
5.53935	14.1631
5.53344	14.2891
5.52754	14.3533
5.52166	14.4257
5.51578	14.5929
5.50992	14.6774
5.50407	14.7657
5.49823	14.8965
5.49241	14.9424
5.4866	15.0117
5.4808	15.155
5.47501	15.2804
5.46923	15.3587
5.46347	15.396
5.45772	15.4824
5.45198	15.6026
5.44625	15.6752
5.44054	15.7629
5.43484	15.8458
5.42914	15.9306
5.42347	15.9264
5.4178	15.9002
5.41214	16.0585
5.4065	16.1706
5.40087	16.2288
5.39525	16.3173
5.38964	16.3373
5.38404	16.3338
5.37846	16.4707
5.37288	16.5978
5.36732	16.7016
5.36177	16.7568
5.35623	16.7697
5.35071	16.8472
5.34519	16.9846
5.33968	17.0229
5.33419	17.0713
5.32871	17.2052
5.32324	17.2845
5.31778	17.2825
5.31233	17.3048
5.30689	17.3301
5.30147	17.3664
5.29605	17.442
5.29065	17.5232
5.28525	17.6147
5.27987	17.6801
5.2745	17.7785
5.26914	17.909
5.26379	17.9415
5.25845	17.9711
5.25312	18.108
5.24781	18.2094
5.2425	18.2302
5.23721	18.2995
5.23192	18.3562
5.22665	18.3803
5.22138	18.4433
5.21613	18.4707
5.21089	18.5709
5.20566	18.6526
5.20044	18.5455
5.19522	18.4933
5.19002	18.5067
5.18483	18.5472
5.17965	18.666
5.17448	18.7096
5.16933	18.6256
5.16418	18.6327
5.15904	18.6189
5.15391	18.5948
5.14879	18.5956
5.14368	18.5646
5.13859	18.4886
5.1335	18.4562
5.12842	18.4339
5.12335	18.4192
5.1183	18.3369
5.11325	18.192
5.10821	18.1743
5.10318	18.1891
5.09817	18.11
5.09316	18.0335
5.08816	17.9626
5.08317	17.915
5.07819	17.8625
5.07322	17.8028
5.06826	17.8176
5.06331	17.81
5.05837	17.7549
5.05344	17.6936
5.04852	17.6538
5.04361	17.6474
5.03871	17.6365
5.03382	17.6583
5.02894	17.6659
5.02406	17.6527
5.0192	17.6642
5.01435	17.7428
5.0095	17.7836
5.00467	17.8265
4.99984	17.8603
4.99502	17.9213
4.99021	17.9503
4.98542	17.8742
4.98063	17.8895
4.97585	17.9774
4.97108	18.0054
4.96632	17.9872
4.96156	18.0447
4.95682	18.1338
4.95209	18.116
4.94736	18.0627
4.94264	18.127
4.93794	18.1461
4.93324	18.136
4.92855	18.2089
4.92387	18.2283
4.9192	18.2007
4.91453	18.2025
4.90988	18.2635
4.90524	18.2772
4.9006	18.2715
4.89597	18.2853
4.89135	18.2718
4.88674	18.2404
4.88214	18.2505
4.87755	18.3094
4.87296	18.3117
4.86839	18.3456
4.86382	18.4564
4.85926	18.4773
4.85471	18.488
4.85017	18.5641
4.84564	18.6384
4.84111	18.6183
4.8366	18.5744
4.83209	18.5745
4.82759	18.6231
4.8231	18.6641
4.81862	18.7719
4.81415	18.8452
4.80968	18.844
4.80522	18.9247
4.80077	19.0223
4.79633	19.1313
4.7919	19.1554
4.78747	19.1546
4.78306	19.3047
4.77865	19.4491
4.77425	19.4814
4.76986	19.4839
4.76547	19.6005
4.7611	19.6416
4.75673	19.6294
4.75237	19.6921
4.74802	19.7908
4.74367	19.9296
4.73934	20.015
4.73501	20.019
4.73069	20.1113
4.72638	20.2711
4.72207	20.3459
4.71777	20.3025
4.71348	20.3314
4.7092	20.4125
4.70493	20.4621
4.70066	20.6012
4.69641	20.7142
4.69216	20.7969
4.68791	20.9463
4.68368	20.9582
4.67945	20.947
4.67523	21.0124
4.67102	21.0908
4.66682	21.138
4.66262	21.1912
4.65843	21.1617
4.65425	21.1822
4.65007	21.3338
4.64591	21.4629
4.64175	21.5042
4.6376	21.5243
4.63345	21.617
4.62932	21.6775
4.62519	21.7228
4.62106	21.7874
4.61695	21.8145
4.61284	21.9094
4.60874	22.0621
4.60465	22.2246
4.60056	22.3394
4.59648	22.4437
4.59241	22.514
4.58835	22.5339
4.58429	22.5876
4.58024	22.6354
4.5762	22.6041
4.57216	22.6378
4.56814	22.7283
4.56411	22.8405
4.5601	22.9145
4.55609	22.896
4.55209	22.9278
4.5481	23.0917
4.54411	23.247
4.54013	23.3491
4.53616	23.3887
4.5322	23.413
4.52824	23.4928
4.52429	23.5202
4.52034	23.5553
4.51641	23.6397
4.51247	23.734
4.50855	23.7871
4.50463	23.8462
4.50072	23.8528
4.49682	23.8764
4.49292	23.9677
4.48903	24.0202
4.48515	24.0471
4.48127	24.1353
4.4774	24.1825
4.47354	24.1995
4.46968	24.2657
4.46584	24.3315
4.46199	24.3642
4.45815	24.3821
4.45432	24.3887
4.4505	24.4377
4.44668	24.5143
4.44287	24.5584
4.43907	24.6254
4.43527	24.6711
4.43148	24.7084
4.4277	24.7293
4.42392	24.8218
4.42015	24.8707
4.41638	24.863
4.41262	24.9546
4.40887	25.0678
4.40513	25.1524
4.40139	25.1156
4.39765	25.1038
4.39393	25.2097
4.39021	25.2216
4.38649	25.2277
4.38278	25.2951
4.37908	25.4519
4.37539	25.5605
4.3717	25.5453
4.36801	25.6114
4.36434	25.7098
4.36067	25.7266
4.357	25.8092
4.35335	25.8783
4.34969	25.9413
4.34605	26.0619
4.34241	26.1629
4.33877	26.1937
4.33514	26.2811
4.33152	26.4433
4.32791	26.511
4.3243	26.5739
4.32069	26.6552
4.3171	26.6964
4.31351	26.7592
4.30992	26.8435
4.30634	26.9443
4.30277	27.1434
4.2992	27.2972
4.29564	27.34
4.29208	27.4549
4.28853	27.6225
4.28499	27.7415
4.28145	27.8232
4.27792	27.8655
4.27439	27.9007
4.27087	27.9568
4.26735	28.0648
4.26384	28.1245
4.26034	28.2002
4.25684	28.2883
4.25335	28.3311
4.24986	28.4649
4.24638	28.6818
4.24291	28.8544
4.23944	28.9457
4.23598	29.0426
4.23252	29.1204
4.22906	29.2084
4.22562	29.3097
4.22218	29.3866
4.21874	29.4845
4.21531	29.6285
4.21189	29.6584
4.20847	29.6244
4.20506	29.6741
4.20165	29.7465
4.19825	29.8079
4.19485	29.9006
4.19146	29.9417
4.18807	30.0155
4.18469	30.1987
4.18132	30.3986
4.17795	30.529
4.17458	30.6416
4.17123	30.6743
4.16787	30.734
4.16453	30.8484
4.16118	30.933
4.15785	31.0435
4.15451	31.2064
4.15119	31.3404
4.14787	31.3532
4.14455	31.4315
4.14124	31.5988
4.13794	31.6874
4.13464	31.7368
4.13134	31.8457
4.12805	32.0381
4.12477	32.2383
4.12149	32.3823
4.11822	32.3575
4.11495	32.3935
4.11168	32.5208
4.10843	32.6722
4.10517	32.8137
4.10192	32.8658
4.09868	32.9928
4.09545	33.1639
4.09221	33.1978
4.08899	33.2885
4.08576	33.4413
4.08255	33.5622
4.07933	33.6654
4.07613	33.7383
4.07292	33.9148
4.06973	34.11
4.06654	34.2332
4.06335	34.357
4.06017	34.4143
4.05699	34.4682
4.05382	34.5117
4.05065	34.6619
4.04749	34.8391
4.04433	34.9468
4.04118	35.0637
4.03803	35.2043
4.03489	35.3104
4.03175	35.438
4.02862	35.533
4.02549	35.658
4.02237	35.8036
4.01925	35.8881
4.01614	35.9656
4.01303	36.0978
4.00993	36.2276
4.00683	36.3954
4.00373	36.4746
4.00064	36.5673
3.99756	36.6695
3.99448	36.74
3.9914	36.7866
3.98833	36.9169
3.98527	37.01
3.98221	37.0944
3.97915	37.2004
3.9761	37.2692
3.97305	37.4149
3.97001	37.5807
3.96697	37.6602
3.96394	37.7461
3.96091	37.8594
3.95789	37.9291
3.95487	38.005
3.95186	38.1388
3.94885	38.2322
3.94584	38.3119
3.94284	38.3898
3.93984	38.4882
3.93685	38.5988
3.93386	38.7305
3.93088	38.782
3.9279	38.8076
3.92493	38.8903
3.92196	38.9506
3.919	39.0352
3.91604	39.1212
3.91308	39.214
3.91013	39.2815
3.90718	39.3571
3.90424	39.438
3.9013	39.4221
3.89837	39.4028
3.89544	39.4654
3.89252	39.4992
3.8896	39.5578
3.88668	39.6164
3.88377	39.6704
3.88086	39.7222
3.87796	39.7852
3.87506	39.8027
3.87217	39.8296
3.86928	39.8544
3.86639	39.9302
3.86351	39.9327
3.86064	39.8537
3.85776	39.8714
3.8549	39.8597
3.85203	39.8048
3.84917	39.8849
3.84631	40.0082
3.84346	40.0581
3.84062	40.0033
3.83777	39.9935
3.83494	39.9327
3.8321	39.8254
3.82927	39.8585
3.82644	39.9115
3.82362	39.8904
3.82081	39.8791
3.81799	39.8311
3.81518	39.7354
3.81238	39.7651
3.80958	39.7908
3.80678	39.7672
3.80399	39.7895
3.8012	39.7143
3.79841	39.6668
3.79563	39.6444
3.79286	39.5715
3.79008	39.4984
3.78731	39.4643
3.78455	39.4372
3.78179	39.3541
3.77903	39.2877
3.77628	39.2482
3.77353	39.199
3.77079	39.1494
3.76805	39.076
3.76531	39.0294
3.76258	38.9741
3.75985	38.87
3.75713	38.773
3.7544	38.7422
3.75169	38.6814
3.74898	38.6362
3.74627	38.5627
3.74356	38.4433
3.74086	38.3935
3.73816	38.4037
3.73547	38.369
3.73278	38.1499
3.7301	37.9577
3.72741	37.8713
3.72474	37.7961
3.72206	37.7052
3.71939	37.58
3.71673	37.4899
3.71406	37.4277
3.71141	37.3514
3.70875	37.2647
3.7061	37.1457
3.70345	36.9701
3.70081	36.8617
3.69817	36.7863
3.69553	36.6786
3.6929	36.606
3.69027	36.5103
3.68765	36.3332
3.68503	36.2015
3.68241	36.0549
3.6798	35.9331
3.67719	35.8548
3.67458	35.7227
3.67198	35.6029
3.66938	35.5425
3.66678	35.4286
3.66419	35.1894
3.66161	35.0153
3.65902	34.9016
3.65644	34.7685
3.65387	34.6534
3.65129	34.5421
3.64872	34.4278
3.64616	34.3181
3.64359	34.1547
3.64103	33.995
3.63848	33.8485
3.63593	33.6776
3.63338	33.5525
3.63084	33.5072
3.6283	33.4043
3.62576	33.1815
3.62322	32.993
3.62069	32.8407
3.61817	32.7137
3.61564	32.6053
3.61312	32.4484
3.61061	32.2979
3.6081	32.1538
3.60559	31.9596
3.60308	31.7594
3.60058	31.6523
3.59808	31.5401
3.59558	31.3542
3.59309	31.2295
3.59061	31.0439
3.58812	30.8744
3.58564	30.719
3.58316	30.6107
3.58069	30.4444
3.57822	30.256
3.57575	30.0877
3.57328	29.9252
3.57082	29.7342
3.56836	29.5246
3.56591	29.3882
3.56346	29.3302
3.56101	29.215
3.55857	28.9116
3.55613	28.6055
3.55369	28.4166
3.55126	28.3406
3.54883	28.1884
3.5464	27.9708
3.54397	27.8143
3.54155	27.6997
3.53914	27.4851
3.53672	27.2455
3.53431	27.0885
3.5319	26.9384
3.5295	26.7722
3.5271	26.586
3.5247	26.4028
3.52231	26.1297
3.51991	25.8653
3.51753	25.7532
3.51514	25.6308
3.51276	25.5349
3.51038	25.35
3.50801	25.1607
3.50563	24.98
3.50327	24.7391
3.5009	24.5155
3.49854	24.3254
3.49618	24.1482
3.49382	24.0063
3.49147	23.7543
3.48912	23.5238
3.48677	23.3895
3.48443	23.233
3.48209	22.9988
3.47975	22.7554
3.47742	22.6185
3.47509	22.4697
