Name: Dolomite Marble
Type: Rock
Class: Metamorphic
Subclass:  Marble 
Particle Size: Solid surface
Sample No.: Ward97.txt
Owner: JPL
Wavelength range:  VNIR SWIR IR 
Origin: Ward's Collection of American Rocks.  Sample locality - Thornwood, Westchester County, New York.  Collected by - JPL.
Collected by:  Ward's Natural Science
Description: A coarse granular marble composed mainly of dolomite.
Geologic age -  Pre-Cambrian




Measurement: Hemispherical reflectance
First Column: X
Second Column: Y
X Units: Wavelength (micrometers)
Y Units: Reflectance (percent)
First X Value: 2.500
Last X Value: 0.400
Number of X Values: 2101
Additional information: None

2.500  11.666233
2.499  11.446121
2.498  11.658253
2.497  12.058320
2.496  11.220181
2.495  12.076928
2.494  11.848775
2.493  11.973741
2.492  11.949731
2.491  12.245344
2.490  12.212209
2.489  12.567228
2.488  12.418207
2.487  12.605090
2.486  12.579176
2.485  12.870070
2.484  12.682633
2.483  13.041468
2.482  12.869051
2.481  13.159159
2.480  12.998137
2.479  13.470977
2.478  13.318232
2.477  13.491267
2.476  13.526330
2.475  13.569708
2.474  13.693032
2.473  13.875648
2.472  13.714247
2.471  13.962886
2.470  13.834846
2.469  13.941363
2.468  13.979628
2.467  14.127316
2.466  14.076022
2.465  14.110204
2.464  14.179596
2.463  14.227632
2.462  14.217919
2.461  14.371371
2.460  14.325114
2.459  14.521858
2.458  14.403861
2.457  14.596827
2.456  14.737786
2.455  14.918203
2.454  14.854131
2.453  15.178191
2.452  15.148571
2.451  15.388608
2.450  15.455111
2.449  15.719250
2.448  15.711713
2.447  16.035088
2.446  16.176456
2.445  16.425608
2.444  16.485142
2.443  16.816467
2.442  16.927784
2.441  17.134896
2.440  17.317095
2.439  17.655575
2.438  17.867429
2.437  18.147445
2.436  18.325836
2.435  18.649645
2.434  18.794175
2.433  19.163065
2.432  19.285321
2.431  19.586176
2.430  19.816319
2.429  20.132130
2.428  20.293798
2.427  20.582205
2.426  20.797983
2.425  21.179709
2.424  21.385209
2.423  21.756777
2.422  22.062145
2.421  22.315524
2.420  22.479500
2.419  22.844811
2.418  23.104084
2.417  23.365364
2.416  23.602635
2.415  23.852100
2.414  24.131163
2.413  24.423635
2.412  24.530984
2.411  24.810812
2.410  24.979911
2.409  25.193557
2.408  25.371626
2.407  25.540063
2.406  25.673213
2.405  25.895168
2.404  25.976739
2.403  26.144242
2.402  26.276634
2.401  26.406493
2.400  26.559443
2.399  26.691974
2.398  26.828161
2.397  26.999564
2.396  27.070175
2.395  27.238124
2.394  27.307779
2.393  27.434209
2.392  27.537619
2.391  27.691241
2.390  27.777176
2.389  27.910139
2.388  28.085919
2.387  28.294592
2.386  28.365593
2.385  28.469274
2.384  28.610459
2.383  28.699591
2.382  28.816359
2.381  28.955023
2.380  29.092232
2.379  29.316891
2.378  29.437162
2.377  29.561635
2.376  29.762255
2.375  29.980721
2.374  30.081871
2.373  30.272104
2.372  30.402946
2.371  30.475416
2.370  30.662957
2.369  30.887929
2.368  30.971186
2.367  31.015803
2.366  31.118234
2.365  31.207064
2.364  31.221236
2.363  31.252045
2.362  31.214983
2.361  31.167243
2.360  31.051514
2.359  30.864560
2.358  30.691038
2.357  30.499916
2.356  30.222177
2.355  29.944717
2.354  29.631633
2.353  29.177193
2.352  28.658007
2.351  28.197664
2.350  27.786538
2.349  27.262827
2.348  26.750738
2.347  26.206102
2.346  25.587002
2.345  24.954119
2.344  24.429377
2.343  23.812612
2.342  23.158718
2.341  22.573450
2.340  21.965498
2.339  21.378725
2.338  20.855477
2.337  20.299865
2.336  19.798846
2.335  19.256841
2.334  18.861368
2.333  18.471216
2.332  18.097062
2.331  17.771902
2.330  17.473560
2.329  17.103934
2.328  16.835386
2.327  16.641268
2.326  16.473496
2.325  16.246408
2.324  16.102918
2.323  15.937125
2.322  15.893568
2.321  15.796358
2.320  15.728555
2.319  15.676686
2.318  15.693076
2.317  15.602484
2.316  15.658732
2.315  15.745969
2.314  15.760955
2.313  15.774417
2.312  15.848236
2.311  15.868843
2.310  15.998501
2.309  16.120256
2.308  16.230013
2.307  16.328427
2.306  16.443467
2.305  16.443334
2.304  16.633010
2.303  16.703959
2.302  16.841589
2.301  16.950107
2.300  17.091532
2.299  17.137522
2.298  17.332091
2.297  17.393803
2.296  17.566863
2.295  17.661431
2.294  17.761873
2.293  17.868355
2.292  18.076915
2.291  18.096260
2.290  18.323315
2.289  18.497542
2.288  18.579871
2.287  18.632427
2.286  18.762599
2.285  18.875315
2.284  18.995938
2.283  19.061065
2.282  19.210385
2.281  19.351167
2.280  19.513827
2.279  19.505578
2.278  19.639042
2.277  19.700120
2.276  19.825049
2.275  19.792665
2.274  20.040083
2.273  20.009087
2.272  20.180466
2.271  20.269310
2.270  20.491518
2.269  20.492361
2.268  20.655522
2.267  20.779284
2.266  20.967213
2.265  21.127054
2.264  21.396667
2.263  21.467066
2.262  21.681636
2.261  21.956394
2.260  22.270852
2.259  22.454989
2.258  22.739575
2.257  22.906131
2.256  23.295029
2.255  23.535656
2.254  23.948783
2.253  24.208262
2.252  24.466008
2.251  24.813130
2.250  25.143886
2.249  25.409618
2.248  25.714664
2.247  26.120145
2.246  26.357630
2.245  26.622405
2.244  26.998762
2.243  27.308097
2.242  27.677585
2.241  27.921011
2.240  28.210869
2.239  28.543273
2.238  28.893377
2.237  29.097692
2.236  29.447437
2.235  29.671844
2.234  30.049230
2.233  30.233859
2.232  30.616110
2.231  30.700578
2.230  31.060145
2.229  31.260866
2.228  31.519446
2.227  31.724427
2.226  32.015142
2.225  32.097826
2.224  32.383920
2.223  32.569925
2.222  32.829468
2.221  32.945958
2.220  33.288247
2.219  33.446691
2.218  33.705653
2.217  33.769139
2.216  34.162135
2.215  34.221462
2.214  34.633743
2.213  34.649064
2.212  35.027905
2.211  34.986335
2.210  35.551706
2.209  35.755533
2.208  35.956739
2.207  36.138005
2.206  36.455560
2.205  36.639973
2.204  37.071040
2.203  37.071760
2.202  37.473607
2.201  37.607279
2.200  38.070633
2.199  38.125651
2.198  38.434298
2.197  38.523293
2.196  38.902026
2.195  39.125572
2.194  39.306308
2.193  39.480604
2.192  39.741922
2.191  39.860200
2.190  40.156570
2.189  40.374119
2.188  40.536394
2.187  40.678516
2.186  40.886492
2.185  40.954010
2.184  41.226240
2.183  41.388807
2.182  41.444370
2.181  41.623341
2.180  41.774007
2.179  41.782618
2.178  41.957351
2.177  42.053840
2.176  42.079601
2.175  42.102145
2.174  42.283767
2.173  42.264074
2.172  42.325273
2.171  42.284299
2.170  42.348623
2.169  42.375517
2.168  42.397890
2.167  42.375201
2.166  42.462696
2.165  42.390282
2.164  42.410672
2.163  42.257022
2.162  42.386303
2.161  42.215768
2.160  42.237512
2.159  42.051877
2.158  42.007226
2.157  41.994678
2.156  41.881419
2.155  41.742811
2.154  41.643888
2.153  41.534159
2.152  41.419666
2.151  41.279194
2.150  41.146067
2.149  41.052058
2.148  40.963804
2.147  40.768548
2.146  40.722485
2.145  40.633045
2.144  40.621762
2.143  40.576422
2.142  40.476732
2.141  40.394671
2.140  40.416643
2.139  40.406999
2.138  40.539440
2.137  40.469895
2.136  40.540192
2.135  40.599357
2.134  40.688789
2.133  40.652140
2.132  40.791833
2.131  40.883856
2.130  41.044467
2.129  41.208058
2.128  41.296383
2.127  41.359315
2.126  41.578525
2.125  41.738843
2.124  41.999572
2.123  42.105717
2.122  42.258054
2.121  42.336605
2.120  42.448910
2.119  42.619944
2.118  42.838386
2.117  42.934885
2.116  43.068504
2.115  43.284734
2.114  43.424385
2.113  43.549336
2.112  43.711644
2.111  43.721560
2.110  43.846346
2.109  43.936958
2.108  44.007502
2.107  44.145753
2.106  44.288894
2.105  44.383666
2.104  44.511419
2.103  44.542875
2.102  44.575936
2.101  44.644115
2.100  44.754441
2.099  44.788488
2.098  44.875209
2.097  44.906787
2.096  44.929457
2.095  44.985326
2.094  45.115218
2.093  45.205995
2.092  45.293482
2.091  45.334755
2.090  45.378280
2.089  45.414624
2.088  45.487897
2.087  45.582340
2.086  45.697072
2.085  45.749939
2.084  45.850426
2.083  45.917083
2.082  45.895325
2.081  46.046287
2.080  46.230652
2.079  46.268058
2.078  46.323679
2.077  46.448431
2.076  46.556507
2.075  46.650190
2.074  46.712686
2.073  46.821544
2.072  46.965781
2.071  47.046208
2.070  47.083420
2.069  47.143543
2.068  47.266304
2.067  47.372070
2.066  47.370735
2.065  47.398428
2.064  47.474548
2.063  47.522069
2.062  47.541020
2.061  47.594472
2.060  47.652824
2.059  47.638325
2.058  47.627288
2.057  47.700087
2.056  47.748165
2.055  47.792446
2.054  47.814369
2.053  47.703666
2.052  47.695487
2.051  47.792206
2.050  47.856633
2.049  47.801110
2.048  47.809790
2.047  47.785697
2.046  47.763494
2.045  47.786543
2.044  47.798332
2.043  47.816070
2.042  47.794142
2.041  47.820989
2.040  47.748962
2.039  47.716889
2.038  47.680974
2.037  47.683486
2.036  47.695879
2.035  47.658792
2.034  47.615746
2.033  47.619811
2.032  47.570641
2.031  47.561921
2.030  47.460656
2.029  47.346086
2.028  47.372876
2.027  47.390748
2.026  47.281705
2.025  47.178148
2.024  47.106877
2.023  47.042829
2.022  46.908326
2.021  46.828780
2.020  46.739880
2.019  46.677372
2.018  46.598486
2.017  46.407417
2.016  46.273667
2.015  46.157313
2.014  46.047389
2.013  46.030708
2.012  45.909699
2.011  45.827141
2.010  45.593271
2.009  45.525499
2.008  45.304415
2.007  45.193636
2.006  45.071293
2.005  44.879798
2.004  44.760407
2.003  44.546620
2.002  44.336556
2.001  44.166704
2.000  43.909589
1.999  43.594929
1.998  43.351003
1.997  43.138303
1.996  42.835176
1.995  42.503871
1.994  42.201699
1.993  41.955730
1.992  41.637581
1.991  41.329505
1.990  40.994187
1.989  40.786169
1.988  40.484061
1.987  40.315660
1.986  40.039641
1.985  39.882876
1.984  39.681301
1.983  39.604846
1.982  39.516977
1.981  39.465487
1.980  39.360622
1.979  39.353749
1.978  39.368407
1.977  39.343045
1.976  39.343279
1.975  39.463435
1.974  39.399593
1.973  39.517194
1.972  39.515550
1.971  39.574505
1.970  39.614720
1.969  39.755905
1.968  39.805875
1.967  39.929765
1.966  39.825211
1.965  39.966335
1.964  40.012017
1.963  40.100039
1.962  40.031263
1.961  40.137805
1.960  40.158347
1.959  40.212580
1.958  40.265392
1.957  40.394381
1.956  40.318042
1.955  40.355061
1.954  40.303877
1.953  40.385804
1.952  40.397513
1.951  40.337926
1.950  40.352112
1.949  40.402022
1.948  40.263004
1.947  40.373204
1.946  40.257349
1.945  40.469279
1.944  40.238452
1.943  40.322406
1.942  40.297424
1.941  40.343244
1.940  40.333147
1.939  40.444987
1.938  40.336523
1.937  40.536290
1.936  40.410633
1.935  40.537545
1.934  40.489085
1.933  40.703871
1.932  40.618642
1.931  40.877430
1.930  40.774390
1.929  40.938244
1.928  40.850318
1.927  41.075350
1.926  40.910051
1.925  41.240939
1.924  41.164361
1.923  41.339433
1.922  41.422998
1.921  41.496316
1.920  41.483302
1.919  41.745545
1.918  41.690253
1.917  41.920352
1.916  41.964243
1.915  42.192867
1.914  42.323789
1.913  42.375879
1.912  42.406813
1.911  42.619443
1.910  42.744697
1.909  42.945838
1.908  43.067034
1.907  43.195054
1.906  43.326897
1.905  43.587718
1.904  43.748429
1.903  44.132437
1.902  44.297798
1.901  44.680544
1.900  44.892014
1.899  45.338926
1.898  45.589419
1.897  45.906876
1.896  46.286735
1.895  46.656587
1.894  46.973483
1.893  47.318932
1.892  47.451855
1.891  47.925835
1.890  48.220021
1.889  48.513496
1.888  48.743025
1.887  49.161937
1.886  49.326453
1.885  49.596469
1.884  49.600494
1.883  49.893488
1.882  50.024402
1.881  50.215027
1.880  50.076605
1.879  50.080947
1.878  50.020889
1.877  50.021741
1.876  49.761771
1.875  49.516310
1.874  49.115367
1.873  48.972697
1.872  48.592520
1.871  48.299616
1.870  47.799979
1.869  47.455865
1.868  47.123943
1.867  46.819117
1.866  46.498123
1.865  46.237491
1.864  45.910111
1.863  45.887123
1.862  45.702861
1.861  45.693236
1.860  45.777730
1.859  45.853601
1.858  45.960253
1.857  46.153160
1.856  46.377640
1.855  46.534848
1.854  46.686090
1.853  46.935138
1.852  47.166855
1.851  47.481413
1.850  47.607440
1.849  47.906164
1.848  48.190347
1.847  48.364818
1.846  48.533638
1.845  48.806186
1.844  48.970751
1.843  49.100151
1.842  49.302942
1.841  49.539904
1.840  49.734275
1.839  49.914145
1.838  50.084299
1.837  50.235640
1.836  50.351547
1.835  50.570249
1.834  50.728763
1.833  50.830920
1.832  50.859799
1.831  50.957421
1.830  51.093668
1.829  51.183253
1.828  51.292931
1.827  51.419714
1.826  51.446652
1.825  51.615530
1.824  51.657801
1.823  51.716032
1.822  51.827630
1.821  51.896332
1.820  52.001720
1.819  52.145466
1.818  52.265976
1.817  52.488618
1.816  52.611662
1.815  52.717677
1.814  52.785708
1.813  52.915753
1.812  52.999944
1.811  53.167648
1.810  53.373768
1.809  53.478470
1.808  53.530117
1.807  53.673419
1.806  53.765494
1.805  53.877535
1.804  53.969001
1.803  54.060375
1.802  54.134582
1.801  54.252610
1.800  54.313835
1.799  54.415261
1.798  54.573421
1.797  54.679039
1.796  54.708336
1.795  54.763831
1.794  54.825859
1.793  54.870329
1.792  54.880571
1.791  54.961829
1.790  55.104270
1.789  55.153328
1.788  55.165289
1.787  55.196610
1.786  55.262505
1.785  55.313940
1.784  55.381708
1.783  55.397168
1.782  55.379265
1.781  55.444503
1.780  55.513055
1.779  55.519344
1.778  55.639771
1.777  55.692012
1.776  55.633828
1.775  55.703205
1.774  55.759124
1.773  55.774685
1.772  55.801709
1.771  55.788147
1.770  55.791518
1.769  55.814598
1.768  55.898078
1.767  55.966319
1.766  55.995936
1.765  56.001717
1.764  55.962303
1.763  55.826611
1.762  55.856866
1.761  55.837650
1.760  55.862379
1.759  55.885484
1.758  55.829947
1.757  55.740334
1.756  55.616714
1.755  55.530707
1.754  55.501454
1.753  55.435525
1.752  55.292922
1.751  55.170240
1.750  55.113394
1.749  55.037530
1.748  55.009440
1.747  54.917861
1.746  54.840149
1.745  54.804545
1.744  54.815207
1.743  54.796223
1.742  54.788135
1.741  54.784951
1.740  54.810159
1.739  54.767401
1.738  54.809280
1.737  54.820869
1.736  54.793217
1.735  54.820575
1.734  54.869388
1.733  54.872617
1.732  54.933364
1.731  54.853855
1.730  54.881371
1.729  54.915902
1.728  54.962197
1.727  54.999314
1.726  54.950783
1.725  54.966470
1.724  55.041189
1.723  55.010926
1.722  55.118239
1.721  55.166730
1.720  55.136421
1.719  55.172599
1.718  55.118506
1.717  55.141487
1.716  55.167042
1.715  55.202952
1.714  55.283732
1.713  55.246215
1.712  55.412952
1.711  55.350089
1.710  55.334134
1.709  55.352051
1.708  55.367553
1.707  55.312958
1.706  55.431520
1.705  55.409666
1.704  55.479084
1.703  55.460502
1.702  55.694106
1.701  55.707643
1.700  55.740980
1.699  55.690303
1.698  55.794500
1.697  55.813782
1.696  55.863284
1.695  55.857885
1.694  55.967993
1.693  55.992951
1.692  56.077900
1.691  56.131680
1.690  56.234844
1.689  56.258767
1.688  56.260849
1.687  56.186064
1.686  56.276110
1.685  56.295576
1.684  56.390485
1.683  56.452682
1.682  56.428223
1.681  56.454594
1.680  56.547041
1.679  56.628560
1.678  56.656702
1.677  56.646562
1.676  56.769575
1.675  56.721880
1.674  56.768957
1.673  56.833637
1.672  56.849146
1.671  56.875976
1.670  56.866139
1.669  57.138856
1.668  56.952078
1.667  57.030024
1.666  56.977630
1.665  56.967549
1.664  57.009086
1.663  57.025845
1.662  57.167124
1.661  57.062620
1.660  57.108821
1.659  57.057857
1.658  57.163990
1.657  57.195032
1.656  57.162548
1.655  57.172932
1.654  57.128585
1.653  57.157966
1.652  57.177821
1.651  57.207725
1.650  57.093579
1.649  57.082492
1.648  57.211376
1.647  57.137860
1.646  57.155846
1.645  57.116332
1.644  57.132913
1.643  57.083172
1.642  57.121646
1.641  56.967303
1.640  57.134279
1.639  57.098267
1.638  57.106784
1.637  57.026356
1.636  57.144792
1.635  57.033340
1.634  57.086176
1.633  57.092039
1.632  57.168868
1.631  57.110766
1.630  57.144695
1.629  57.055231
1.628  57.273030
1.627  57.268944
1.626  57.226881
1.625  57.153483
1.624  57.238588
1.623  57.264167
1.622  57.226071
1.621  57.284645
1.620  57.329799
1.619  57.231418
1.618  57.317416
1.617  57.185787
1.616  57.297104
1.615  57.282284
1.614  57.306431
1.613  57.211801
1.612  57.194062
1.611  57.260593
1.610  57.284636
1.609  57.189777
1.608  57.280404
1.607  57.265149
1.606  57.254755
1.605  57.307244
1.604  57.349996
1.603  57.308851
1.602  57.268513
1.601  57.223467
1.600  57.384187
1.599  57.318418
1.598  57.323066
1.597  57.256744
1.596  57.297916
1.595  57.304759
1.594  57.320126
1.593  57.272393
1.592  57.227696
1.591  57.250309
1.590  57.170533
1.589  57.181446
1.588  57.303520
1.587  57.172804
1.586  57.198860
1.585  57.196273
1.584  57.189835
1.583  57.135329
1.582  57.089952
1.581  57.081310
1.580  57.091577
1.579  57.039455
1.578  57.102009
1.577  57.077754
1.576  57.080786
1.575  57.008228
1.574  57.062410
1.573  56.996526
1.572  56.966999
1.571  56.936103
1.570  56.975432
1.569  56.840325
1.568  56.838044
1.567  56.772453
1.566  56.734593
1.565  56.629515
1.564  56.485667
1.563  56.573449
1.562  56.516666
1.561  56.398605
1.560  56.328842
1.559  56.319566
1.558  56.287869
1.557  56.158688
1.556  56.201593
1.555  56.174404
1.554  56.152446
1.553  56.044233
1.552  56.022942
1.551  56.069578
1.550  56.088430
1.549  56.054644
1.548  56.042146
1.547  55.958799
1.546  55.999732
1.545  56.024769
1.544  56.043846
1.543  55.982310
1.542  56.000592
1.541  56.025458
1.540  55.988382
1.539  55.929358
1.538  55.877450
1.537  55.903731
1.536  55.849779
1.535  55.768275
1.534  55.745790
1.533  55.773822
1.532  55.758210
1.531  55.688217
1.530  55.658756
1.529  55.684443
1.528  55.641502
1.527  55.588323
1.526  55.569519
1.525  55.543893
1.524  55.463368
1.523  55.391296
1.522  55.383765
1.521  55.357170
1.520  55.294602
1.519  55.272582
1.518  55.255513
1.517  55.240084
1.516  55.299246
1.515  55.267220
1.514  55.198894
1.513  55.140215
1.512  55.073516
1.511  55.025209
1.510  55.040670
1.509  54.986512
1.508  54.946065
1.507  54.915309
1.506  54.850610
1.505  54.781458
1.504  54.652371
1.503  54.651013
1.502  54.702640
1.501  54.619966
1.500  54.520242
1.499  54.456047
1.498  54.471825
1.497  54.449788
1.496  54.419109
1.495  54.306388
1.494  54.237638
1.493  54.266178
1.492  54.235033
1.491  54.209179
1.490  54.067006
1.489  53.988841
1.488  54.027833
1.487  53.983187
1.486  53.904121
1.485  53.822498
1.484  53.799267
1.483  53.781093
1.482  53.691245
1.481  53.642305
1.480  53.622834
1.479  53.604257
1.478  53.477967
1.477  53.423609
1.476  53.348755
1.475  53.339497
1.474  53.293167
1.473  53.240006
1.472  53.234481
1.471  53.160397
1.470  53.050508
1.469  52.969813
1.468  52.922905
1.467  52.937282
1.466  52.920970
1.465  52.921784
1.464  52.893675
1.463  52.879026
1.462  52.820802
1.461  52.781321
1.460  52.719125
1.459  52.782626
1.458  52.739636
1.457  52.690449
1.456  52.632742
1.455  52.601108
1.454  52.583692
1.453  52.599513
1.452  52.595740
1.451  52.539248
1.450  52.438310
1.449  52.512712
1.448  52.492213
1.447  52.481957
1.446  52.470342
1.445  52.434312
1.444  52.304684
1.443  52.285828
1.442  52.383306
1.441  52.361462
1.440  52.348528
1.439  52.307972
1.438  52.301834
1.437  52.299875
1.436  52.184541
1.435  52.168475
1.434  52.170070
1.433  52.205537
1.432  52.131694
1.431  52.096878
1.430  52.127063
1.429  52.090211
