Name: Jarosite KFe_3^3+(SO_4)_2(OH)_6
Type: Mineral
Class: Sulfates
Subclass: 
Particle Size: 45-125um
Sample No.: SO-7A
Owner: JPL
Wavelength range: IR
Origin: Mexico, Chihuahua
Collected by Ward's
Description: 





Measurement: Hemispherical reflectance
First Column: X
Second Column: Y
X Units:  Wavelength (micrometers)
Y Units:  Reflectance (percent)
First X Value: 15.3853
Last X Value: 2.00032
Number of X Values: 2256
Additional information: so07aa.txt
 
15.3853	1.00192
15.3397	0.826769
15.2945	0.792643
15.2495	0.928479
15.2048	0.996434
15.1603	1.06113
15.1161	0.934059
15.0722	1.08793
15.0285	0.997435
14.9851	0.955869
14.9419	1.0993
14.8989	1.13308
14.8563	1.0334
14.8138	1.0927
14.7716	0.886601
14.7296	0.987118
14.6879	1.36487
14.6464	1.35836
14.6052	1.22481
14.5641	1.11254
14.5233	1.06921
14.4828	1.17618
14.4424	1.31216
14.4023	1.29015
14.3624	1.23254
14.3227	1.13216
14.2833	1.09045
14.244	1.13282
14.205	1.18811
14.1662	1.21452
14.1276	1.2678
14.0892	1.37999
14.051	1.36877
14.0131	1.37421
13.9753	1.29122
13.9377	1.27274
13.9004	1.32897
13.8632	1.4688
13.8262	1.48599
13.7895	1.34926
13.7529	1.17482
13.7165	1.30884
13.6803	1.55717
13.6443	1.65635
13.6085	1.5202
13.5729	1.37569
13.5374	1.27073
13.5022	1.47978
13.4671	1.63673
13.4322	1.70346
13.3975	1.70566
13.363	1.68578
13.3286	1.70242
13.2944	1.64681
13.2604	1.68928
13.2266	1.67079
13.193	1.68313
13.1595	1.95483
13.1262	2.24756
13.093	2.203
13.06	2.14606
13.0272	2.11947
12.9946	2.08194
12.9621	2.09313
12.9298	2.28816
12.8976	2.40237
12.8656	2.45106
12.8337	2.40486
12.8021	2.3548
12.7705	2.35139
12.7391	2.42279
12.7079	2.5124
12.6769	2.41823
12.6459	2.36298
12.6152	2.499
12.5845	2.59913
12.5541	2.62257
12.5238	2.55501
12.4936	2.51248
12.4635	2.5776
12.4337	2.5741
12.4039	2.48226
12.3743	2.51116
12.3448	2.54764
12.3155	2.54133
12.2863	2.59874
12.2573	2.57828
12.2284	2.43415
12.1996	2.26402
12.171	2.1285
12.1425	1.9615
12.1141	1.79869
12.0859	1.61314
12.0578	1.58141
12.0298	1.55144
12.0019	1.51635
11.9742	1.38549
11.9466	1.15941
11.9192	1.05509
11.8918	1.10006
11.8646	1.09515
11.8375	1.09666
11.8106	1.07165
11.7837	1.04494
11.757	0.916318
11.7304	0.919951
11.7039	1.01612
11.6776	1.00856
11.6513	0.96247
11.6252	0.98908
11.5992	1.05818
11.5733	1.08123
11.5475	1.01607
11.5219	1.00388
11.4963	1.07819
11.4709	1.05115
11.4455	1.01141
11.4203	1.04841
11.3952	1.21595
11.3702	1.27609
11.3454	1.20201
11.3206	1.20561
11.2959	1.25939
11.2714	1.31007
11.2469	1.26691
11.2226	1.24746
11.1983	1.32131
11.1742	1.53196
11.1502	1.64849
11.1263	1.55862
11.1024	1.50714
11.0787	1.60235
11.0551	1.68768
11.0316	1.68914
11.0081	1.64609
10.9848	1.75711
10.9616	1.89161
10.9385	1.98202
10.9154	1.93561
10.8925	1.87941
10.8697	1.88391
10.8469	1.99688
10.8243	2.04512
10.8017	2.19602
10.7793	2.22153
10.7569	2.14268
10.7346	2.16633
10.7125	2.25774
10.6904	2.32042
10.6684	2.34432
10.6465	2.46502
10.6247	2.54523
10.6029	2.48896
10.5813	2.4946
10.5597	2.59505
10.5383	2.63543
10.5169	2.67937
10.4956	2.81892
10.4744	2.9668
10.4533	2.95848
10.4323	2.83706
10.4113	2.67827
10.3904	2.7045
10.3697	2.79984
10.349	2.87473
10.3284	3.00448
10.3078	2.97524
10.2874	2.94295
10.267	2.92705
10.2467	2.9464
10.2265	3.01826
10.2064	3.09119
10.1863	3.21348
10.1663	3.29206
10.1464	3.18282
10.1266	3.22734
10.1069	3.32623
10.0872	3.32799
10.0676	3.40116
10.0481	3.40211
10.0287	3.37284
10.0093	3.36
9.99005	3.22874
9.97084	3.11565
9.95169	3.12399
9.93263	3.18727
9.91364	3.22661
9.89472	3.27482
9.87587	3.19812
9.8571	3.15438
9.83839	3.12769
9.81976	3.08276
9.80119	3.18786
9.78271	3.25867
9.76428	3.10179
9.74592	2.78424
9.72764	2.72472
9.70943	2.68323
9.69128	2.51596
9.6732	2.38058
9.65518	2.22487
9.63724	2.01622
9.61935	1.91073
9.60155	1.88051
9.5838	1.69871
9.56611	1.61509
9.5485	1.65089
9.53094	1.74945
9.51345	1.97944
9.49604	2.16813
9.47867	2.19321
9.46137	2.29392
9.44414	2.42224
9.42697	2.53579
9.40986	2.66718
9.39281	2.79462
9.37583	2.79011
9.35891	2.75512
9.34204	2.83185
9.32524	2.94335
9.3085	2.98753
9.29182	3.02249
9.27519	3.05484
9.25863	3.11471
9.24213	3.14766
9.22568	3.01558
9.2093	2.85947
9.19297	2.84555
9.17669	2.73275
9.16048	2.75613
9.14433	2.82956
9.12823	2.77464
9.11218	2.69851
9.0962	2.73947
9.08027	2.72746
9.06439	2.69664
9.04858	2.57124
9.03281	2.40981
9.0171	2.38552
9.00145	2.4502
8.98585	2.41626
8.9703	2.39374
8.9548	2.37305
8.93937	2.2869
8.92398	2.19063
8.90865	2.10289
8.89337	1.90423
8.87814	1.74458
8.86296	1.59142
8.84784	1.39363
8.83277	1.21227
8.81774	1.27857
8.80277	1.40778
8.78786	1.29307
8.77298	1.17384
8.75816	1.07935
8.7434	1.0328
8.72868	0.992336
8.714	1.07665
8.69938	1.15589
8.68481	1.10881
8.67029	1.12805
8.65581	1.211
8.64139	1.24971
8.62701	1.21422
8.61268	1.12098
8.5984	1.05592
8.58416	1.05475
8.56997	1.03282
8.55583	1.06036
8.54174	1.04532
8.52769	1.07682
8.51368	1.1237
8.49973	1.17913
8.48582	1.18325
8.47195	1.13962
8.45813	1.18989
8.44436	1.20736
8.43062	1.16476
8.41693	1.20622
8.4033	1.27503
8.3897	1.23156
8.37614	1.203
8.36264	1.29119
8.34917	1.35137
8.33574	1.34508
8.32236	1.31621
8.30903	1.29179
8.29573	1.3058
8.28248	1.35719
8.26927	1.42001
8.2561	1.49973
8.24298	1.58699
8.2299	1.65381
8.21685	1.59991
8.20385	1.62861
8.19089	1.6683
8.17797	1.64968
8.16509	1.81127
8.15225	2.08276
8.13946	2.19235
8.1267	2.1956
8.11398	2.29349
8.10131	2.41067
8.08867	2.45511
8.07606	2.64754
8.0635	2.89855
8.05099	3.10676
8.0385	3.26891
8.02606	3.3837
8.01366	3.67451
8.00129	3.98917
7.98896	4.15897
7.97667	4.38681
7.96442	4.79649
7.9522	5.10192
7.94002	5.38265
7.92788	5.75674
7.91578	5.97991
7.90371	6.15745
7.89168	6.41822
7.87969	6.6545
7.86773	6.82725
7.85581	7.01438
7.84392	7.27858
7.83207	7.50796
7.82026	7.65308
7.80849	7.79867
7.79674	7.96642
7.78503	8.02042
7.77337	8.1583
7.76173	8.35985
7.75012	8.4927
7.73856	8.60416
7.72703	8.72402
7.71553	8.84667
7.70406	8.95219
7.69263	9.12185
7.68123	9.20733
7.66987	9.24373
7.65855	9.32293
7.64725	9.28405
7.63598	9.26272
7.62475	9.40873
7.61356	9.55803
7.60239	9.58823
7.59126	9.66694
7.58017	9.72196
7.5691	9.85815
7.55806	9.99787
7.54707	10.0544
7.5361	10.0916
7.52516	10.0775
7.51425	10.0996
7.50338	10.081
7.49253	10.104
7.48172	10.1349
7.47094	10.166
7.46019	10.1603
7.44947	10.1243
7.43879	10.136
7.42813	10.1945
7.4175	10.2651
7.4069	10.3682
7.39634	10.4414
7.3858	10.5421
7.37529	10.5702
7.36482	10.4561
7.35437	10.4623
7.34396	10.5921
7.33357	10.6074
7.32321	10.5843
7.31288	10.6091
7.30258	10.6739
7.29231	10.6752
7.28207	10.7067
7.27185	10.7908
7.26167	10.8488
7.25152	10.9241
7.24139	10.9979
7.23129	11.0825
7.22122	11.1574
7.21117	11.1649
7.20116	11.2447
7.19117	11.4239
7.18121	11.5911
7.17128	11.612
7.16137	11.523
7.1515	11.5897
7.14164	11.7007
7.13182	11.7001
7.12203	11.7413
7.11225	11.8021
7.10251	11.7874
7.0928	11.8227
7.08311	11.8449
7.07344	11.8791
7.06381	11.8949
7.0542	11.9542
7.04461	12.0831
7.03506	12.0463
7.02552	11.9824
7.01601	11.9554
7.00653	11.8906
6.99708	11.904
6.98765	11.9365
6.97824	11.9945
6.96886	12.054
6.95951	12.1525
6.95018	12.1289
6.94087	12.0807
6.9316	12.0115
6.92234	11.9451
6.91311	11.9523
6.90391	12.0361
6.89473	11.9756
6.88557	11.9619
6.87644	12.0623
6.86733	12.2587
6.85824	12.2062
6.84918	12.0015
6.84015	12.0385
6.83114	12.2397
6.82215	12.2721
6.81319	12.2048
6.80424	12.2643
6.79532	12.4113
6.78643	12.4864
6.77756	12.4702
6.76871	12.4616
6.75989	12.4379
6.75109	12.4897
6.74231	12.5194
6.73355	12.5797
6.72482	12.7038
6.71611	12.776
6.70742	12.7364
6.69875	12.6746
6.69011	12.7598
6.68149	12.8548
6.67289	12.7746
6.66431	12.7176
6.65576	12.7339
6.64722	12.8992
6.63871	13.0893
6.63022	12.9346
6.62175	12.7585
6.61331	12.7105
6.60488	12.7258
6.59648	12.7381
6.5881	12.6389
6.57974	12.6627
6.5714	12.674
6.56308	12.5856
6.55478	12.5613
6.54651	12.535
6.53825	12.4803
6.53001	12.4095
6.5218	12.3932
6.51361	12.2405
6.50544	12.2699
6.49729	12.542
6.48915	12.5103
6.48104	12.3034
6.47295	12.2029
6.46488	12.0827
6.45683	11.9819
6.4488	11.9208
6.44079	11.9639
6.4328	12.0804
6.42482	12.1539
6.41687	12.3328
6.40894	12.2366
6.40103	11.9728
6.39314	11.9433
6.38526	11.9188
6.37741	11.9596
6.36957	11.9385
6.36176	11.8708
6.35396	11.9416
6.34618	12.1204
6.33843	11.9808
6.33069	11.7424
6.32297	11.6595
6.31527	11.6239
6.30758	11.7115
6.29992	11.7705
6.29227	11.6882
6.28465	11.652
6.27704	11.6019
6.26945	11.6216
6.26188	11.6308
6.25432	11.5971
6.24679	11.5499
6.23927	11.5156
6.23177	11.4296
6.22429	11.3764
6.21683	11.345
6.20938	11.2654
6.20195	11.1668
6.19454	11.1089
6.18715	11.1404
6.17978	10.8771
6.17242	10.6654
6.16508	10.6623
6.15776	10.6269
6.15045	10.5897
6.14317	10.5715
6.1359	10.4389
6.12864	10.3913
6.12141	10.4771
6.11419	10.5708
6.10699	10.4917
6.0998	10.4169
6.09263	10.4463
6.08549	10.5581
6.07835	10.7475
6.07123	10.8584
6.06413	10.7706
6.05705	10.947
6.04998	11.3026
6.04293	11.0835
6.0359	10.7979
6.02888	10.7542
6.02187	10.9108
6.01489	11.062
6.00792	11.0191
6.00096	11.0333
5.99403	11.2183
5.98711	11.3102
5.9802	11.3465
5.97331	11.5398
5.96644	11.5491
5.95958	11.435
5.95274	11.4621
5.94591	11.6001
5.9391	11.857
5.9323	11.8215
5.92552	11.6725
5.91876	11.7711
5.91201	11.8973
5.90528	11.9978
5.89856	12.2389
5.89186	12.2775
5.88517	12.4442
5.8785	12.543
5.87184	12.3896
5.8652	12.4751
5.85857	12.5613
5.85196	12.6001
5.84536	12.6412
5.83878	12.7954
5.83221	12.9775
5.82566	13.1393
5.81912	13.2388
5.81259	13.1811
5.80608	13.192
5.79959	13.2655
5.79311	13.3332
5.78665	13.4313
5.78019	13.5366
5.77376	13.7635
5.76734	14.016
5.76093	13.9773
5.75453	13.9477
5.74815	14.0192
5.74179	14.0289
5.73543	14.0707
5.7291	14.1372
5.72277	14.2406
5.71646	14.3316
5.71017	14.3112
5.70389	14.1956
5.69762	14.2782
5.69136	14.3703
5.68513	14.324
5.6789	14.4326
5.67268	14.5538
5.66648	14.4824
5.6603	14.5651
5.65413	14.5578
5.64797	14.5479
5.64182	14.6678
5.63569	14.6028
5.62957	14.4872
5.62347	14.4601
5.61737	14.4682
5.61129	14.5792
5.60522	14.7071
5.59917	14.7165
5.59313	14.6171
5.5871	14.7171
5.58109	14.8782
5.57509	14.849
5.5691	14.77
5.56312	14.8204
5.55716	14.8927
5.55121	14.8809
5.54528	14.842
5.53935	14.8895
5.53344	14.9696
5.52754	15.0392
5.52166	15.0581
5.51578	15.1215
5.50992	15.1893
5.50407	15.2189
5.49823	15.1777
5.49241	15.2044
5.4866	15.2726
5.4808	15.3713
5.47501	15.4043
5.46923	15.5044
5.46347	15.5403
5.45772	15.4242
5.45198	15.4195
5.44625	15.5525
5.44054	15.6972
5.43484	15.725
5.42914	15.7665
5.42347	15.9126
5.4178	15.896
5.41214	15.8636
5.4065	15.8823
5.40087	15.8344
5.39525	15.8617
5.38964	15.9438
5.38404	15.9899
5.37846	16.0799
5.37288	16.1289
5.36732	16.0642
5.36177	16.0928
5.35623	16.2205
5.35071	16.3622
5.34519	16.3264
5.33968	16.2305
5.33419	16.2534
5.32871	16.2616
5.32324	16.2202
5.31778	16.1904
5.31233	16.217
5.30689	16.2134
5.30147	16.1687
5.29605	16.2179
5.29065	16.2243
5.28525	16.1287
5.27987	16.1147
5.2745	16.1528
5.26914	16.0486
5.26379	15.953
5.25845	15.8935
5.25312	15.809
5.24781	15.7393
5.2425	15.6656
5.23721	15.6203
5.23192	15.5191
5.22665	15.3891
5.22138	15.2646
5.21613	15.1659
5.21089	15.0776
5.20566	14.9693
5.20044	14.8199
5.19522	14.5944
5.19002	14.4248
5.18483	14.278
5.17965	14.0826
5.17448	13.868
5.16933	13.7023
5.16418	13.5496
5.15904	13.4252
5.15391	13.2805
5.14879	13.0963
5.14368	12.9245
5.13859	12.7394
5.1335	12.5711
5.12842	12.392
5.12335	12.2572
5.1183	12.0767
5.11325	11.9518
5.10821	11.7846
5.10318	11.6477
5.09817	11.6287
5.09316	11.5969
5.08816	11.5367
5.08317	11.5282
5.07819	11.4517
5.07322	11.3411
5.06826	11.2495
5.06331	11.1434
5.05837	11.1067
5.05344	11.1503
5.04852	11.1622
5.04361	11.1504
5.03871	11.1343
5.03382	11.1206
5.02894	11.1579
5.02406	11.0989
5.0192	11.0422
5.01435	11.0391
5.0095	10.9735
5.00467	10.9006
4.99984	10.9075
4.99502	10.8207
4.99021	10.7218
4.98542	10.6993
4.98063	10.6908
4.97585	10.6837
4.97108	10.5715
4.96632	10.5106
4.96156	10.4892
4.95682	10.411
4.95209	10.3599
4.94736	10.3879
4.94264	10.397
4.93794	10.3663
4.93324	10.4151
4.92855	10.5546
4.92387	10.6218
4.9192	10.5328
4.91453	10.5025
4.90988	10.5411
4.90524	10.6024
4.9006	10.6353
4.89597	10.6576
4.89135	10.6721
4.88674	10.6485
4.88214	10.6534
4.87755	10.68
4.87296	10.6767
4.86839	10.6427
4.86382	10.5696
4.85926	10.5896
4.85471	10.6302
4.85017	10.6573
4.84564	10.6281
4.84111	10.5662
4.8366	10.5094
4.83209	10.4036
4.82759	10.4753
4.8231	10.6191
4.81862	10.5837
4.81415	10.4701
4.80968	10.4913
4.80522	10.5634
4.80077	10.5504
4.79633	10.4644
4.7919	10.3939
4.78747	10.345
4.78306	10.3107
4.77865	10.298
4.77425	10.2796
4.76986	10.2469
4.76547	10.2061
4.7611	10.1736
4.75673	10.2148
4.75237	10.1947
4.74802	10.0861
4.74367	9.93187
4.73934	9.85076
4.73501	9.79055
4.73069	9.78348
4.72638	9.8045
4.72207	9.75909
4.71777	9.69765
4.71348	9.68253
4.7092	9.69298
4.70493	9.6794
4.70066	9.60751
4.69641	9.53964
4.69216	9.55364
4.68791	9.50993
4.68368	9.43637
4.67945	9.41038
4.67523	9.41136
4.67102	9.40716
4.66682	9.40979
4.66262	9.43655
4.65843	9.39607
4.65425	9.31563
4.65007	9.37669
4.64591	9.4685
4.64175	9.45856
4.6376	9.47473
4.63345	9.4799
4.62932	9.47899
4.62519	9.59735
4.62106	9.74371
4.61695	9.75392
4.61284	9.75969
4.60874	9.84413
4.60465	9.84631
4.60056	9.91537
4.59648	9.97301
4.59241	10.048
4.58835	10.1563
4.58429	10.2047
4.58024	10.2179
4.5762	10.2955
4.57216	10.3769
4.56814	10.4505
4.56411	10.4972
4.5601	10.5941
4.55609	10.6489
4.55209	10.7386
4.5481	10.8114
4.54411	10.947
4.54013	11.0393
4.53616	11.046
4.5322	11.1296
4.52824	11.3068
4.52429	11.3871
4.52034	11.4731
4.51641	11.6235
4.51247	11.7408
4.50855	11.8083
4.50463	11.9368
4.50072	12.0971
4.49682	12.2151
4.49292	12.3744
4.48903	12.5123
4.48515	12.6811
4.48127	12.899
4.4774	13.0101
4.47354	13.1023
4.46968	13.2645
4.46584	13.5353
4.46199	13.7272
4.45815	13.9067
4.45432	14.0598
4.4505	14.1788
4.44668	14.3532
4.44287	14.6559
4.43907	14.8838
4.43527	14.9894
4.43148	15.1443
4.4277	15.3305
4.42392	15.4948
4.42015	15.7104
4.41638	15.8785
4.41262	16.0316
4.40887	16.1157
4.40513	16.199
4.40139	16.3459
4.39765	16.5451
4.39393	16.6332
4.39021	16.7109
4.38649	16.8084
4.38278	16.9057
4.37908	17.0086
4.37539	17.1365
4.3717	17.2463
4.36801	17.3462
4.36434	17.3691
4.36067	17.3648
4.357	17.4397
4.35335	17.5758
4.34969	17.6592
4.34605	17.6909
4.34241	17.7394
4.33877	17.8451
4.33514	17.9645
4.33152	17.8992
4.32791	17.8825
4.3243	17.952
4.32069	18.0429
4.3171	18.0807
4.31351	18.0924
4.30992	18.1385
4.30634	18.1523
4.30277	18.1816
4.2992	18.2145
4.29564	18.2154
4.29208	18.2612
4.28853	18.3388
4.28499	18.2572
4.28145	18.2066
4.27792	18.2294
4.27439	18.209
4.27087	18.2011
4.26735	18.1991
4.26384	18.2606
4.26034	18.3881
4.25684	18.3766
4.25335	18.3886
4.24986	18.4778
4.24638	18.4752
4.24291	18.4198
4.23944	18.3276
4.23598	18.2739
4.23252	18.3246
4.22906	18.3742
4.22562	18.3287
4.22218	18.3894
4.21874	18.4795
4.21531	18.5226
4.21189	18.5257
4.20847	18.5157
4.20506	18.5889
4.20165	18.6835
4.19825	18.6278
4.19485	18.599
4.19146	18.609
4.18807	18.6572
4.18469	18.6964
4.18132	18.6432
4.17795	18.5753
4.17458	18.613
4.17123	18.6391
4.16787	18.6082
4.16453	18.595
4.16118	18.5393
4.15785	18.5002
4.15451	18.5775
4.15119	18.6728
4.14787	18.6656
4.14455	18.6699
4.14124	18.5904
4.13794	18.5279
4.13464	18.5721
4.13134	18.6382
4.12805	18.6057
4.12477	18.5781
4.12149	18.6037
4.11822	18.5226
4.11495	18.5174
4.11168	18.5591
4.10843	18.5372
4.10517	18.4622
4.10192	18.4696
4.09868	18.5422
4.09545	18.5701
4.09221	18.5378
4.08899	18.4848
4.08576	18.5
4.08255	18.5154
4.07933	18.4349
4.07613	18.2966
4.07292	18.2794
4.06973	18.365
4.06654	18.3214
4.06335	18.2611
4.06017	18.2531
4.05699	18.2347
4.05382	18.2095
4.05065	18.165
4.04749	18.1372
4.04433	18.0658
4.04118	17.9842
4.03803	17.96
4.03489	17.8705
4.03175	17.7667
4.02862	17.6592
4.02549	17.6318
4.02237	17.6361
4.01925	17.6026
4.01614	17.5654
4.01303	17.5219
4.00993	17.4731
4.00683	17.4024
4.00373	17.2948
4.00064	17.2981
3.99756	17.2171
3.99448	17.0841
3.9914	17.0777
3.98833	17.0464
3.98527	16.8859
3.98221	16.7619
3.97915	16.7509
3.9761	16.648
3.97305	16.5257
3.97001	16.4372
3.96697	16.3962
3.96394	16.3397
3.96091	16.3131
3.95789	16.3267
3.95487	16.2495
3.95186	16.1402
3.94885	16.0315
3.94584	15.925
3.94284	15.8503
3.93984	15.7411
3.93685	15.6506
3.93386	15.6079
3.93088	15.508
3.9279	15.4056
3.92493	15.3014
3.92196	15.238
3.919	15.1504
3.91604	15.0527
3.91308	14.9612
3.91013	14.8116
3.90718	14.7593
3.90424	14.7085
3.9013	14.648
3.89837	14.5684
3.89544	14.4969
3.89252	14.3813
3.8896	14.2921
3.88668	14.1586
3.88377	14.0784
3.88086	14.1313
3.87796	14.0037
3.87506	13.8187
3.87217	13.683
3.86928	13.5777
3.86639	13.51
3.86351	13.4519
3.86064	13.419
3.85776	13.3454
3.8549	13.2421
3.85203	13.1308
3.84917	12.9918
3.84631	12.9018
3.84346	12.8894
3.84062	12.8692
3.83777	12.8356
3.83494	12.7174
3.8321	12.596
3.82927	12.5685
3.82644	12.4953
3.82362	12.3798
3.82081	12.2616
3.81799	12.1761
3.81518	12.121
3.81238	12.0582
3.80958	11.8525
3.80678	11.7482
3.80399	11.7789
3.8012	11.7609
3.79841	11.6666
3.79563	11.6001
3.79286	11.5833
3.79008	11.4445
3.78731	11.3203
3.78455	11.2192
3.78179	11.1354
3.77903	11.098
3.77628	11.082
3.77353	11.0416
3.77079	10.9181
3.76805	10.7396
3.76531	10.6957
3.76258	10.7077
3.75985	10.6679
3.75713	10.5222
3.7544	10.4361
3.75169	10.4487
3.74898	10.3383
3.74627	10.174
3.74356	10.0944
3.74086	10.1272
3.73816	10.0891
3.73547	9.95523
3.73278	9.84758
3.7301	9.75116
3.72741	9.70259
3.72474	9.6088
3.72206	9.61057
3.71939	9.68505
3.71673	9.56372
3.71406	9.50062
3.71141	9.44693
3.70875	9.37485
3.7061	9.30926
3.70345	9.21521
3.70081	9.13569
3.69817	9.05254
3.69553	8.9853
3.6929	8.86041
3.69027	8.72819
3.68765	8.68469
3.68503	8.7378
3.68241	8.76376
3.6798	8.70027
3.67719	8.60532
3.67458	8.52131
3.67198	8.45891
3.66938	8.38648
3.66678	8.2801
3.66419	8.22216
3.66161	8.17985
3.65902	8.12336
3.65644	8.16568
3.65387	8.06301
3.65129	7.95144
3.64872	7.93295
3.64616	7.86242
3.64359	7.81695
3.64103	7.77313
3.63848	7.70928
3.63593	7.74481
3.63338	7.64847
3.63084	7.50648
3.6283	7.44588
3.62576	7.36244
3.62322	7.33974
3.62069	7.29578
3.61817	7.20293
3.61564	7.19717
3.61312	7.18668
3.61061	7.13055
3.6081	7.09024
3.60559	7.09493
3.60308	7.10149
3.60058	7.04125
3.59808	6.89046
3.59558	6.78096
3.59309	6.73273
3.59061	6.80806
3.58812	6.83897
3.58564	6.75013
3.58316	6.61878
3.58069	6.52229
3.57822	6.49174
3.57575	6.43746
3.57328	6.35809
3.57082	6.33627
3.56836	6.36503
3.56591	6.38299
3.56346	6.39023
3.56101	6.31494
3.55857	6.28282
3.55613	6.3105
3.55369	6.22068
3.55126	6.07325
3.54883	6.03229
3.5464	6.03261
3.54397	6.07919
3.54155	6.02678
3.53914	5.97935
3.53672	5.89243
3.53431	5.77912
3.5319	5.73296
3.5295	5.77159
3.5271	5.79576
3.5247	5.79369
3.52231	5.67798
3.51991	5.62887
3.51753	5.66499
3.51514	5.58139
3.51276	5.54683
3.51038	5.57046
3.50801	5.44463
3.50563	5.32482
3.50327	5.38084
3.5009	5.45338
3.49854	5.36819
3.49618	5.31113
3.49382	5.35555
3.49147	5.34215
3.48912	5.30698
3.48677	5.29533
3.48443	5.24414
3.48209	5.19945
3.47975	5.11344
3.47742	5.05297
3.47509	5.07193
3.47276	5.08802
3.47044	5.03427
3.46812	5.0177
3.4658	4.98552
