Name: Mimetite Pb_5(AsO_4)_3Cl
Type: Mineral
Class: Arsenates
Subclass: 
Particle Size: 45-125um
Sample No.: A-1A
Owner: JPL
Wavelength range: IR
Origin: Mexico, Chihuahua, Ingla Tierra Mine
Collected by JPL
Description: 





Measurement: Hemispherical reflectance
First Column: X
Second Column: Y
X Units:  Wavelength (micrometers)
Y Units:  Reflectance (percent)
First X Value: 15.3853
Last X Value: 2.00032
Number of X Values: 2256
Additional information: a01aa.txt
 
15.3853	9.06224
15.3397	8.94487
15.2945	8.96649
15.2495	8.88799
15.2048	8.89742
15.1603	8.88431
15.1161	8.87383
15.0722	8.81518
15.0285	8.64835
14.9851	8.54656
14.9419	8.58103
14.8989	8.45642
14.8563	8.27256
14.8138	8.28167
14.7716	8.2988
14.7296	8.02878
14.6879	7.76927
14.6464	7.86532
14.6052	8.01232
14.5641	7.94796
14.5233	7.87593
14.4828	7.77999
14.4424	7.62798
14.4023	7.60586
14.3624	7.59515
14.3227	7.67533
14.2833	7.64082
14.244	7.4353
14.205	7.38638
14.1662	7.59366
14.1276	7.83808
14.0892	7.87718
14.051	7.80776
14.0131	8.0017
13.9753	8.05401
13.9377	7.92415
13.9004	7.82968
13.8632	7.8792
13.8262	8.23019
13.7895	8.56289
13.7529	8.66227
13.7165	8.60264
13.6803	8.54763
13.6443	8.72951
13.6085	8.98361
13.5729	9.27879
13.5374	9.6395
13.5022	9.83264
13.4671	9.94855
13.4322	9.90469
13.3975	10.0119
13.363	10.5893
13.3286	11.1908
13.2944	11.4785
13.2604	11.6393
13.2266	12.0039
13.193	12.5102
13.1595	12.9859
13.1262	13.33
13.093	14.0811
13.06	14.9824
13.0272	15.8771
12.9946	16.9411
12.9621	18.0993
12.9298	19.2206
12.8976	20.4731
12.8656	21.8717
12.8337	22.9934
12.8021	23.6619
12.7705	23.7901
12.7391	23.331
12.7079	22.4265
12.6769	21.1357
12.6459	19.3468
12.6152	17.3641
12.5845	15.8946
12.5541	15.4853
12.5238	16.0999
12.4936	17.2302
12.4635	18.6426
12.4337	19.5246
12.4039	19.5124
12.3743	18.9303
12.3448	18.27
12.3155	18.2154
12.2863	19.0515
12.2573	20.2371
12.2284	21.3104
12.1996	22.0124
12.171	22.3147
12.1425	22.1872
12.1141	21.6664
12.0859	20.9057
12.0578	20.002
12.0298	19.127
12.0019	18.2343
11.9742	17.2732
11.9466	16.2957
11.9192	15.1636
11.8918	14.0483
11.8646	12.9422
11.8375	11.9237
11.8106	10.884
11.7837	9.73357
11.757	8.39062
11.7304	7.06216
11.7039	5.74651
11.6776	4.47139
11.6513	3.36982
11.6252	2.43641
11.5992	1.82202
11.5733	1.35246
11.5475	0.895785
11.5219	0.475835
11.4963	0.266152
11.4709	0.356597
11.4455	0.404034
11.4203	0.416724
11.3952	0.445689
11.3702	0.530508
11.3454	0.520963
11.3206	0.530192
11.2959	0.578846
11.2714	0.575411
11.2469	0.635254
11.2226	0.716023
11.1983	0.935442
11.1742	1.01709
11.1502	1.03942
11.1263	1.14734
11.1024	1.21483
11.0787	1.18051
11.0551	1.28605
11.0316	1.48021
11.0081	1.58366
10.9848	1.81994
10.9616	1.91897
10.9385	1.91377
10.9154	2.05454
10.8925	2.32241
10.8697	2.51761
10.8469	2.62588
10.8243	2.70849
10.8017	2.94687
10.7793	3.09056
10.7569	3.10412
10.7346	3.25877
10.7125	3.47503
10.6904	3.59808
10.6684	3.66598
10.6465	3.63635
10.6247	3.64897
10.6029	3.71031
10.5813	3.81744
10.5597	3.88364
10.5383	3.70212
10.5169	3.42718
10.4956	3.32969
10.4744	3.38779
10.4533	3.54662
10.4323	3.68404
10.4113	3.76466
10.3904	3.91637
10.3697	4.12425
10.349	4.38595
10.3284	4.79182
10.3078	5.05643
10.2874	5.17234
10.267	5.09442
10.2467	5.07031
10.2265	5.10851
10.2064	5.15654
10.1863	5.26288
10.1663	5.31366
10.1464	5.31937
10.1266	5.3658
10.1069	5.44205
10.0872	5.50522
10.0676	5.6124
10.0481	5.62191
10.0287	5.54446
10.0093	5.45455
9.99005	5.3946
9.97084	5.42971
9.95169	5.62522
9.93263	5.88158
9.91364	6.05607
9.89472	6.25084
9.87587	6.48494
9.8571	6.82842
9.83839	7.19436
9.81976	7.65085
9.80119	8.10432
9.78271	8.39729
9.76428	8.63614
9.74592	8.83614
9.72764	8.98641
9.70943	9.07791
9.69128	9.25707
9.6732	9.34037
9.65518	9.35968
9.63724	9.33548
9.61935	9.26706
9.60155	9.42411
9.5838	9.84377
9.56611	10.5199
9.5485	11.2123
9.53094	11.9733
9.51345	12.7758
9.49604	13.5587
9.47867	14.2756
9.46137	14.8175
9.44414	15.3714
9.42697	15.8209
9.40986	16.0428
9.39281	16.1989
9.37583	16.2629
9.35891	16.0684
9.34204	15.8609
9.32524	15.5628
9.3085	15.0566
9.29182	14.5238
9.27519	14.0402
9.25863	13.5913
9.24213	13.2226
9.22568	12.8264
9.2093	12.4058
9.19297	12.178
9.17669	12.1355
9.16048	12.0716
9.14433	11.9653
9.12823	11.9873
9.11218	11.8843
9.0962	11.7916
9.08027	11.7858
9.06439	11.8613
9.04858	12.1063
9.03281	12.4388
9.0171	12.8205
9.00145	13.1609
8.98585	13.6026
8.9703	13.9303
8.9548	14.2874
8.93937	14.8527
8.92398	15.3095
8.90865	15.7919
8.89337	16.2692
8.87814	16.6941
8.86296	17.13
8.84784	17.4496
8.83277	17.7486
8.81774	18.0036
8.80277	18.3042
8.78786	18.5528
8.77298	18.599
8.75816	18.686
8.7434	18.8672
8.72868	19.0947
8.714	19.129
8.69938	19.0528
8.68481	19.1208
8.67029	19.2356
8.65581	19.2924
8.64139	19.2947
8.62701	19.4448
8.61268	19.6022
8.5984	19.5964
8.58416	19.775
8.56997	20.0024
8.55583	20.3156
8.54174	20.5916
8.52769	20.6542
8.51368	20.7189
8.49973	20.8608
8.48582	21.1462
8.47195	21.463
8.45813	21.5875
8.44436	21.7074
8.43062	21.8874
8.41693	22.0754
8.4033	22.1659
8.3897	22.2823
8.37614	22.6356
8.36264	22.9467
8.34917	23.1622
8.33574	23.4249
8.32236	23.7103
8.30903	24.0574
8.29573	24.4288
8.28248	24.8135
8.26927	25.2523
8.2561	25.7277
8.24298	26.1906
8.2299	26.6731
8.21685	27.123
8.20385	27.6585
8.19089	28.2442
8.17797	28.8094
8.16509	29.4286
8.15225	29.9573
8.13946	30.4377
8.1267	30.8073
8.11398	31.1747
8.10131	31.6314
8.08867	32.0771
8.07606	32.4522
8.0635	32.7966
8.05099	33.0662
8.0385	33.3289
8.02606	33.5864
8.01366	33.7251
8.00129	33.7355
7.98896	33.7531
7.97667	33.7398
7.96442	33.634
7.9522	33.456
7.94002	33.2975
7.92788	32.9926
7.91578	32.6675
7.90371	32.2961
7.89168	31.7896
7.87969	31.0986
7.86773	30.4417
7.85581	29.718
7.84392	28.7898
7.83207	27.8354
7.82026	26.9242
7.80849	25.9234
7.79674	24.8645
7.78503	23.975
7.77337	23.1358
7.76173	22.3323
7.75012	21.6527
7.73856	21.0049
7.72703	20.3685
7.71553	19.7899
7.70406	19.2021
7.69263	18.6175
7.68123	18.0964
7.66987	17.5822
7.65855	17.1596
7.64725	16.8703
7.63598	16.5344
7.62475	16.2657
7.61356	16.0677
7.60239	16.094
7.59126	16.1899
7.58017	16.2144
7.5691	16.3357
7.55806	16.6536
7.54707	16.9936
7.5361	17.3857
7.52516	17.8871
7.51425	18.3706
7.50338	18.9073
7.49253	19.3912
7.48172	19.8891
7.47094	20.3824
7.46019	20.7483
7.44947	20.8865
7.43879	20.9314
7.42813	20.9858
7.4175	21.0064
7.4069	20.9132
7.39634	20.7379
7.3858	20.6605
7.37529	20.6134
7.36482	20.6373
7.35437	20.6754
7.34396	20.6969
7.33357	20.6534
7.32321	20.4501
7.31288	20.3236
7.30258	20.1965
7.29231	20.0388
7.28207	20.0076
7.27185	19.9198
7.26167	19.7648
7.25152	19.7048
7.24139	19.634
7.23129	19.5224
7.22122	19.4156
7.21117	19.4636
7.20116	19.3829
7.19117	19.2042
7.18121	19.1501
7.17128	19.2343
7.16137	19.1471
7.1515	19.0839
7.14164	19.0168
7.13182	18.8199
7.12203	18.7697
7.11225	18.6795
7.10251	18.5682
7.0928	18.4653
7.08311	18.3913
7.07344	18.35
7.06381	18.3492
7.0542	18.4965
7.04461	18.5002
7.03506	18.0945
7.02552	17.9283
7.01601	17.8963
7.00653	17.8261
6.99708	17.9831
6.98765	18.039
6.97824	17.9458
6.96886	18.2199
6.95951	18.661
6.95018	18.4809
6.94087	18.4962
6.9316	18.8074
6.92234	19.0895
6.91311	19.5941
6.90391	20.199
6.89473	20.5888
6.88557	21.1784
6.87644	22.0295
6.86733	23.4276
6.85824	24.1413
6.84918	24.0421
6.84015	24.3588
6.83114	25.1724
6.82215	25.6574
6.81319	25.8228
6.80424	26.3443
6.79532	27.267
6.78643	27.7663
6.77756	27.6792
6.76871	27.6495
6.75989	27.6122
6.75109	27.7357
6.74231	27.7178
6.73355	27.8245
6.72482	28.1771
6.71611	28.4521
6.70742	28.2971
6.69875	27.824
6.69011	27.875
6.68149	28.0407
6.67289	27.5576
6.66431	26.8515
6.65576	26.2635
6.64722	26.3883
6.63871	26.8018
6.63022	25.7752
6.62175	24.3745
6.61331	23.4618
6.60488	22.6057
6.59648	21.9228
6.5881	21.074
6.57974	20.2378
6.5714	19.4048
6.56308	18.0386
6.55478	16.9673
6.54651	15.8751
6.53825	14.7584
6.53001	14.0512
6.5218	13.6417
6.51361	13.0381
6.50544	12.7415
6.49729	12.9554
6.48915	12.9368
6.48104	12.6188
6.47295	12.3443
6.46488	12.1176
6.45683	12.0852
6.4488	12.1177
6.44079	11.9848
6.4328	11.9562
6.42482	12.0006
6.41687	12.3852
6.40894	11.964
6.40103	11.0367
6.39314	10.6193
6.38526	10.4158
6.37741	10.3032
6.36957	10.1212
6.36176	9.73877
6.35396	9.68529
6.34618	9.8313
6.33843	9.56571
6.33069	9.24836
6.32297	9.16931
6.31527	9.16007
6.30758	9.12717
6.29992	9.09448
6.29227	9.12994
6.28465	9.20277
6.27704	9.22985
6.26945	9.36477
6.26188	9.63805
6.25432	9.88153
6.24679	10.127
6.23927	10.2883
6.23177	10.4836
6.22429	10.7538
6.21683	11.0801
6.20938	11.3364
6.20195	11.5489
6.19454	11.8516
6.18715	12.3825
6.17978	12.6025
6.17242	12.5226
6.16508	12.7912
6.15776	13.2352
6.15045	13.4146
6.14317	13.6649
6.1359	13.8523
6.12864	14.0344
6.12141	14.5476
6.11419	15.1742
6.10699	15.1353
6.0998	15.2243
6.09263	15.498
6.08549	15.8139
6.07835	16.4953
6.07123	17.2236
6.06413	17.5122
6.05705	18.3949
6.04998	20.0665
6.04293	20.2787
6.0359	20.2426
6.02888	20.9174
6.02187	21.8524
6.01489	23.0351
6.00792	23.8752
6.00096	24.7866
5.99403	26.2629
5.98711	27.5474
5.9802	28.245
5.97331	29.5407
5.96644	30.7519
5.95958	31.3563
5.95274	32.4106
5.94591	33.8128
5.9391	35.8322
5.9323	36.5077
5.92552	36.5559
5.91876	37.3706
5.91201	38.1428
5.90528	39.194
5.89856	40.998
5.89186	41.5875
5.88517	42.5919
5.8785	43.3361
5.87184	42.5996
5.8652	43.3612
5.85857	44.1397
5.85196	44.8591
5.84536	45.7488
5.83878	46.8976
5.83221	48.3067
5.82566	49.8146
5.81912	50.3337
5.81259	49.7856
5.80608	49.7841
5.79959	50.1575
5.79311	50.451
5.78665	51.099
5.78019	51.8981
5.77376	53.1738
5.76734	54.9164
5.76093	54.5857
5.75453	54.3265
5.74815	55.3094
5.74179	55.5542
5.73543	55.9576
5.7291	56.504
5.72277	57.3141
5.71646	58.2287
5.71017	59.027
5.70389	58.9002
5.69762	59.1975
5.69136	59.9594
5.68513	60.4474
5.6789	61.298
5.67268	61.78
5.66648	61.6829
5.6603	62.3149
5.65413	62.9993
5.64797	63.8072
5.64182	64.7701
5.63569	64.3737
5.62957	64.0541
5.62347	64.2986
5.61737	64.6716
5.61129	64.8336
5.60522	65.0791
5.59917	65.2689
5.59313	65.3069
5.5871	65.9194
5.58109	66.8916
5.57509	67.0049
5.5691	66.6255
5.56312	66.9026
5.55716	67.4471
5.55121	67.8746
5.54528	67.9692
5.53935	68.2516
5.53344	68.6147
5.52754	69.1357
5.52166	69.4689
5.51578	69.5671
5.50992	69.6585
5.50407	69.9836
5.49823	70.1593
5.49241	70.3412
5.4866	70.621
5.4808	71.1619
5.47501	71.1789
5.46923	71.4195
5.46347	71.7999
5.45772	71.4651
5.45198	71.3069
5.44625	71.4833
5.44054	71.5924
5.43484	71.7019
5.42914	72.2141
5.42347	73.1426
5.4178	72.946
5.41214	72.4787
5.4065	72.3884
5.40087	72.2833
5.39525	72.2492
5.38964	72.1897
5.38404	72.1578
5.37846	72.1391
5.37288	72.0597
5.36732	72.0101
5.36177	72.0609
5.35623	72.372
5.35071	72.7043
5.34519	72.4691
5.33968	72.221
5.33419	72.3118
5.32871	72.464
5.32324	72.6338
5.31778	72.6983
5.31233	72.8289
5.30689	72.8625
5.30147	72.9056
5.29605	73.0958
5.29065	73.1748
5.28525	72.895
5.27987	72.7468
5.2745	72.7194
5.26914	72.7299
5.26379	72.6191
5.25845	72.5406
5.25312	72.4596
5.24781	72.4126
5.2425	72.4308
5.23721	72.5348
5.23192	72.4014
5.22665	72.2682
5.22138	72.2185
5.21613	72.4396
5.21089	72.3878
5.20566	72.1638
5.20044	72.2076
5.19522	72.1713
5.19002	72.1447
5.18483	72.2306
5.17965	72.3648
5.17448	72.546
5.16933	72.6777
5.16418	72.8255
5.15904	72.9943
5.15391	73.1559
5.14879	73.4236
5.14368	73.394
5.13859	73.241
5.1335	73.2031
5.12842	73.1775
5.12335	73.1755
5.1183	73.1924
5.11325	73.2171
5.10821	73.1595
5.10318	73.1136
5.09817	73.0636
5.09316	73.0933
5.08816	73.2104
5.08317	73.2921
5.07819	73.1917
5.07322	73.1288
5.06826	73.1253
5.06331	73.1438
5.05837	73.1061
5.05344	73.1072
5.04852	73.1395
5.04361	73.1235
5.03871	73.0387
5.03382	73.0194
5.02894	73.0034
5.02406	73.0164
5.0192	73.0512
5.01435	72.9844
5.0095	72.9815
5.00467	73.0899
4.99984	73.1696
4.99502	73.2457
4.99021	73.3488
4.98542	73.4525
4.98063	73.5853
4.97585	73.7076
4.97108	73.7864
4.96632	73.8955
4.96156	74.028
4.95682	74.2093
4.95209	74.3267
4.94736	74.3421
4.94264	74.4492
4.93794	74.6145
4.93324	74.6926
4.92855	74.6924
4.92387	74.6546
4.9192	74.7187
4.91453	74.7686
4.90988	74.7998
4.90524	74.7612
4.9006	74.7555
4.89597	74.7197
4.89135	74.6588
4.88674	74.6328
4.88214	74.6699
4.87755	74.6759
4.87296	74.7203
4.86839	74.745
4.86382	74.7403
4.85926	74.7235
4.85471	74.7722
4.85017	74.8715
4.84564	75.012
4.84111	75.1064
4.8366	75.1753
4.83209	75.2548
4.82759	75.3601
4.8231	75.459
4.81862	75.5552
4.81415	75.5824
4.80968	75.6572
4.80522	75.7922
4.80077	75.9521
4.79633	76.0761
4.7919	76.197
4.78747	76.3449
4.78306	76.5224
4.77865	76.5703
4.77425	76.661
4.76986	76.7725
4.76547	76.8757
4.7611	76.8518
4.75673	76.9035
4.75237	76.9587
4.74802	76.9657
4.74367	76.9316
4.73934	76.9039
4.73501	76.9219
4.73069	76.9461
4.72638	76.9218
4.72207	76.8021
4.71777	76.7157
4.71348	76.6941
4.7092	76.7327
4.70493	76.7458
4.70066	76.6777
4.69641	76.6176
4.69216	76.6151
4.68791	76.5721
4.68368	76.5584
4.67945	76.5057
4.67523	76.4337
4.67102	76.4152
4.66682	76.4409
4.66262	76.5703
4.65843	76.6486
4.65425	76.7025
4.65007	76.7296
4.64591	76.7746
4.64175	76.8155
4.6376	76.8695
4.63345	76.9524
4.62932	77.0802
4.62519	77.1254
4.62106	77.1847
4.61695	77.2354
4.61284	77.2606
4.60874	77.2072
4.60465	77.1658
4.60056	77.1584
4.59648	77.1435
4.59241	77.0883
4.58835	77.1269
4.58429	77.0781
4.58024	77.0087
4.5762	76.9867
4.57216	77.0435
4.56814	77.0328
4.56411	76.9861
4.5601	76.9317
4.55609	76.9183
4.55209	76.9
4.5481	76.8737
4.54411	76.8029
4.54013	76.779
4.53616	76.7462
4.5322	76.7437
4.52824	76.795
4.52429	76.7969
4.52034	76.6893
4.51641	76.5816
4.51247	76.6166
4.50855	76.6617
4.50463	76.6091
4.50072	76.5681
4.49682	76.5144
4.49292	76.4377
4.48903	76.4149
4.48515	76.3824
4.48127	76.3452
4.4774	76.2784
4.47354	76.1672
4.46968	76.0934
4.46584	76.0668
4.46199	76.0573
4.45815	75.9631
4.45432	75.8542
4.4505	75.7702
4.44668	75.6256
4.44287	75.5101
4.43907	75.4597
4.43527	75.3303
4.43148	75.1444
4.4277	74.9229
4.42392	74.7675
4.42015	74.5885
4.41638	74.4019
4.41262	74.2238
4.40887	74.0535
4.40513	73.807
4.40139	73.5363
4.39765	73.3204
4.39393	73.1052
4.39021	72.8269
4.38649	72.5694
4.38278	72.3471
4.37908	72.1286
4.37539	71.8992
4.3717	71.689
4.36801	71.4352
4.36434	71.2216
4.36067	71.0276
4.357	70.8932
4.35335	70.8089
4.34969	70.6838
4.34605	70.4989
4.34241	70.3319
4.33877	70.0871
4.33514	69.8698
4.33152	69.6982
4.32791	69.5146
4.3243	69.2978
4.32069	69.0293
4.3171	68.7073
4.31351	68.4409
4.30992	68.2625
4.30634	68.1114
4.30277	67.9004
4.2992	67.6804
4.29564	67.4828
4.29208	67.2523
4.28853	67.0094
4.28499	66.7894
4.28145	66.6496
4.27792	66.5147
4.27439	66.3803
4.27087	66.2263
4.26735	66.0016
4.26384	65.8046
4.26034	65.728
4.25684	65.9181
4.25335	66.2737
4.24986	66.6058
4.24638	66.9807
4.24291	67.3679
4.23944	67.611
4.23598	67.8185
4.23252	68.0503
4.22906	68.2127
4.22562	68.3198
4.22218	68.4332
4.21874	68.4982
4.21531	68.5408
4.21189	68.5294
4.20847	68.5434
4.20506	68.6315
4.20165	68.7256
4.19825	68.7846
4.19485	68.8902
4.19146	69.0079
4.18807	69.0881
4.18469	69.1409
4.18132	69.1875
4.17795	69.3155
4.17458	69.5225
4.17123	69.57
4.16787	69.6102
4.16453	69.7126
4.16118	69.7654
4.15785	69.8103
4.15451	69.8413
4.15119	69.8879
4.14787	70.0152
4.14455	70.0585
4.14124	70.1105
4.13794	70.2044
4.13464	70.307
4.13134	70.3421
4.12805	70.4159
4.12477	70.4766
4.12149	70.5174
4.11822	70.6122
4.11495	70.7435
4.11168	70.8224
4.10843	70.9357
4.10517	71.011
4.10192	71.103
4.09868	71.148
4.09545	71.2137
4.09221	71.3085
4.08899	71.3389
4.08576	71.4148
4.08255	71.5165
4.07933	71.5649
4.07613	71.6351
4.07292	71.6326
4.06973	71.7429
4.06654	71.861
4.06335	71.893
4.06017	71.9036
4.05699	72.0083
4.05382	72.1161
4.05065	72.1715
4.04749	72.2779
4.04433	72.3932
4.04118	72.4404
4.03803	72.5327
4.03489	72.704
4.03175	72.8877
4.02862	73.0653
4.02549	73.2972
4.02237	73.5232
4.01925	73.7091
4.01614	73.859
4.01303	74.039
4.00993	74.2279
4.00683	74.4101
4.00373	74.5607
4.00064	74.6738
3.99756	74.7507
3.99448	74.8547
3.9914	74.9609
3.98833	75.1214
3.98527	75.2244
3.98221	75.3119
3.97915	75.4222
3.9761	75.5658
3.97305	75.6839
3.97001	75.8061
3.96697	75.9017
3.96394	76.0222
3.96091	76.1063
3.95789	76.2084
3.95487	76.27
3.95186	76.3708
3.94885	76.4335
3.94584	76.4876
3.94284	76.5779
3.93984	76.7108
3.93685	76.793
3.93386	76.8188
3.93088	76.8108
3.9279	76.8575
3.92493	76.9333
3.92196	76.935
3.919	76.9632
3.91604	76.9683
3.91308	76.9492
3.91013	76.9444
3.90718	76.9412
3.90424	76.944
3.9013	76.9514
3.89837	76.934
3.89544	76.9391
3.89252	77.0055
3.8896	77.0003
3.88668	76.9421
3.88377	76.9221
3.88086	76.9181
3.87796	76.8678
3.87506	76.9125
3.87217	76.9172
3.86928	76.8524
3.86639	76.7687
3.86351	76.7224
3.86064	76.6009
3.85776	76.5202
3.8549	76.5736
3.85203	76.576
3.84917	76.5379
3.84631	76.5196
3.84346	76.5357
3.84062	76.6523
3.83777	76.6939
3.83494	76.6973
3.8321	76.6455
3.82927	76.6793
3.82644	76.7692
3.82362	76.8345
3.82081	76.8291
3.81799	76.8311
3.81518	76.8815
3.81238	76.888
3.80958	76.8948
3.80678	76.9083
3.80399	76.9768
3.8012	77.0524
3.79841	77.0857
3.79563	77.1175
3.79286	77.0933
3.79008	77.0941
3.78731	77.1145
3.78455	77.0563
3.78179	76.993
3.77903	76.9335
3.77628	76.8534
3.77353	76.8415
3.77079	76.8534
3.76805	76.8996
3.76531	76.8898
3.76258	76.8067
3.75985	76.7409
3.75713	76.6854
3.7544	76.6005
3.75169	76.5819
3.74898	76.4863
3.74627	76.3633
3.74356	76.3343
3.74086	76.2734
3.73816	76.1723
3.73547	76.0724
3.73278	76.0058
3.7301	75.9213
3.72741	75.8268
3.72474	75.717
3.72206	75.5608
3.71939	75.5005
3.71673	75.4606
3.71406	75.3285
3.71141	75.2032
3.70875	75.1067
3.7061	74.9876
3.70345	74.8759
3.70081	74.7745
3.69817	74.661
3.69553	74.5238
3.6929	74.4004
3.69027	74.2515
3.68765	74.0628
3.68503	74.0062
3.68241	73.9083
3.6798	73.7573
3.67719	73.658
3.67458	73.5368
3.67198	73.4109
3.66938	73.3143
3.66678	73.2515
3.66419	73.1566
3.66161	73.0988
3.65902	73.1097
3.65644	73.0971
3.65387	72.9518
3.65129	72.812
3.64872	72.8417
3.64616	72.8571
3.64359	72.8187
3.64103	72.7549
3.63848	72.7797
3.63593	72.8326
3.63338	72.8023
3.63084	72.7832
3.6283	72.7763
3.62576	72.8028
3.62322	72.7746
3.62069	72.7923
3.61817	72.8215
3.61564	72.8369
3.61312	72.8135
3.61061	72.8044
3.6081	72.8786
3.60559	72.9676
3.60308	72.9662
3.60058	72.9657
3.59808	72.8991
3.59558	72.9323
3.59309	73.0097
3.59061	73.0877
3.58812	73.0742
3.58564	72.9995
3.58316	72.9924
3.58069	73.0405
3.57822	73.0567
3.57575	73.0562
3.57328	73.0082
3.57082	72.9459
3.56836	72.9474
3.56591	72.9449
3.56346	72.9317
3.56101	72.8972
3.55857	72.7843
3.55613	72.7158
3.55369	72.7823
3.55126	72.8257
3.54883	72.7645
3.5464	72.6827
3.54397	72.6292
3.54155	72.5678
3.53914	72.5728
3.53672	72.5289
3.53431	72.3832
3.5319	72.2986
3.5295	72.2214
3.5271	72.1211
3.5247	72.0272
3.52231	71.9148
3.51991	71.8123
3.51753	71.7598
3.51514	71.6388
3.51276	71.4835
3.51038	71.3549
3.50801	71.2844
3.50563	71.1942
3.50327	71.0885
3.5009	71.0023
3.49854	70.9714
3.49618	70.9361
3.49382	70.8937
3.49147	70.8399
3.48912	70.8354
3.48677	70.8527
3.48443	70.7302
3.48209	70.6881
3.47975	70.6788
3.47742	70.6311
3.47509	70.5489
3.47276	70.5209
3.47044	70.5779
3.46812	70.6092
