Name: Brucite Mg(OH)_2
Type: Mineral
Class: Hydroxides
Subclass: 
Particle Size: 45-125um
Sample No.: OH-1A
Owner: JPL
Wavelength range: IR
Origin: USA, Nevada, Nye County, Gabbs
Collected by JPL
Description: 





Measurement: Hemispherical reflectance
First Column: X
Second Column: Y
X Units:  Wavelength (micrometers)
Y Units:  Reflectance (percent)
First X Value: 15.3853
Last X Value: 2.00032
Number of X Values: 2256
Additional information: oh01aa.txt
 
15.3853	16.6811
15.3397	16.527
15.2945	16.3988
15.2495	16.1924
15.2048	16.1256
15.1603	16.4128
15.1161	16.3258
15.0722	15.7022
15.0285	15.5226
14.9851	15.6746
14.9419	15.5659
14.8989	15.4825
14.8563	15.1517
14.8138	14.8774
14.7716	14.7851
14.7296	14.7579
14.6879	14.6972
14.6464	14.6438
14.6052	14.5924
14.5641	14.4948
14.5233	14.5633
14.4828	14.6277
14.4424	14.5638
14.4023	14.4323
14.3624	14.3764
14.3227	14.253
14.2833	14.1119
14.244	13.826
14.205	13.5444
14.1662	13.3914
14.1276	13.1034
14.0892	12.9023
14.051	13.0084
14.0131	12.9057
13.9753	12.7554
13.9377	12.7049
13.9004	12.4892
13.8632	12.2781
13.8262	12.2995
13.7895	12.2995
13.7529	12.1285
13.7165	11.8441
13.6803	11.4601
13.6443	11.1057
13.6085	10.6215
13.5729	10.1619
13.5374	9.87846
13.5022	9.63174
13.4671	9.40199
13.4322	9.17474
13.3975	8.79551
13.363	8.33199
13.3286	7.99747
13.2944	7.72439
13.2604	7.40168
13.2266	7.07032
13.193	6.78233
13.1595	6.45334
13.1262	6.14736
13.093	5.74555
13.06	5.4065
13.0272	5.16341
12.9946	4.97552
12.9621	4.78079
12.9298	4.51432
12.8976	4.33461
12.8656	4.05614
12.8337	3.91164
12.8021	3.83534
12.7705	3.56121
12.7391	3.31137
12.7079	3.04526
12.6769	2.87906
12.6459	2.85266
12.6152	2.7741
12.5845	2.63192
12.5541	2.49982
12.5238	2.4213
12.4936	2.37171
12.4635	2.39525
12.4337	2.31191
12.4039	2.10325
12.3743	2.0647
12.3448	2.00109
12.3155	1.95617
12.2863	1.96098
12.2573	1.8823
12.2284	1.81489
12.1996	1.69212
12.171	1.44424
12.1425	1.38692
12.1141	1.54313
12.0859	1.59345
12.0578	1.50111
12.0298	1.4886
12.0019	1.4214
11.9742	1.33774
11.9466	1.40297
11.9192	1.25878
11.8918	1.11948
11.8646	1.21465
11.8375	1.24683
11.8106	1.16075
11.7837	1.20791
11.757	1.24106
11.7304	1.11383
11.7039	1.11405
11.6776	1.01734
11.6513	0.995398
11.6252	1.15146
11.5992	1.26411
11.5733	1.17017
11.5475	1.08561
11.5219	1.17688
11.4963	1.19185
11.4709	1.10741
11.4455	1.05004
11.4203	1.06973
11.3952	1.23778
11.3702	1.33215
11.3454	1.32621
11.3206	1.33078
11.2959	1.29503
11.2714	1.30971
11.2469	1.34308
11.2226	1.46334
11.1983	1.46984
11.1742	1.46057
11.1502	1.58285
11.1263	1.68781
11.1024	1.66315
11.0787	1.65451
11.0551	1.79637
11.0316	1.65379
11.0081	1.53699
10.9848	1.65932
10.9616	1.60343
10.9385	1.67601
10.9154	1.81489
10.8925	1.79196
10.8697	1.80036
10.8469	1.87792
10.8243	1.90721
10.8017	1.96647
10.7793	1.99128
10.7569	2.0126
10.7346	1.96032
10.7125	1.94447
10.6904	2.03633
10.6684	2.08058
10.6465	2.04481
10.6247	2.05854
10.6029	2.09869
10.5813	2.10663
10.5597	2.15685
10.5383	2.24756
10.5169	2.28394
10.4956	2.30997
10.4744	2.35936
10.4533	2.38708
10.4323	2.3993
10.4113	2.43685
10.3904	2.48118
10.3697	2.55477
10.349	2.46765
10.3284	2.42493
10.3078	2.48796
10.2874	2.39298
10.267	2.41451
10.2467	2.5675
10.2265	2.61002
10.2064	2.75496
10.1863	2.76308
10.1663	2.66635
10.1464	2.74323
10.1266	2.77717
10.1069	2.66708
10.0872	2.61982
10.0676	2.59561
10.0481	2.63922
10.0287	2.71845
10.0093	2.60391
9.99005	2.57125
9.97084	2.73726
9.95169	2.73148
9.93263	2.67935
9.91364	2.71084
9.89472	2.76943
9.87587	2.75144
9.8571	2.74273
9.83839	2.83679
9.81976	2.82885
9.80119	2.80617
9.78271	2.85624
9.76428	2.78945
9.74592	2.64899
9.72764	2.55344
9.70943	2.56475
9.69128	2.57781
9.6732	2.61823
9.65518	2.64855
9.63724	2.66877
9.61935	2.71606
9.60155	2.75945
9.5838	2.70802
9.56611	2.64829
9.5485	2.71843
9.53094	2.73467
9.51345	2.69035
9.49604	2.78005
9.47867	2.81082
9.46137	2.72793
9.44414	2.67243
9.42697	2.78163
9.40986	2.88789
9.39281	2.85453
9.37583	2.8106
9.35891	2.91607
9.34204	2.97865
9.32524	3.02236
9.3085	3.14723
9.29182	3.16861
9.27519	3.09813
9.25863	3.1117
9.24213	3.11647
9.22568	3.18724
9.2093	3.24006
9.19297	3.27752
9.17669	3.34112
9.16048	3.36306
9.14433	3.33657
9.12823	3.44887
9.11218	3.5763
9.0962	3.55686
9.08027	3.5311
9.06439	3.6401
9.04858	3.8239
9.03281	3.85903
9.0171	3.83627
9.00145	3.86804
8.98585	3.86938
8.9703	3.85907
8.9548	3.78414
8.93937	3.80755
8.92398	3.99126
8.90865	4.05572
8.89337	4.02277
8.87814	4.06119
8.86296	4.13541
8.84784	4.09655
8.83277	4.01153
8.81774	4.00986
8.80277	4.08967
8.78786	4.06196
8.77298	3.98646
8.75816	4.07954
8.7434	4.12655
8.72868	4.00226
8.714	3.91986
8.69938	3.94846
8.68481	4.05499
8.67029	4.18421
8.65581	4.20058
8.64139	4.13221
8.62701	3.96604
8.61268	3.90951
8.5984	3.99076
8.58416	4.05884
8.56997	4.16703
8.55583	4.21153
8.54174	4.13532
8.52769	4.02063
8.51368	4.07503
8.49973	4.07217
8.48582	3.94985
8.47195	4.03298
8.45813	4.06077
8.44436	4.00843
8.43062	4.10905
8.41693	4.21752
8.4033	4.16735
8.3897	4.05418
8.37614	4.09877
8.36264	4.04526
8.34917	4.00464
8.33574	4.08373
8.32236	4.14721
8.30903	4.09162
8.29573	4.02707
8.28248	4.09779
8.26927	4.01816
8.2561	3.99422
8.24298	4.12864
8.2299	4.33525
8.21685	4.45185
8.20385	4.44794
8.19089	4.45537
8.17797	4.47603
8.16509	4.4979
8.15225	4.55092
8.13946	4.57327
8.1267	4.60215
8.11398	4.61635
8.10131	4.66214
8.08867	4.65202
8.07606	4.64606
8.0635	4.78034
8.05099	4.87783
8.0385	4.74151
8.02606	4.6854
8.01366	4.7661
8.00129	4.87202
7.98896	4.91086
7.97667	4.92668
7.96442	4.97224
7.9522	4.96816
7.94002	5.03846
7.92788	4.94747
7.91578	4.87359
7.90371	4.84328
7.89168	4.75832
7.87969	4.89695
7.86773	5.04477
7.85581	5.02968
7.84392	4.92834
7.83207	4.89488
7.82026	4.88502
7.80849	4.89511
7.79674	4.93298
7.78503	4.90759
7.77337	4.95749
7.76173	5.04846
7.75012	4.92964
7.73856	4.85815
7.72703	4.90601
7.71553	4.88977
7.70406	4.86899
7.69263	4.92612
7.68123	4.96515
7.66987	4.96963
7.65855	4.98703
7.64725	4.96522
7.63598	4.99335
7.62475	5.07924
7.61356	5.11179
7.60239	5.09932
7.59126	5.1397
7.58017	5.21665
7.5691	5.15819
7.55806	5.13952
7.54707	5.17291
7.5361	5.2282
7.52516	5.246
7.51425	5.16988
7.50338	5.09298
7.49253	5.12172
7.48172	5.1629
7.47094	5.10754
7.46019	5.10931
7.44947	5.13227
7.43879	5.08408
7.42813	5.08149
7.4175	5.05267
7.4069	5.02098
7.39634	4.99034
7.3858	4.98637
7.37529	4.9647
7.36482	4.98803
7.35437	5.01574
7.34396	5.02774
7.33357	4.98692
7.32321	4.95268
7.31288	4.91288
7.30258	4.81636
7.29231	4.76943
7.28207	4.67839
7.27185	4.55021
7.26167	4.47222
7.25152	4.42253
7.24139	4.42759
7.23129	4.48924
7.22122	4.45133
7.21117	4.31774
7.20116	4.26403
7.19117	4.27007
7.18121	4.24523
7.17128	4.19816
7.16137	4.15672
7.1515	4.0773
7.14164	4.09894
7.13182	4.1209
7.12203	4.06798
7.11225	4.04366
7.10251	3.98647
7.0928	3.9125
7.08311	3.88079
7.07344	3.90247
7.06381	3.9154
7.0542	3.92425
7.04461	3.92161
7.03506	3.85048
7.02552	3.81763
7.01601	3.82901
7.00653	3.8489
6.99708	3.86
6.98765	3.88081
6.97824	3.83175
6.96886	3.73155
6.95951	3.7415
6.95018	3.88343
6.94087	3.86121
6.9316	3.79626
6.92234	3.84201
6.91311	3.9558
6.90391	4.02817
6.89473	4.09586
6.88557	4.11133
6.87644	4.10625
6.86733	4.28331
6.85824	4.40397
6.84918	4.38067
6.84015	4.35442
6.83114	4.3435
6.82215	4.36174
6.81319	4.37116
6.80424	4.4491
6.79532	4.55077
6.78643	4.63351
6.77756	4.66349
6.76871	4.62099
6.75989	4.57158
6.75109	4.61698
6.74231	4.65039
6.73355	4.56932
6.72482	4.63342
6.71611	4.6626
6.70742	4.68576
6.69875	4.86103
6.69011	4.98873
6.68149	5.04965
6.67289	5.00122
6.66431	5.00514
6.65576	5.03991
6.64722	5.10501
6.63871	5.24315
6.63022	5.27811
6.62175	5.3319
6.61331	5.36867
6.60488	5.34135
6.59648	5.40179
6.5881	5.49985
6.57974	5.62194
6.5714	5.66045
6.56308	5.56572
6.55478	5.49483
6.54651	5.46911
6.53825	5.41291
6.53001	5.48448
6.5218	5.71251
6.51361	5.77969
6.50544	5.91025
6.49729	6.14732
6.48915	6.22766
6.48104	6.14003
6.47295	6.16634
6.46488	6.29824
6.45683	6.45683
6.4488	6.61355
6.44079	6.77095
6.4328	6.91075
6.42482	7.02551
6.41687	7.31006
6.40894	7.5191
6.40103	7.55617
6.39314	7.66926
6.38526	7.76273
6.37741	7.87277
6.36957	8.04187
6.36176	8.09946
6.35396	8.11853
6.34618	8.30771
6.33843	8.45643
6.33069	8.47536
6.32297	8.52262
6.31527	8.58106
6.30758	8.62202
6.29992	8.62335
6.29227	8.74638
6.28465	8.86109
6.27704	8.92842
6.26945	9.01503
6.26188	9.03741
6.25432	9.08719
6.24679	9.18115
6.23927	9.22358
6.23177	9.22626
6.22429	9.26623
6.21683	9.26228
6.20938	9.25227
6.20195	9.2601
6.19454	9.33995
6.18715	9.43632
6.17978	9.36935
6.17242	9.40373
6.16508	9.51185
6.15776	9.62108
6.15045	9.66561
6.14317	9.71437
6.1359	9.73485
6.12864	9.7306
6.12141	9.80458
6.11419	9.90333
6.10699	9.93807
6.0998	10.0065
6.09263	10.1003
6.08549	10.1879
6.07835	10.3996
6.07123	10.6052
6.06413	10.7718
6.05705	10.9788
6.04998	11.3406
6.04293	11.469
6.0359	11.4398
6.02888	11.5354
6.02187	11.7393
6.01489	12.0262
6.00792	12.1959
6.00096	12.4634
5.99403	12.7937
5.98711	12.9722
5.9802	13.0687
5.97331	13.2962
5.96644	13.451
5.95958	13.4882
5.95274	13.6413
5.94591	13.9482
5.9391	14.4539
5.9323	14.9513
5.92552	15.2849
5.91876	15.6525
5.91201	16.0182
5.90528	16.416
5.89856	16.8655
5.89186	17.1091
5.88517	17.4876
5.8785	17.8986
5.87184	17.9744
5.8652	18.2928
5.85857	18.5387
5.85196	18.7152
5.84536	18.9814
5.83878	19.348
5.83221	19.7124
5.82566	20.1334
5.81912	20.4741
5.81259	20.6543
5.80608	20.9436
5.79959	21.2619
5.79311	21.5164
5.78665	21.9011
5.78019	22.2533
5.77376	22.5882
5.76734	22.9226
5.76093	23.0488
5.75453	23.2399
5.74815	23.544
5.74179	23.642
5.73543	23.8272
5.7291	24.0816
5.72277	24.317
5.71646	24.5518
5.71017	24.764
5.70389	24.8866
5.69762	25.0852
5.69136	25.3018
5.68513	25.4283
5.6789	25.6278
5.67268	25.8687
5.66648	26.0044
5.6603	26.1728
5.65413	26.3427
5.64797	26.5953
5.64182	26.8786
5.63569	26.937
5.62957	26.9468
5.62347	27.1333
5.61737	27.3077
5.61129	27.4273
5.60522	27.5345
5.59917	27.6591
5.59313	27.7907
5.5871	27.9705
5.58109	28.1719
5.57509	28.2617
5.5691	28.2452
5.56312	28.3511
5.55716	28.5586
5.55121	28.6849
5.54528	28.6526
5.53935	28.7015
5.53344	28.782
5.52754	28.8803
5.52166	28.9646
5.51578	29.0546
5.50992	29.0997
5.50407	29.1491
5.49823	29.2763
5.49241	29.356
5.4866	29.4113
5.4808	29.5465
5.47501	29.6758
5.46923	29.8426
5.46347	29.9869
5.45772	30.0291
5.45198	30.1008
5.44625	30.2363
5.44054	30.3407
5.43484	30.4347
5.42914	30.5851
5.42347	30.8039
5.4178	30.8565
5.41214	30.8663
5.4065	30.9028
5.40087	30.9598
5.39525	30.9956
5.38964	31.0467
5.38404	31.14
5.37846	31.1971
5.37288	31.2589
5.36732	31.3221
5.36177	31.4427
5.35623	31.6675
5.35071	31.8219
5.34519	31.8252
5.33968	31.8072
5.33419	31.8863
5.32871	32.0089
5.32324	32.061
5.31778	32.0811
5.31233	32.1737
5.30689	32.2738
5.30147	32.3182
5.29605	32.3962
5.29065	32.4777
5.28525	32.4871
5.27987	32.5482
5.2745	32.5878
5.26914	32.5747
5.26379	32.5867
5.25845	32.7231
5.25312	32.8387
5.24781	32.8726
5.2425	32.9259
5.23721	32.9977
5.23192	32.9728
5.22665	33.0127
5.22138	33.0639
5.21613	33.1432
5.21089	33.195
5.20566	33.1545
5.20044	33.1878
5.19522	33.2016
5.19002	33.2308
5.18483	33.3118
5.17965	33.4072
5.17448	33.3764
5.16933	33.3518
5.16418	33.3636
5.15904	33.3824
5.15391	33.3848
5.14879	33.4952
5.14368	33.4771
5.13859	33.4359
5.1335	33.4772
5.12842	33.5487
5.12335	33.5898
5.1183	33.6004
5.11325	33.602
5.10821	33.596
5.10318	33.6427
5.09817	33.6257
5.09316	33.6828
5.08816	33.7357
5.08317	33.7127
5.07819	33.6974
5.07322	33.7853
5.06826	33.8065
5.06331	33.7511
5.05837	33.7836
5.05344	33.8693
5.04852	33.9028
5.04361	33.8871
5.03871	33.8927
5.03382	33.9443
5.02894	33.9823
5.02406	34.007
5.0192	34.0259
5.01435	34.0633
5.0095	34.0485
5.00467	34.1131
4.99984	34.1935
4.99502	34.2268
4.99021	34.2468
4.98542	34.2866
4.98063	34.3175
4.97585	34.3744
4.97108	34.4096
4.96632	34.3752
4.96156	34.405
4.95682	34.4558
4.95209	34.5162
4.94736	34.5477
4.94264	34.5616
4.93794	34.6384
4.93324	34.725
4.92855	34.7381
4.92387	34.7011
4.9192	34.6952
4.91453	34.7395
4.90988	34.8289
4.90524	34.8829
4.9006	34.9151
4.89597	34.9426
4.89135	34.9653
4.88674	35.0095
4.88214	35.0615
4.87755	35.0799
4.87296	35.0747
4.86839	35.0907
4.86382	35.2035
4.85926	35.338
4.85471	35.3822
4.85017	35.4018
4.84564	35.4388
4.84111	35.3976
4.8366	35.384
4.83209	35.4498
4.82759	35.5018
4.8231	35.4602
4.81862	35.4725
4.81415	35.4991
4.80968	35.5051
4.80522	35.5202
4.80077	35.5846
4.79633	35.6578
4.7919	35.7615
4.78747	35.8116
4.78306	35.803
4.77865	35.85
4.77425	35.8767
4.76986	35.9562
4.76547	36.0248
4.7611	36.0264
4.75673	36.0459
4.75237	36.1587
4.74802	36.2228
4.74367	36.2666
4.73934	36.3379
4.73501	36.3396
4.73069	36.4144
4.72638	36.5148
4.72207	36.5086
4.71777	36.4914
4.71348	36.533
4.7092	36.6529
4.70493	36.7376
4.70066	36.7247
4.69641	36.7928
4.69216	36.8605
4.68791	36.9455
4.68368	36.991
4.67945	36.9347
4.67523	36.8789
4.67102	36.9124
4.66682	36.9683
4.66262	37.0482
4.65843	37.1089
4.65425	37.1255
4.65007	37.1706
4.64591	37.2275
4.64175	37.2303
4.6376	37.2833
4.63345	37.3963
4.62932	37.4303
4.62519	37.3888
4.62106	37.3916
4.61695	37.4766
4.61284	37.5358
4.60874	37.5727
4.60465	37.6311
4.60056	37.6214
4.59648	37.7013
4.59241	37.771
4.58835	37.792
4.58429	37.8348
4.58024	37.9226
4.5762	37.9487
4.57216	37.9358
4.56814	37.955
4.56411	38.0213
4.5601	38.1048
4.55609	38.154
4.55209	38.1488
4.5481	38.2126
4.54411	38.2673
4.54013	38.3091
4.53616	38.337
4.5322	38.3641
4.52824	38.435
4.52429	38.5359
4.52034	38.5414
4.51641	38.5888
4.51247	38.7079
4.50855	38.7351
4.50463	38.74
4.50072	38.7916
4.49682	38.8397
4.49292	38.8864
4.48903	38.9435
4.48515	38.997
4.48127	39.0425
4.4774	39.1015
4.47354	39.1309
4.46968	39.1754
4.46584	39.2517
4.46199	39.3079
4.45815	39.3474
4.45432	39.3849
4.4505	39.4448
4.44668	39.525
4.44287	39.5911
4.43907	39.6344
4.43527	39.6709
4.43148	39.7299
4.4277	39.8278
4.42392	39.8877
4.42015	39.9206
4.41638	39.9294
4.41262	39.9557
4.40887	40.0778
4.40513	40.1928
4.40139	40.1684
4.39765	40.1492
4.39393	40.2517
4.39021	40.37
4.38649	40.4737
4.38278	40.5521
4.37908	40.6244
4.37539	40.6233
4.3717	40.6336
4.36801	40.6799
4.36434	40.718
4.36067	40.7683
4.357	40.7993
4.35335	40.7989
4.34969	40.8391
4.34605	40.8878
4.34241	40.9137
4.33877	41.0233
4.33514	41.1338
4.33152	41.0975
4.32791	41.1544
4.3243	41.1898
4.32069	41.2197
4.3171	41.2877
4.31351	41.3324
4.30992	41.3786
4.30634	41.4202
4.30277	41.4343
4.2992	41.4719
4.29564	41.5026
4.29208	41.5259
4.28853	41.5652
4.28499	41.6301
4.28145	41.7368
4.27792	41.8049
4.27439	41.816
4.27087	41.8485
4.26735	41.8159
4.26384	41.8305
4.26034	41.8176
4.25684	41.8437
4.25335	41.9155
4.24986	41.9716
4.24638	42.0509
4.24291	42.1239
4.23944	42.1266
4.23598	42.1373
4.23252	42.1111
4.22906	42.1701
4.22562	42.2945
4.22218	42.2792
4.21874	42.2113
4.21531	42.1482
4.21189	42.2298
4.20847	42.3261
4.20506	42.2745
4.20165	42.257
4.19825	42.3082
4.19485	42.3407
4.19146	42.3355
4.18807	42.3626
4.18469	42.3647
4.18132	42.3547
4.17795	42.4145
4.17458	42.4991
4.17123	42.5332
4.16787	42.4655
4.16453	42.4419
4.16118	42.4606
4.15785	42.4471
4.15451	42.4921
4.15119	42.5393
4.14787	42.5592
4.14455	42.5726
4.14124	42.5829
4.13794	42.6259
4.13464	42.642
4.13134	42.621
4.12805	42.5368
4.12477	42.5188
4.12149	42.6352
4.11822	42.6809
4.11495	42.6228
4.11168	42.5839
4.10843	42.6177
4.10517	42.6993
4.10192	42.7101
4.09868	42.717
4.09545	42.6602
4.09221	42.637
4.08899	42.6584
4.08576	42.6084
4.08255	42.6185
4.07933	42.646
4.07613	42.6742
4.07292	42.6687
4.06973	42.6505
4.06654	42.6149
4.06335	42.5909
4.06017	42.6024
4.05699	42.6049
4.05382	42.605
4.05065	42.6158
4.04749	42.6068
4.04433	42.5809
4.04118	42.5028
4.03803	42.4968
4.03489	42.5093
4.03175	42.4444
4.02862	42.4621
4.02549	42.5042
4.02237	42.4082
4.01925	42.311
4.01614	42.3201
4.01303	42.3505
4.00993	42.3666
4.00683	42.3614
4.00373	42.2416
4.00064	42.1474
3.99756	42.0981
3.99448	42.0813
3.9914	42.1216
3.98833	42.1055
3.98527	42.0785
3.98221	42.0117
3.97915	41.9034
3.9761	41.8566
3.97305	41.747
3.97001	41.6949
3.96697	41.6603
3.96394	41.5844
3.96091	41.4876
3.95789	41.4678
3.95487	41.4936
3.95186	41.4313
3.94885	41.3448
3.94584	41.2914
3.94284	41.2793
3.93984	41.257
3.93685	41.1688
3.93386	41.1852
3.93088	41.2017
3.9279	41.2106
3.92493	41.1608
3.92196	41.0645
3.919	41.0262
3.91604	41.0556
3.91308	41.0196
3.91013	40.9777
3.90718	41.0357
3.90424	41.0286
3.9013	40.9094
3.89837	40.8554
3.89544	40.9114
3.89252	40.8932
3.8896	40.8188
3.88668	40.7792
3.88377	40.6928
3.88086	40.6683
3.87796	40.7456
3.87506	40.7696
3.87217	40.7107
3.86928	40.6814
3.86639	40.6656
3.86351	40.6277
3.86064	40.5708
3.85776	40.5295
3.8549	40.5688
3.85203	40.5701
3.84917	40.5872
3.84631	40.6489
3.84346	40.6206
3.84062	40.4997
3.83777	40.3816
3.83494	40.3259
3.8321	40.2873
3.82927	40.2623
3.82644	40.2166
3.82362	40.1976
3.82081	40.1612
3.81799	40.0631
3.81518	39.9085
3.81238	39.8396
3.80958	39.7957
3.80678	39.6722
3.80399	39.6338
3.8012	39.6379
3.79841	39.5127
3.79563	39.3756
3.79286	39.3307
3.79008	39.3009
3.78731	39.2675
3.78455	39.2251
3.78179	39.0909
3.77903	39.1064
3.77628	39.1353
3.77353	39.0862
3.77079	38.9824
3.76805	38.8473
3.76531	38.7901
3.76258	38.8575
3.75985	38.77
3.75713	38.7156
3.7544	38.6975
3.75169	38.6353
3.74898	38.4733
3.74627	38.3725
3.74356	38.3769
3.74086	38.3682
3.73816	38.2814
3.73547	38.107
3.73278	37.9363
3.7301	37.9183
3.72741	37.8466
3.72474	37.7436
3.72206	37.6558
3.71939	37.5249
3.71673	37.3075
3.71406	37.2308
3.71141	37.1337
3.70875	36.8541
3.7061	36.1202
3.70345	34.245
3.70081	31.8197
3.69817	32.6115
3.69553	35.1792
3.6929	36.3045
3.69027	36.5922
3.68765	36.6235
3.68503	36.6529
3.68241	36.5413
3.6798	36.3422
3.67719	36.1065
3.67458	36.0035
3.67198	35.8636
3.66938	35.7222
3.66678	35.6521
3.66419	35.5933
3.66161	35.5772
3.65902	35.5708
3.65644	35.4333
3.65387	35.19
3.65129	35.0663
3.64872	35.0087
3.64616	34.8522
3.64359	34.7172
3.64103	34.6315
3.63848	34.5327
3.63593	34.4197
3.63338	34.3331
3.63084	34.2415
3.6283	34.1067
3.62576	33.912
3.62322	33.8794
3.62069	33.8042
3.61817	33.5856
3.61564	33.407
3.61312	33.2632
3.61061	33.1367
3.6081	33.009
3.60559	32.9402
3.60308	32.8901
3.60058	32.7723
3.59808	32.6416
3.59558	32.497
3.59309	32.4382
3.59061	32.3992
3.58812	32.3479
3.58564	32.3875
3.58316	32.4521
3.58069	32.4759
3.57822	32.3952
3.57575	32.2685
3.57328	32.1957
3.57082	32.0704
3.56836	31.9621
3.56591	31.8901
3.56346	31.889
3.56101	31.7701
3.55857	31.6206
3.55613	31.4315
3.55369	31.26
3.55126	31.124
3.54883	30.9663
3.5464	30.8557
3.54397	30.719
3.54155	30.5308
3.53914	30.4118
3.53672	30.3229
3.53431	30.1581
3.5319	29.9917
3.5295	29.8692
3.5271	29.7309
3.5247	29.5952
3.52231	29.4572
3.51991	29.2266
3.51753	28.9796
3.51514	28.7401
3.51276	28.5535
3.51038	28.5171
3.50801	28.3945
3.50563	28.2932
3.50327	28.2903
3.5009	28.2018
3.49854	28.0846
3.49618	28.0327
3.49382	28.0447
3.49147	28.0212
3.48912	27.955
3.48677	27.8558
3.48443	27.7386
3.48209	27.6426
3.47975	27.5176
3.47742	27.4489
3.47509	27.4969
3.47276	27.4255
3.47044	27.2857
3.46812	27.2433
3.4658	27.2066
3.46348	27.1558
