Name: Palygorskite (Mg,Al)_2Si_4O_10(OH).4H_2O
Type: Mineral
Class: Silicates
Subclass: Phyllosilicates
Particle Size: 0-45um
Sample No.: PS-4A
Owner: JPL
Wavelength range: IR
Origin: USA, Florida, Gadsden County
Collected by Clay Mineral Society
Description: 





Measurement: Hemispherical reflectance
First Column: X
Second Column: Y
X Units:  Wavelength (micrometers)
Y Units:  Reflectance (percent)
First X Value: 15.3853
Last X Value: 2.00032
Number of X Values: 2256
Additional information: ps04aa.txt
 
15.3853	0.492319
15.3397	0.395598
15.2945	0.589094
15.2495	0.802673
15.2048	1.04634
15.1603	1.19512
15.1161	1.04229
15.0722	0.81716
15.0285	0.804675
14.9851	0.902622
14.9419	0.816333
14.8989	0.784659
14.8563	0.900677
14.8138	0.952996
14.7716	1.02653
14.7296	0.927055
14.6879	0.840963
14.6464	0.687915
14.6052	0.623919
14.5641	0.80032
14.5233	0.765127
14.4828	0.689455
14.4424	0.58822
14.4023	0.641869
14.3624	0.805703
14.3227	0.820479
14.2833	0.707178
14.244	0.919907
14.205	1.11375
14.1662	0.944819
14.1276	0.77951
14.0892	0.861396
14.051	1.32614
14.0131	1.50541
13.9753	1.41536
13.9377	1.31729
13.9004	1.3583
13.8632	1.36203
13.8262	1.16943
13.7895	1.15998
13.7529	1.35063
13.7165	1.30522
13.6803	1.28886
13.6443	1.4732
13.6085	1.42589
13.5729	1.29383
13.5374	1.33503
13.5022	1.52883
13.4671	1.55332
13.4322	1.5081
13.3975	1.61014
13.363	1.64982
13.3286	1.67207
13.2944	1.82805
13.2604	1.93356
13.2266	1.91654
13.193	1.75598
13.1595	1.66058
13.1262	1.74425
13.093	1.72614
13.06	1.67086
13.0272	1.7668
12.9946	1.93773
12.9621	1.88403
12.9298	1.78224
12.8976	1.92605
12.8656	1.99407
12.8337	1.89899
12.8021	1.78968
12.7705	1.85668
12.7391	1.92636
12.7079	1.8948
12.6769	1.86052
12.6459	2.04623
12.6152	2.06879
12.5845	1.92064
12.5541	1.81639
12.5238	1.85344
12.4936	2.01721
12.4635	2.13784
12.4337	2.02697
12.4039	1.98569
12.3743	2.16886
12.3448	2.40741
12.3155	2.44631
12.2863	2.47287
12.2573	2.61829
12.2284	2.75734
12.1996	2.79748
12.171	2.82476
12.1425	2.87331
12.1141	3.03671
12.0859	3.28607
12.0578	3.48052
12.0298	3.53416
12.0019	3.67913
11.9742	3.69194
11.9466	3.64455
11.9192	3.7604
11.8918	3.86273
11.8646	4.01122
11.8375	4.00442
11.8106	3.98632
11.7837	4.15346
11.757	4.38686
11.7304	4.35193
11.7039	4.24312
11.6776	4.24577
11.6513	4.12083
11.6252	3.86205
11.5992	3.73871
11.5733	3.72345
11.5475	3.56097
11.5219	3.47006
11.4963	3.53821
11.4709	3.60988
11.4455	3.78968
11.4203	3.80998
11.3952	3.72293
11.3702	3.72607
11.3454	3.88498
11.3206	4.00402
11.2959	4.05326
11.2714	4.11239
11.2469	4.17084
11.2226	4.25435
11.1983	4.25711
11.1742	4.16643
11.1502	4.15661
11.1263	4.05201
11.1024	3.80074
11.0787	3.67735
11.0551	3.57205
11.0316	3.30149
11.0081	3.03132
10.9848	2.87917
10.9616	2.78561
10.9385	2.72389
10.9154	2.87936
10.8925	3.10332
10.8697	3.21597
10.8469	3.38367
10.8243	3.7737
10.8017	4.0177
10.7793	3.91614
10.7569	3.81157
10.7346	3.78975
10.7125	3.82
10.6904	3.83648
10.6684	3.66294
10.6465	3.54056
10.6247	3.56406
10.6029	3.66355
10.5813	3.67764
10.5597	3.65601
10.5383	3.67422
10.5169	3.71919
10.4956	3.69804
10.4744	3.64252
10.4533	3.41405
10.4323	3.23646
10.4113	3.13629
10.3904	2.96914
10.3697	2.75747
10.349	2.6217
10.3284	2.59698
10.3078	2.60973
10.2874	2.59775
10.267	2.54351
10.2467	2.64722
10.2265	2.68319
10.2064	2.77087
10.1863	2.82192
10.1663	2.88447
10.1464	2.86038
10.1266	2.90905
10.1069	2.84154
10.0872	2.63547
10.0676	2.51657
10.0481	2.56846
10.0287	2.47587
10.0093	2.37026
9.99005	2.31084
9.97084	2.20774
9.95169	2.08456
9.93263	2.11952
9.91364	2.06088
9.89472	1.92975
9.87587	1.91506
9.8571	2.11723
9.83839	2.1842
9.81976	2.13492
9.80119	2.12007
9.78271	2.18091
9.76428	2.31873
9.74592	2.33205
9.72764	2.26928
9.70943	2.23383
9.69128	2.25167
9.6732	2.27481
9.65518	2.23271
9.63724	2.27062
9.61935	2.20865
9.60155	2.13538
9.5838	2.21309
9.56611	2.21873
9.5485	2.30617
9.53094	2.3701
9.51345	2.31453
9.49604	2.17807
9.47867	2.28568
9.46137	2.38803
9.44414	2.30173
9.42697	2.27985
9.40986	2.15807
9.39281	2.15084
9.37583	2.24037
9.35891	2.22916
9.34204	2.03891
9.32524	1.92218
9.3085	1.78717
9.29182	1.74968
9.27519	1.81189
9.25863	1.71857
9.24213	1.67848
9.22568	1.67662
9.2093	1.68734
9.19297	1.53175
9.17669	1.52307
9.16048	1.56243
9.14433	1.53579
9.12823	1.45409
9.11218	1.4166
9.0962	1.45773
9.08027	1.41313
9.06439	1.31797
9.04858	1.20755
9.03281	1.25237
9.0171	1.34792
9.00145	1.21385
8.98585	1.19754
8.9703	1.29433
8.9548	1.33611
8.93937	1.19977
8.92398	1.32989
8.90865	1.46175
8.89337	1.33161
8.87814	1.20551
8.86296	1.05954
8.84784	0.967494
8.83277	1.06416
8.81774	1.23962
8.80277	1.3252
8.78786	1.36212
8.77298	1.49876
8.75816	1.54782
8.7434	1.36729
8.72868	1.26895
8.714	1.38009
8.69938	1.43449
8.68481	1.39843
8.67029	1.297
8.65581	1.22515
8.64139	1.24399
8.62701	1.39912
8.61268	1.46071
8.5984	1.33491
8.58416	1.33244
8.56997	1.29919
8.55583	1.30199
8.54174	1.37612
8.52769	1.23938
8.51368	1.22186
8.49973	1.35321
8.48582	1.39062
8.47195	1.29669
8.45813	1.14892
8.44436	1.02116
8.43062	0.928579
8.41693	0.985107
8.4033	0.881773
8.3897	0.750995
8.37614	0.768075
8.36264	0.864535
8.34917	0.854107
8.33574	0.781593
8.32236	0.931231
8.30903	0.961471
8.29573	1.00396
8.28248	1.12987
8.26927	1.15373
8.2561	1.1921
8.24298	1.22278
8.2299	1.27785
8.21685	1.35869
8.20385	1.42716
8.19089	1.57739
8.17797	1.56015
8.16509	1.55675
8.15225	1.67066
8.13946	1.68767
8.1267	1.56701
8.11398	1.4612
8.10131	1.38356
8.08867	1.25359
8.07606	1.27048
8.0635	1.25268
8.05099	1.1719
8.0385	1.1389
8.02606	1.14196
8.01366	1.14727
8.00129	1.17856
7.98896	1.20508
7.97667	1.28666
7.96442	1.20379
7.9522	1.03411
7.94002	1.02679
7.92788	1.07442
7.91578	1.13741
7.90371	1.16784
7.89168	1.14272
7.87969	1.18124
7.86773	1.18485
7.85581	1.07942
7.84392	1.05479
7.83207	1.07528
7.82026	1.09948
7.80849	1.11169
7.79674	1.14674
7.78503	1.22488
7.77337	1.17394
7.76173	1.23653
7.75012	1.25948
7.73856	1.21216
7.72703	1.22878
7.71553	1.26411
7.70406	1.31269
7.69263	1.38508
7.68123	1.45098
7.66987	1.55719
7.65855	1.61339
7.64725	1.58011
7.63598	1.61449
7.62475	1.6803
7.61356	1.69526
7.60239	1.70938
7.59126	1.67799
7.58017	1.62887
7.5691	1.72912
7.55806	1.91163
7.54707	1.98818
7.5361	1.95208
7.52516	1.92877
7.51425	2.00286
7.50338	2.02772
7.49253	2.00601
7.48172	1.97146
7.47094	2.09586
7.46019	2.1752
7.44947	2.17588
7.43879	2.26215
7.42813	2.29958
7.4175	2.30894
7.4069	2.40348
7.39634	2.52321
7.3858	2.55103
7.37529	2.56888
7.36482	2.62993
7.35437	2.6093
7.34396	2.57842
7.33357	2.66638
7.32321	2.74806
7.31288	2.71898
7.30258	2.63883
7.29231	2.81723
7.28207	2.90015
7.27185	2.84765
7.26167	2.83949
7.25152	2.88499
7.24139	3.01722
7.23129	3.04527
7.22122	3.05794
7.21117	3.08132
7.20116	3.01209
7.19117	3.03673
7.18121	3.1335
7.17128	3.12851
7.16137	3.06213
7.1515	3.022
7.14164	3.04567
7.13182	3.08176
7.12203	3.15245
7.11225	3.08663
7.10251	3.06242
7.0928	3.12682
7.08311	3.15107
7.07344	3.14337
7.06381	3.1614
7.0542	3.177
7.04461	3.16552
7.03506	3.16176
7.02552	3.13202
7.01601	3.0692
7.00653	3.02755
6.99708	3.05583
6.98765	3.08582
6.97824	3.04652
6.96886	3.16379
6.95951	3.22827
6.95018	3.35713
6.94087	3.5147
6.9316	3.65769
6.92234	3.79161
6.91311	3.79382
6.90391	3.70319
6.89473	3.68412
6.88557	3.75555
6.87644	3.75462
6.86733	3.73044
6.85824	3.71067
6.84918	3.68019
6.84015	3.79242
6.83114	3.94322
6.82215	3.94703
6.81319	4.01953
6.80424	4.13221
6.79532	4.23321
6.78643	4.34355
6.77756	4.36208
6.76871	4.36131
6.75989	4.34044
6.75109	4.47689
6.74231	4.6463
6.73355	4.74136
6.72482	4.78747
6.71611	4.82229
6.70742	4.82303
6.69875	4.84761
6.69011	5.00599
6.68149	5.14846
6.67289	5.21587
6.66431	5.25584
6.65576	5.3547
6.64722	5.42587
6.63871	5.59552
6.63022	5.67545
6.62175	5.61084
6.61331	5.78543
6.60488	5.91025
6.59648	5.914
6.5881	5.97792
6.57974	6.02253
6.5714	6.04249
6.56308	6.06986
6.55478	6.1458
6.54651	6.24405
6.53825	6.26361
6.53001	6.28454
6.5218	6.44638
6.51361	6.46308
6.50544	6.4702
6.49729	6.64542
6.48915	6.72618
6.48104	6.68368
6.47295	6.65983
6.46488	6.63906
6.45683	6.65745
6.4488	6.6511
6.44079	6.62581
6.4328	6.61821
6.42482	6.66695
6.41687	6.69705
6.40894	6.48998
6.40103	6.29878
6.39314	6.20563
6.38526	6.13337
6.37741	6.12166
6.36957	6.04778
6.36176	5.88425
6.35396	5.72359
6.34618	5.60673
6.33843	5.47555
6.33069	5.31689
6.32297	5.19495
6.31527	4.99596
6.30758	4.75597
6.29992	4.57991
6.29227	4.45858
6.28465	4.28072
6.27704	4.07944
6.26945	3.87293
6.26188	3.6299
6.25432	3.32247
6.24679	3.13265
6.23927	2.97789
6.23177	2.70637
6.22429	2.42141
6.21683	2.16481
6.20938	2.02574
6.20195	1.90644
6.19454	1.77328
6.18715	1.65613
6.17978	1.61445
6.17242	1.51485
6.16508	1.32633
6.15776	1.21013
6.15045	1.16394
6.14317	1.10854
6.1359	1.09467
6.12864	1.09344
6.12141	1.07457
6.11419	1.03739
6.10699	1.0016
6.0998	0.926152
6.09263	0.810922
6.08549	0.805364
6.07835	0.918239
6.07123	0.908091
6.06413	0.834624
6.05705	0.818679
6.04998	0.785935
6.04293	0.695181
6.0359	0.754593
6.02888	0.779438
6.02187	0.761488
6.01489	0.749547
6.00792	0.695553
6.00096	0.707856
5.99403	0.7469
5.98711	0.743027
5.9802	0.809678
5.97331	0.898962
5.96644	0.872283
5.95958	0.818651
5.95274	0.884581
5.94591	1.08799
5.9391	1.25076
5.9323	1.37997
5.92552	1.59762
5.91876	1.95871
5.91201	2.27043
5.90528	2.56322
5.89856	2.90336
5.89186	3.28537
5.88517	3.60956
5.8785	3.95187
5.87184	4.2778
5.8652	4.64731
5.85857	4.99114
5.85196	5.36853
5.84536	5.70521
5.83878	6.07518
5.83221	6.49373
5.82566	6.90173
5.81912	7.13819
5.81259	7.42941
5.80608	7.7838
5.79959	8.10452
5.79311	8.40708
5.78665	8.73331
5.78019	9.04066
5.77376	9.35164
5.76734	9.75586
5.76093	9.91116
5.75453	10.1436
5.74815	10.4717
5.74179	10.7008
5.73543	10.9289
5.7291	11.1234
5.72277	11.3591
5.71646	11.5783
5.71017	11.7712
5.70389	11.8869
5.69762	11.9864
5.69136	12.1172
5.68513	12.217
5.6789	12.323
5.67268	12.4215
5.66648	12.4078
5.6603	12.4575
5.65413	12.5068
5.64797	12.4683
5.64182	12.4757
5.63569	12.4015
5.62957	12.3303
5.62347	12.3027
5.61737	12.3046
5.61129	12.2531
5.60522	12.2835
5.59917	12.304
5.59313	12.2099
5.5871	12.2224
5.58109	12.2738
5.57509	12.2529
5.5691	12.1873
5.56312	12.1467
5.55716	12.0702
5.55121	12.0809
5.54528	12.0993
5.53935	12.1469
5.53344	12.3726
5.52754	12.658
5.52166	12.8469
5.51578	13.0949
5.50992	13.3316
5.50407	13.5253
5.49823	13.786
5.49241	14.0378
5.4866	14.2182
5.4808	14.498
5.47501	14.6952
5.46923	14.8313
5.46347	15.0007
5.45772	15.0893
5.45198	15.1868
5.44625	15.3625
5.44054	15.556
5.43484	15.5832
5.42914	15.6351
5.42347	15.7855
5.4178	15.7175
5.41214	15.568
5.4065	15.45
5.40087	15.373
5.39525	15.3056
5.38964	15.1194
5.38404	15.0398
5.37846	14.9727
5.37288	14.8603
5.36732	14.7489
5.36177	14.6548
5.35623	14.6383
5.35071	14.7057
5.34519	14.7507
5.33968	14.7086
5.33419	14.7422
5.32871	14.8631
5.32324	14.8996
5.31778	14.9755
5.31233	15.1078
5.30689	15.1532
5.30147	15.16
5.29605	15.2348
5.29065	15.4152
5.28525	15.5262
5.27987	15.6269
5.2745	15.7742
5.26914	15.9747
5.26379	16.1714
5.25845	16.3865
5.25312	16.6337
5.24781	16.8657
5.2425	17.0747
5.23721	17.3024
5.23192	17.4335
5.22665	17.616
5.22138	17.8654
5.21613	18.1586
5.21089	18.3423
5.20566	18.4202
5.20044	18.5742
5.19522	18.7216
5.19002	18.821
5.18483	18.8775
5.17965	18.859
5.17448	18.8458
5.16933	18.8762
5.16418	18.8945
5.15904	18.9637
5.15391	18.9871
5.14879	19.0259
5.14368	19.0121
5.13859	18.9614
5.1335	18.9997
5.12842	18.9906
5.12335	18.9507
5.1183	18.9494
5.11325	18.9602
5.10821	19.0352
5.10318	19.0671
5.09817	18.9972
5.09316	18.9494
5.08816	18.898
5.08317	18.8416
5.07819	18.8047
5.07322	18.7619
5.06826	18.8086
5.06331	18.9104
5.05837	18.9464
5.05344	18.9813
5.04852	18.9462
5.04361	18.9257
5.03871	19.0245
5.03382	19.1506
5.02894	19.2693
5.02406	19.3314
5.0192	19.3179
5.01435	19.3375
5.0095	19.391
5.00467	19.4562
4.99984	19.5707
4.99502	19.6929
4.99021	19.8571
4.98542	19.9979
4.98063	20.0624
4.97585	20.216
4.97108	20.4437
4.96632	20.588
4.96156	20.7085
4.95682	20.8805
4.95209	20.9626
4.94736	20.9816
4.94264	21.055
4.93794	21.1593
4.93324	21.2593
4.92855	21.371
4.92387	21.4781
4.9192	21.5898
4.91453	21.7336
4.90988	21.8222
4.90524	21.9262
4.9006	22.1003
4.89597	22.2528
4.89135	22.4103
4.88674	22.5516
4.88214	22.6183
4.87755	22.6706
4.87296	22.773
4.86839	22.8609
4.86382	22.9619
4.85926	23.0643
4.85471	23.1453
4.85017	23.1551
4.84564	23.2015
4.84111	23.2878
4.8366	23.4563
4.83209	23.5305
4.82759	23.6072
4.8231	23.693
4.81862	23.759
4.81415	23.7749
4.80968	23.8711
4.80522	23.9799
4.80077	24.0338
4.79633	24.0779
4.7919	24.2529
4.78747	24.402
4.78306	24.4351
4.77865	24.4754
4.77425	24.5569
4.76986	24.693
4.76547	24.7939
4.7611	24.8219
4.75673	24.9656
4.75237	25.0897
4.74802	25.2229
4.74367	25.3352
4.73934	25.4448
4.73501	25.4936
4.73069	25.5754
4.72638	25.6887
4.72207	25.7877
4.71777	25.8273
4.71348	25.8917
4.7092	25.9685
4.70493	26.0345
4.70066	26.0722
4.69641	26.1346
4.69216	26.204
4.68791	26.2981
4.68368	26.4136
4.67945	26.5124
4.67523	26.5495
4.67102	26.5826
4.66682	26.6415
4.66262	26.7412
4.65843	26.8788
4.65425	27.0061
4.65007	27.0513
4.64591	27.1033
4.64175	27.1585
4.6376	27.2568
4.63345	27.3814
4.62932	27.5122
4.62519	27.5792
4.62106	27.6767
4.61695	27.8208
4.61284	27.9591
4.60874	28.0066
4.60465	27.9902
4.60056	28.011
4.59648	28.1006
4.59241	28.204
4.58835	28.299
4.58429	28.4099
4.58024	28.4841
4.5762	28.4986
4.57216	28.602
4.56814	28.7007
4.56411	28.7469
4.5601	28.7641
4.55609	28.7982
4.55209	28.8352
4.5481	28.8727
4.54411	28.9519
4.54013	29.0126
4.53616	28.9928
4.5322	29.0171
4.52824	29.1065
4.52429	29.2167
4.52034	29.2448
4.51641	29.2388
4.51247	29.3158
4.50855	29.3472
4.50463	29.3221
4.50072	29.312
4.49682	29.3423
4.49292	29.3481
4.48903	29.3713
4.48515	29.483
4.48127	29.5207
4.4774	29.5082
4.47354	29.5374
4.46968	29.6302
4.46584	29.6911
4.46199	29.709
4.45815	29.6704
4.45432	29.7544
4.4505	29.8568
4.44668	29.9398
4.44287	30.0352
4.43907	30.1266
4.43527	30.234
4.43148	30.368
4.4277	30.4341
4.42392	30.4591
4.42015	30.5572
4.41638	30.6812
4.41262	30.7628
4.40887	30.8643
4.40513	31.0536
4.40139	31.1832
4.39765	31.2663
4.39393	31.3521
4.39021	31.4966
4.38649	31.651
4.38278	31.7761
4.37908	31.919
4.37539	32.0803
4.3717	32.2267
4.36801	32.4078
4.36434	32.5628
4.36067	32.7177
4.357	32.8887
4.35335	32.9573
4.34969	33.0645
4.34605	33.1999
4.34241	33.3669
4.33877	33.5758
4.33514	33.7518
4.33152	33.8557
4.32791	34.015
4.3243	34.1955
4.32069	34.3738
4.3171	34.5204
4.31351	34.6732
4.30992	34.8822
4.30634	35.1082
4.30277	35.3357
4.2992	35.5502
4.29564	35.7447
4.29208	35.8974
4.28853	36.0272
4.28499	36.2347
4.28145	36.3858
4.27792	36.5658
4.27439	36.7359
4.27087	36.8521
4.26735	36.8778
4.26384	36.9384
4.26034	37.0172
4.25684	37.1119
4.25335	37.3359
4.24986	37.6343
4.24638	37.9495
4.24291	38.2439
4.23944	38.5324
4.23598	38.7681
4.23252	38.923
4.22906	39.0335
4.22562	39.0889
4.22218	39.15
4.21874	39.2903
4.21531	39.3669
4.21189	39.3834
4.20847	39.4394
4.20506	39.554
4.20165	39.6775
4.19825	39.7738
4.19485	39.8588
4.19146	39.9909
4.18807	40.1578
4.18469	40.2801
4.18132	40.415
4.17795	40.5818
4.17458	40.7768
4.17123	40.9219
4.16787	41.0204
4.16453	41.192
4.16118	41.3078
4.15785	41.4472
4.15451	41.6364
4.15119	41.7479
4.14787	41.7557
4.14455	41.8697
4.14124	42.0062
4.13794	42.1237
4.13464	42.2332
4.13134	42.3762
4.12805	42.5108
4.12477	42.6626
4.12149	42.7172
4.11822	42.7368
4.11495	42.8402
4.11168	42.9222
4.10843	43.0218
4.10517	43.159
4.10192	43.275
4.09868	43.3042
4.09545	43.4066
4.09221	43.5895
4.08899	43.6975
4.08576	43.7495
4.08255	43.8656
4.07933	43.9498
4.07613	44.019
4.07292	44.102
4.06973	44.2139
4.06654	44.3764
4.06335	44.5083
4.06017	44.6769
4.05699	44.7634
4.05382	44.763
4.05065	44.8856
4.04749	44.9668
4.04433	45.1329
4.04118	45.289
4.03803	45.3965
4.03489	45.4641
4.03175	45.5761
4.02862	45.716
4.02549	45.825
4.02237	45.9105
4.01925	45.9301
4.01614	46.0157
4.01303	46.1353
4.00993	46.1653
4.00683	46.1997
4.00373	46.3706
4.00064	46.4787
3.99756	46.5255
3.99448	46.6046
3.9914	46.6652
3.98833	46.6867
3.98527	46.8121
3.98221	46.8778
3.97915	46.8764
3.9761	46.9819
3.97305	47.0712
3.97001	47.1031
3.96697	47.1652
3.96394	47.2315
3.96091	47.2811
3.95789	47.4004
3.95487	47.5215
3.95186	47.5614
3.94885	47.6609
3.94584	47.8256
3.94284	47.8952
3.93984	47.9421
3.93685	48.0228
3.93386	48.0988
3.93088	48.1732
3.9279	48.2316
3.92493	48.2668
3.92196	48.3144
3.919	48.3144
3.91604	48.3082
3.91308	48.3866
3.91013	48.4661
3.90718	48.5145
3.90424	48.5684
3.9013	48.6585
3.89837	48.6893
3.89544	48.6728
3.89252	48.716
3.8896	48.7433
3.88668	48.6794
3.88377	48.6511
3.88086	48.7564
3.87796	48.8151
3.87506	48.8312
3.87217	48.8461
3.86928	48.8089
3.86639	48.7745
3.86351	48.8017
3.86064	48.7921
3.85776	48.7559
3.8549	48.7387
3.85203	48.7461
3.84917	48.6894
3.84631	48.6467
3.84346	48.7296
3.84062	48.6674
3.83777	48.5077
3.83494	48.5232
3.8321	48.5941
3.82927	48.6025
3.82644	48.568
3.82362	48.4934
3.82081	48.4829
3.81799	48.4846
3.81518	48.4825
3.81238	48.4776
3.80958	48.4338
3.80678	48.3519
3.80399	48.3886
3.8012	48.3815
3.79841	48.2909
3.79563	48.2253
3.79286	48.298
3.79008	48.3277
3.78731	48.2718
3.78455	48.1681
3.78179	48.0338
3.77903	47.9184
3.77628	47.8633
3.77353	47.8484
3.77079	47.8005
3.76805	47.8113
3.76531	47.7614
3.76258	47.6984
3.75985	47.6031
3.75713	47.4595
3.7544	47.3953
3.75169	47.3157
3.74898	47.1893
3.74627	47.1183
3.74356	47.0413
3.74086	46.9772
3.73816	46.9847
3.73547	46.9412
3.73278	46.7955
3.7301	46.7015
3.72741	46.6195
3.72474	46.56
3.72206	46.4784
3.71939	46.3616
3.71673	46.1711
3.71406	45.9957
3.71141	45.9581
3.70875	45.892
3.7061	45.8173
3.70345	45.6727
3.70081	45.5516
3.69817	45.4186
3.69553	45.2372
3.6929	45.1368
3.69027	45.1094
3.68765	44.9706
3.68503	44.7553
3.68241	44.5691
3.6798	44.4722
3.67719	44.3937
3.67458	44.2025
3.67198	44.1085
3.66938	44.0488
3.66678	43.9566
3.66419	43.8186
3.66161	43.7037
3.65902	43.6291
3.65644	43.4139
3.65387	43.2128
3.65129	43.1585
3.64872	43.1055
3.64616	42.9489
3.64359	42.7574
3.64103	42.6296
3.63848	42.552
3.63593	42.4928
3.63338	42.3066
3.63084	42.1034
3.6283	42.0341
3.62576	41.8942
3.62322	41.7298
3.62069	41.5632
3.61817	41.4449
3.61564	41.3762
3.61312	41.2303
3.61061	41.0403
3.6081	40.8814
3.60559	40.79
3.60308	40.6866
3.60058	40.5403
3.59808	40.3709
3.59558	40.2575
3.59309	40.1425
3.59061	39.9325
3.58812	39.7313
3.58564	39.5588
3.58316	39.4272
3.58069	39.2318
3.57822	39.0185
3.57575	38.8557
3.57328	38.7038
3.57082	38.544
3.56836	38.3051
3.56591	38.0989
3.56346	37.9166
3.56101	37.6756
3.55857	37.536
3.55613	37.3915
3.55369	37.1295
3.55126	36.908
3.54883	36.7238
3.5464	36.5293
3.54397	36.3846
3.54155	36.2766
3.53914	36.0609
3.53672	35.7461
3.53431	35.4818
3.5319	35.3227
3.5295	34.9961
3.5271	34.6429
3.5247	34.3745
3.52231	34.1246
3.51991	33.9377
3.51753	33.7532
3.51514	33.4686
3.51276	33.0237
3.51038	32.643
3.50801	32.3584
3.50563	32.0663
3.50327	31.7998
3.5009	31.5332
3.49854	31.4404
3.49618	31.4851
3.49382	31.4193
3.49147	31.3258
3.48912	31.3044
3.48677	31.2226
3.48443	31.033
3.48209	30.7618
3.47975	30.5642
3.47742	30.4364
