Name: Quartz-Sericite Schist
Type: Rock
Class: Metamorphic
Subclass:  Schist 
Particle Size: Solid surface
Sample No.: Ward90.txt
Owner: JPL
Wavelength range:  IR 
Origin: Ward's Collection of American Rocks.  Sample locality - Edge Hill, Montgomery County, Pennsylvania.  Collected by - JPL.
Collected by:  Ward's Natural Science
Description: A thinly laminated rock consisting principally of quartz
with a small amount of white mica and a few black specks of a metallic
mineral.  Geologic age - Cambrian



Measurement: Hemispherical reflectance
First Column: X
Second Column: Y
X Units: Wavelength (micrometers)
Y Units: Reflectance (percent)
First X Value: 15.3871
Last X Value: 1.9998
Number of X Values: 2257
Additional information: None

15.3871   2.95593
15.3416   2.96935
15.2964   2.92233
15.2514   2.78760
15.2066   2.72287
15.1622   2.94313
15.1180   3.32002
15.0740   3.33789
15.0303   2.98138
14.9869   2.83559
14.9437   3.16109
14.9008   3.21846
14.8581   3.07364
14.8156   2.98768
14.7734   3.04183
14.7314   3.11802
14.6897   3.23218
14.6482   3.39992
14.6069   3.47178
14.5659   3.31348
14.5251   3.23345
14.4845   3.27929
14.4442   3.43812
14.4041   3.19047
14.3642   2.85750
14.3245   2.87779
14.2850   2.76823
14.2458   2.87847
14.2068   3.10267
14.1679   3.02245
14.1293   3.03748
14.0909   3.21241
14.0528   3.26294
14.0148   3.35231
13.9770   3.49041
13.9394   3.70809
13.9021   3.83116
13.8649   3.87212
13.8279   3.87345
13.7911   3.92564
13.7546   4.03581
13.7182   4.02943
13.6820   4.11970
13.6460   4.14643
13.6101   4.19159
13.5745   4.20991
13.5391   4.27365
13.5038   4.33805
13.4687   4.31377
13.4339   4.45504
13.3991   4.51024
13.3646   4.31415
13.3302   4.18900
13.2961   4.30140
13.2621   4.38811
13.2282   4.35822
13.1946   4.46111
13.1611   4.55549
13.1278   4.79196
13.0946   4.94692
13.0616   5.24552
13.0288   5.37813
12.9962   5.55662
12.9637   5.90371
12.9313   6.20697
12.8992   6.55579
12.8672   7.02808
12.8353   7.36674
12.8036   7.55519
12.7721   7.47544
12.7407   6.88284
12.7095   6.25355
12.6784   6.04008
12.6475   5.94874
12.6167   5.96735
12.5861   6.12183
12.5556   6.41544
12.5253   6.58935
12.4951   6.89707
12.4651   6.90549
12.4352   6.46415
12.4054   5.53795
12.3758   4.46667
12.3463   3.83718
12.3170   3.59372
12.2878   3.54194
12.2588   3.56036
12.2299   3.71432
12.2011   4.02001
12.1725   4.23548
12.1439   4.22316
12.1156   4.26355
12.0873   4.52055
12.0592   4.79559
12.0312   4.80387
12.0034   4.80033
11.9757   4.99362
11.9481   5.10904
11.9206   5.20018
11.8933   5.36364
11.8661   5.53076
11.8390   5.56887
11.8120   5.57933
11.7852   5.63315
11.7584   5.69067
11.7318   5.82118
11.7053   6.01432
11.6790   6.11639
11.6527   6.21646
11.6266   6.30093
11.6006   6.29525
11.5747   6.44775
11.5489   6.45720
11.5233   6.33425
11.4977   6.49356
11.4723   6.56685
11.4469   6.45818
11.4217   6.48838
11.3966   6.60661
11.3716   6.63131
11.3468   6.64719
11.3220   6.64117
11.2973   6.77916
11.2728   6.81942
11.2483   6.90498
11.2240   7.02321
11.1997   7.04938
11.1756   7.22861
11.1515   7.33980
11.1276   7.34899
11.1038   7.42585
11.0801   7.57229
11.0564   7.69730
11.0329   7.87490
11.0095   8.03998
10.9862   8.03305
10.9629   8.00090
10.9398   7.87040
10.9168   7.72708
10.8938   7.74964
10.8710   7.74450
10.8483   7.48084
10.8256   7.24013
10.8031   7.05092
10.7806   6.95405
10.7582   6.95610
10.7360   6.93907
10.7138   7.10132
10.6917   7.25897
10.6697   7.18535
10.6478   7.21242
10.6260   7.43359
10.6042   7.39572
10.5826   7.25628
10.5610   7.41696
10.5396   7.72757
10.5182   7.92681
10.4969   8.02588
10.4757   8.16844
10.4546   8.42661
10.4335   8.65296
10.4126   8.78606
10.3917   9.08773
10.3709   9.42147
10.3502   9.55950
10.3296   9.84035
10.3091  10.09260
10.2886  10.30400
10.2683  10.52260
10.2480  10.72010
10.2277  11.00450
10.2076  11.23410
10.1876  11.38640
10.1676  11.51460
10.1477  11.81680
10.1279  12.04440
10.1081  12.14180
10.0885  12.34810
10.0689  12.78460
10.0494  13.15690
10.0299  13.55470
10.0106  13.87590
 9.9913  14.32410
 9.9720  14.92270
 9.9529  15.56480
 9.9338  15.93280
 9.9148  16.14050
 9.8959  16.23520
 9.8771  16.11390
 9.8583  15.91650
 9.8396  15.89590
 9.8210  15.94910
 9.8024  16.20390
 9.7839  16.71560
 9.7655  17.31850
 9.7471  18.25220
 9.7288  19.50490
 9.7106  20.96030
 9.6925  22.49880
 9.6744  23.76110
 9.6564  24.65050
 9.6384  25.43950
 9.6205  26.29200
 9.6027  26.75300
 9.5850  26.84200
 9.5673  26.88480
 9.5497  26.85670
 9.5321  26.55690
 9.5146  26.14630
 9.4972  25.76000
 9.4798  25.57890
 9.4625  25.37680
 9.4453  25.35850
 9.4281  25.60610
 9.4110  26.20300
 9.3940  26.92090
 9.3770  27.82710
 9.3600  29.01500
 9.3432  30.15200
 9.3264  31.08350
 9.3096  31.79980
 9.2930  32.48240
 9.2763  33.12360
 9.2598  33.34890
 9.2432  33.49540
 9.2268  33.72400
 9.2104  33.69010
 9.1941  33.48380
 9.1778  33.31980
 9.1616  33.08550
 9.1454  32.69330
 9.1293  32.11360
 9.1133  31.30710
 9.0973  30.34310
 9.0814  29.30650
 9.0655  28.01810
 9.0497  26.75140
 9.0339  25.40270
 9.0182  24.14740
 9.0025  23.29550
 8.9870  23.20900
 8.9714  23.85900
 8.9559  24.88840
 8.9405  25.80740
 8.9251  26.56490
 8.9097  26.87430
 8.8945  27.03740
 8.8792  27.06810
 8.8641  26.78520
 8.8489  26.25480
 8.8338  25.73600
 8.8188  25.31100
 8.8039  24.84240
 8.7889  24.38660
 8.7741  23.80980
 8.7592  23.18100
 8.7445  22.57290
 8.7297  21.82590
 8.7151  21.19060
 8.7005  20.57820
 8.6859  19.69410
 8.6714  18.56050
 8.6569  17.46890
 8.6425  16.56480
 8.6281  16.18710
 8.6137  16.48090
 8.5994  17.25420
 8.5852  18.17990
 8.5710  19.07360
 8.5569  19.70070
 8.5428  20.23160
 8.5287  20.70580
 8.5147  21.02570
 8.5008  21.20400
 8.4869  21.49220
 8.4730  21.69400
 8.4592  21.83180
 8.4454  22.08420
 8.4316  22.23040
 8.4180  22.45910
 8.4043  22.76480
 8.3907  22.82760
 8.3772  23.00400
 8.3637  23.33980
 8.3502  23.46880
 8.3368  23.58270
 8.3234  23.92870
 8.3100  24.18630
 8.2967  24.40110
 8.2835  24.64580
 8.2703  24.97550
 8.2571  25.13850
 8.2440  25.15990
 8.2309  25.06220
 8.2179  25.14630
 8.2049  25.06210
 8.1919  24.77340
 8.1790  24.31980
 8.1661  23.67240
 8.1532  22.75500
 8.1404  21.54210
 8.1277  20.26860
 8.1150  18.99750
 8.1023  17.80290
 8.0897  16.50720
 8.0770  15.31710
 8.0645  14.33140
 8.0520  13.32290
 8.0395  12.58740
 8.0270  11.92060
 8.0146  11.04780
 8.0023  10.24400
 7.9899   9.46800
 7.9776   8.85455
 7.9654   8.26778
 7.9532   7.69981
 7.9410   7.16700
 7.9288   6.57463
 7.9167   6.14499
 7.9047   5.80831
 7.8926   5.48359
 7.8807   5.17232
 7.8687   4.86832
 7.8568   4.57784
 7.8449   4.47689
 7.8330   4.33977
 7.8212   4.14747
 7.8094   4.04198
 7.7977   3.87110
 7.7860   3.75963
 7.7743   3.69002
 7.7627   3.57332
 7.7511   3.52928
 7.7395   3.42952
 7.7280   3.33175
 7.7165   3.26773
 7.7050   3.20486
 7.6936   3.04524
 7.6822   2.97902
 7.6708   3.04861
 7.6595   3.04316
 7.6482   2.89142
 7.6369   2.69578
 7.6257   2.64568
 7.6145   2.60903
 7.6033   2.60176
 7.5922   2.70273
 7.5811   2.73065
 7.5700   2.70794
 7.5590   2.69249
 7.5480   2.57588
 7.5370   2.50390
 7.5261   2.53037
 7.5152   2.50154
 7.5043   2.53885
 7.4935   2.59734
 7.4826   2.61588
 7.4718   2.56598
 7.4611   2.50080
 7.4504   2.53839
 7.4397   2.58629
 7.4290   2.75370
 7.4184   2.81128
 7.4078   2.75698
 7.3972   2.74533
 7.3867   2.68425
 7.3762   2.60524
 7.3657   2.62910
 7.3553   2.72586
 7.3449   2.73282
 7.3345   2.65008
 7.3241   2.59984
 7.3138   2.67189
 7.3035   2.82628
 7.2932   2.89988
 7.2830   2.93270
 7.2727   2.97780
 7.2626   2.94660
 7.2524   2.86568
 7.2423   2.90994
 7.2322   2.99572
 7.2221   3.06522
 7.2120   3.11868
 7.2020   3.22457
 7.1921   3.28718
 7.1821   3.31904
 7.1722   3.35121
 7.1623   3.42069
 7.1524   3.48715
 7.1425   3.43001
 7.1327   3.35721
 7.1229   3.38994
 7.1131   3.48394
 7.1034   3.58621
 7.0937   3.57676
 7.0840   3.49380
 7.0743   3.51083
 7.0647   3.60242
 7.0551   3.74465
 7.0455   3.82755
 7.0359   3.76457
 7.0264   3.69368
 7.0169   3.73739
 7.0074   3.85958
 6.9979   3.89932
 6.9885   3.90475
 6.9791   3.90446
 6.9697   3.88462
 6.9604   3.95553
 6.9510   4.04288
 6.9417   4.15701
 6.9324   4.19717
 6.9232   4.18938
 6.9140   4.18859
 6.9047   4.20789
 6.8956   4.25092
 6.8864   4.22134
 6.8773   4.20694
 6.8682   4.43297
 6.8591   4.51223
 6.8500   4.38590
 6.8410   4.28828
 6.8320   4.31422
 6.8230   4.41221
 6.8140   4.39744
 6.8051   4.42462
 6.7962   4.52729
 6.7873   4.60595
 6.7784   4.63643
 6.7695   4.62006
 6.7607   4.59311
 6.7519   4.61757
 6.7431   4.64551
 6.7344   4.66035
 6.7256   4.65888
 6.7169   4.71353
 6.7082   4.70505
 6.6996   4.70135
 6.6909   4.84044
 6.6823   5.00105
 6.6737   5.05748
 6.6651   5.07423
 6.6566   5.11488
 6.6480   5.21012
 6.6395   5.32120
 6.6310   5.23513
 6.6226   5.17407
 6.6141   5.26105
 6.6057   5.21486
 6.5973   5.26293
 6.5889   5.33156
 6.5805   5.27546
 6.5722   5.34498
 6.5639   5.37979
 6.5556   5.36422
 6.5473   5.37409
 6.5390   5.37842
 6.5308   5.37587
 6.5226   5.49158
 6.5144   5.61259
 6.5062   5.80446
 6.4981   6.08894
 6.4900   6.19967
 6.4818   6.20800
 6.4737   6.25158
 6.4657   6.30055
 6.4576   6.30764
 6.4496   6.27052
 6.4416   6.34826
 6.4336   6.50683
 6.4256   6.61331
 6.4177   6.76467
 6.4097   6.78141
 6.4018   6.61831
 6.3939   6.55758
 6.3860   6.60652
 6.3782   6.53335
 6.3704   6.33889
 6.3625   6.28031
 6.3547   6.39795
 6.3470   6.44549
 6.3392   6.31140
 6.3315   6.19426
 6.3237   6.15273
 6.3160   6.18389
 6.3083   6.19462
 6.3007   6.12974
 6.2930   6.00080
 6.2854   5.96815
 6.2778   6.03613
 6.2702   6.00928
 6.2626   5.90116
 6.2551   5.88410
 6.2476   5.86602
 6.2400   5.85792
 6.2325   5.78346
 6.2251   5.70882
 6.2176   5.66770
 6.2101   5.62566
 6.2027   5.68601
 6.1953   5.73583
 6.1879   5.88767
 6.1805   5.98251
 6.1732   5.90385
 6.1658   5.90586
 6.1585   5.95162
 6.1512   5.97791
 6.1439   6.03034
 6.1367   6.01627
 6.1294   5.97723
 6.1222   6.09359
 6.1149   6.36090
 6.1077   6.33595
 6.1006   6.26419
 6.0934   6.33810
 6.0862   6.39483
 6.0791   6.52292
 6.0720   6.55976
 6.0649   6.43734
 6.0578   6.52258
 6.0507   6.69312
 6.0437   6.53207
 6.0366   6.39131
 6.0296   6.27291
 6.0226   6.21897
 6.0156   6.29628
 6.0087   6.19945
 6.0017   6.14833
 5.9948   6.17725
 5.9878   6.13969
 5.9809   6.10357
 5.9740   6.09409
 5.9672   6.05441
 5.9603   5.93347
 5.9535   5.90861
 5.9466   5.87964
 5.9398   5.99378
 5.9330   6.06159
 5.9262   5.93970
 5.9195   5.91647
 5.9127   5.99456
 5.9060   6.11756
 5.8993   6.25140
 5.8926   6.22222
 5.8859   6.34032
 5.8792   6.49886
 5.8726   6.37392
 5.8659   6.43129
 5.8593   6.42878
 5.8527   6.50430
 5.8461   6.60244
 5.8395   6.68461
 5.8329   6.76391
 5.8264   6.83491
 5.8198   6.90091
 5.8133   6.94201
 5.8068   6.99031
 5.8003   7.02606
 5.7938   7.07913
 5.7874   7.18001
 5.7809   7.23410
 5.7745   7.31348
 5.7680   7.40887
 5.7616   7.42745
 5.7552   7.41960
 5.7489   7.47876
 5.7425   7.59235
 5.7361   7.62927
 5.7298   7.69430
 5.7235   7.79863
 5.7172   7.77471
 5.7109   7.71071
 5.7046   7.72118
 5.6983   7.67118
 5.6921   7.57596
 5.6858   7.60569
 5.6796   7.63204
 5.6734   7.52471
 5.6672   7.43951
 5.6610   7.42779
 5.6548   7.30892
 5.6487   7.25693
 5.6425   7.20492
 5.6364   7.07813
 5.6303   7.00754
 5.6242   6.93772
 5.6181   6.94361
 5.6120   6.92645
 5.6059   6.94652
 5.5999   6.94877
 5.5938   6.85629
 5.5878   6.94805
 5.5818   7.03937
 5.5758   7.06336
 5.5698   7.04987
 5.5638   6.92235
 5.5578   6.88172
 5.5519   6.98233
 5.5460   7.01801
 5.5400   7.00291
 5.5341   7.03530
 5.5282   7.10624
 5.5223   7.17322
 5.5164   7.20188
 5.5106   7.20486
 5.5047   7.24468
 5.4989   7.33590
 5.4931   7.34638
 5.4873   7.29285
 5.4815   7.33478
 5.4757   7.52643
 5.4699   7.74807
 5.4641   7.85515
 5.4584   7.87986
 5.4527   7.88588
 5.4469   7.92378
 5.4412   8.02859
 5.4355   8.01229
 5.4298   7.92251
 5.4241   7.91379
 5.4185   7.82365
 5.4128   7.69739
 5.4072   7.57901
 5.4015   7.44601
 5.3959   7.43267
 5.3903   7.43558
 5.3847   7.38252
 5.3791   7.34707
 5.3735   7.32735
 5.3680   7.29510
 5.3624   7.31423
 5.3569   7.39885
 5.3514   7.45747
 5.3458   7.45024
 5.3403   7.50689
 5.3348   7.50697
 5.3294   7.49993
 5.3239   7.61553
 5.3184   7.72384
 5.3130   7.70614
 5.3075   7.70710
 5.3021   7.81595
 5.2967   7.98704
 5.2913   8.07025
 5.2859   8.02821
 5.2805   8.03949
 5.2751   8.14573
 5.2698   8.28219
 5.2644   8.33420
 5.2591   8.44316
 5.2538   8.58917
 5.2485   8.69237
 5.2431   8.84361
 5.2378   8.98461
 5.2326   9.14696
 5.2273   9.33424
 5.2220   9.45313
 5.2168   9.54721
 5.2115   9.70306
 5.2063   9.82086
 5.2011   9.92455
 5.1959  10.02160
 5.1907  10.13560
 5.1855  10.13430
 5.1803  10.02230
 5.1751  10.06180
 5.1700  10.13300
 5.1648  10.17900
 5.1597  10.23550
 5.1545  10.29060
 5.1494  10.30420
 5.1443  10.34540
 5.1392  10.42810
 5.1341  10.47850
 5.1291  10.53710
 5.1240  10.55930
 5.1189  10.59790
 5.1139  10.60070
 5.1088  10.60610
 5.1038  10.67340
 5.0988  10.76060
 5.0938  10.74580
 5.0888  10.72050
 5.0838  10.76960
 5.0788  10.73870
 5.0738  10.65690
 5.0689  10.67460
 5.0639  10.79570
 5.0590  10.84180
 5.0541  10.90360
 5.0491  10.78520
 5.0442  10.79320
 5.0393  10.95650
 5.0344  10.95640
 5.0296  10.96160
 5.0247  10.96580
 5.0198  10.96390
 5.0150  11.00710
 5.0101  11.01910
 5.0053  11.02500
 5.0004  11.07040
 4.9956  11.14290
 4.9908  11.18920
 4.9860  11.27430
 4.9812  11.38850
 4.9765  11.48730
 4.9717  11.56100
 4.9669  11.68930
 4.9622  11.91130
 4.9574  12.09380
 4.9527  12.25000
 4.9480  12.34030
 4.9432  12.53210
 4.9385  12.73180
 4.9338  12.78680
 4.9291  12.88420
 4.9245  12.98820
 4.9198  13.15490
 4.9151  13.52290
 4.9105  13.90850
 4.9058  14.20540
 4.9012  14.53180
 4.8966  14.96870
 4.8919  15.57730
 4.8873  16.13760
 4.8827  16.50210
 4.8781  16.92930
 4.8736  17.49300
 4.8690  17.89540
 4.8644  18.25680
 4.8599  18.68350
 4.8553  19.01310
 4.8508  19.21140
 4.8462  19.49310
 4.8417  19.78780
 4.8372  20.03270
 4.8327  20.23290
 4.8282  20.45380
 4.8237  20.81000
 4.8192  20.99880
 4.8147  21.17850
 4.8103  21.41280
 4.8058  21.68040
 4.8014  21.93150
 4.7969  22.15270
 4.7925  22.28470
 4.7881  22.41480
 4.7836  22.64250
 4.7792  22.91290
 4.7748  23.16260
 4.7704  23.28820
 4.7660  23.44160
 4.7617  23.57890
 4.7573  23.71980
 4.7530  23.98920
 4.7486  24.21000
 4.7443  24.30890
 4.7399  24.38700
 4.7356  24.49720
 4.7313  24.61990
 4.7270  24.62280
 4.7226  24.60900
 4.7184  24.67280
 4.7141  24.64730
 4.7098  24.49870
 4.7055  24.32830
 4.7012  24.16060
 4.6970  23.85450
 4.6927  23.54790
 4.6885  23.38470
 4.6842  23.26710
 4.6800  23.34010
 4.6758  23.59600
 4.6716  23.93210
 4.6674  24.38780
 4.6632  24.86550
 4.6590  25.31490
 4.6548  25.68340
 4.6506  26.09270
 4.6465  26.55330
 4.6423  26.96290
 4.6382  27.37020
 4.6340  27.78820
 4.6299  28.22740
 4.6258  28.62440
 4.6216  28.98980
 4.6175  29.42930
 4.6134  29.75640
 4.6093  30.04600
 4.6052  30.30810
 4.6011  30.42640
 4.5971  30.59980
 4.5930  30.72520
 4.5889  30.89220
 4.5849  31.16170
 4.5808  31.30580
 4.5768  31.33000
 4.5727  31.35490
 4.5687  31.31770
 4.5647  31.34820
 4.5607  31.38680
 4.5567  31.26580
 4.5526  31.15350
 4.5487  31.00050
 4.5447  30.77230
 4.5407  30.50050
 4.5367  30.14830
 4.5328  29.68870
 4.5288  29.26400
 4.5248  28.83060
 4.5209  28.35000
 4.5170  27.86250
 4.5130  27.31320
 4.5091  26.84640
 4.5052  26.53410
 4.5013  26.21640
 4.4974  25.88820
 4.4935  25.67830
 4.4896  25.53590
 4.4857  25.50620
 4.4818  25.48000
 4.4779  25.37420
 4.4741  25.22960
 4.4702  25.23230
 4.4664  25.27520
 4.4625  25.39190
 4.4587  25.69130
 4.4549  25.93220
 4.4510  26.21040
 4.4472  26.63970
 4.4434  26.86420
 4.4396  26.98440
 4.4358  27.23620
 4.4320  27.36520
 4.4282  27.53290
 4.4245  27.79030
 4.4207  28.07120
 4.4169  28.42250
 4.4132  28.70520
 4.4094  28.99650
 4.4057  29.40370
 4.4019  29.67780
 4.3982  29.95720
 4.3945  30.30490
 4.3907  30.69140
 4.3870  31.12960
 4.3833  31.54750
 4.3796  32.08320
 4.3759  32.58870
 4.3722  32.95570
 4.3685  33.27460
 4.3649  33.62850
 4.3612  34.04130
 4.3575  34.45970
 4.3539  34.77910
 4.3502  35.02680
 4.3466  35.28200
 4.3429  35.51140
 4.3393  35.63050
 4.3357  35.75290
 4.3320  35.85680
 4.3284  35.84280
 4.3248  35.79950
 4.3212  35.77930
 4.3176  35.58560
 4.3140  35.29990
 4.3105  35.00550
 4.3069  34.78080
 4.3033  34.55060
 4.2997  34.47540
 4.2962  34.38660
 4.2926  34.23630
 4.2890  34.08760
 4.2855  33.97480
 4.2820  34.01810
 4.2784  34.13490
 4.2749  34.30030
 4.2714  34.52550
 4.2679  34.90040
 4.2644  35.54260
 4.2609  36.40970
 4.2574  36.82570
 4.2539  36.41440
 4.2504  35.79090
 4.2469  35.27140
 4.2434  34.85450
 4.2400  34.61390
 4.2365  34.43980
 4.2330  34.32310
 4.2296  34.44270
 4.2261  34.70310
 4.2227  35.06240
 4.2193  35.55670
 4.2158  36.11480
 4.2124  36.66110
 4.2090  37.06330
 4.2056  37.34340
 4.2022  37.66190
 4.1988  37.94270
 4.1954  38.10970
 4.1920  38.32870
 4.1886  38.44110
 4.1852  38.57380
 4.1818  38.70590
 4.1785  38.84070
 4.1751  39.05740
 4.1717  39.21460
 4.1684  39.43280
 4.1650  39.50140
 4.1617  39.57910
 4.1584  39.75650
 4.1550  39.90460
 4.1517  40.09890
 4.1484  40.26260
 4.1451  40.26600
 4.1418  40.45480
 4.1384  40.76070
 4.1351  40.82260
 4.1319  40.89370
 4.1286  41.09530
 4.1253  41.32230
 4.1220  41.46600
 4.1187  41.57920
 4.1155  41.77240
 4.1122  41.99680
 4.1089  42.13720
 4.1057  42.36930
 4.1024  42.72220
 4.0992  42.99500
 4.0959  43.08270
 4.0927  43.14470
 4.0895  43.25080
 4.0863  43.41910
 4.0830  43.69980
 4.0798  43.91800
 4.0766  43.98400
 4.0734  44.09570
 4.0702  44.22420
 4.0670  44.33020
 4.0639  44.36100
 4.0607  44.33670
 4.0575  44.38040
 4.0543  44.36970
 4.0511  44.23480
 4.0480  44.31660
 4.0448  44.42850
 4.0417  44.30920
 4.0385  44.27800
 4.0354  44.36530
 4.0323  44.43180
 4.0291  44.31750
 4.0260  44.21830
 4.0229  44.13890
 4.0197  44.02660
 4.0166  44.01470
 4.0135  44.16960
 4.0104  44.32910
 4.0073  44.28130
 4.0042  44.19100
 4.0011  44.27370
 3.9981  44.31520
 3.9950  44.36900
 3.9919  44.41250
 3.9888  44.54480
 3.9857  44.69040
 3.9827  44.74910
 3.9796  44.76940
 3.9766  44.92330
 3.9735  45.17480
 3.9705  45.39650
 3.9675  45.42130
 3.9644  45.42580
 3.9614  45.57940
 3.9584  45.78250
 3.9554  46.06270
 3.9523  46.22980
 3.9493  46.21360
 3.9463  46.16860
 3.9433  46.36730
 3.9403  46.64960
 3.9373  46.85740
 3.9343  46.97450
 3.9314  47.00850
 3.9284  46.85000
 3.9254  46.74540
 3.9224  46.94240
 3.9195  47.14470
 3.9165  47.17050
 3.9136  47.13210
 3.9106  47.07110
 3.9077  47.06830
 3.9047  47.05880
 3.9018  47.00320
 3.8988  46.87840
 3.8959  46.82510
 3.8930  46.73340
 3.8901  46.71020
 3.8872  46.73050
 3.8842  46.60340
 3.8813  46.40410
 3.8784  46.20740
 3.8755  46.10280
 3.8726  46.07770
 3.8697  45.99860
 3.8669  45.95940
 3.8640  45.91010
 3.8611  45.87110
 3.8582  45.93040
 3.8554  45.91490
 3.8525  45.89350
 3.8496  45.81250
 3.8468  45.86650
