Name: Cordierite Mg_2Al_3(Si_5Al)O_18
Type: Mineral
Class: Silicates
Subclass: Cyclosilicates
Particle Size: 125-500um
Sample No.: CS-3A
Owner: JPL
Wavelength range: IR
Origin: Canada, Northwest Territories, Mackenzie District, Great Bear Lake
Collected by Ward's
Description: 





Measurement: Hemispherical reflectance
First Column: X
Second Column: Y
X Units:  Wavelength (micrometers)
Y Units:  Reflectance (percent)
First X Value: 15.3853
Last X Value: 2.00032
Number of X Values: 2256
Additional information: cs03aa.txt
 
15.3853	2.863
15.3397	3.11408
15.2945	2.96243
15.2495	2.85393
15.2048	3.20724
15.1603	3.46743
15.1161	3.64542
15.0722	3.87519
15.0285	3.86223
14.9851	3.93052
14.9419	4.0777
14.8989	4.09293
14.8563	3.94633
14.8138	3.91937
14.7716	3.88129
14.7296	3.61322
14.6879	3.55644
14.6464	3.78734
14.6052	3.92545
14.5641	3.67616
14.5233	3.55132
14.4828	3.90792
14.4424	4.02859
14.4023	3.91353
14.3624	3.96375
14.3227	3.9523
14.2833	4.0839
14.244	4.31536
14.205	4.24998
14.1662	4.17484
14.1276	4.28256
14.0892	4.2352
14.051	4.37595
14.0131	4.69824
13.9753	4.72637
13.9377	4.69818
13.9004	4.84294
13.8632	5.17146
13.8262	5.51457
13.7895	5.62143
13.7529	5.70493
13.7165	5.88654
13.6803	6.07421
13.6443	6.27708
13.6085	6.62272
13.5729	7.05211
13.5374	7.40112
13.5022	7.78654
13.4671	8.08411
13.4322	8.22507
13.3975	8.26324
13.363	8.13323
13.3286	8.1371
13.2944	8.30401
13.2604	8.65754
13.2266	9.50514
13.193	10.3722
13.1595	11.157
13.1262	12.0204
13.093	12.9006
13.06	13.5683
13.0272	13.8991
12.9946	13.9823
12.9621	13.8572
12.9298	13.3522
12.8976	12.6693
12.8656	11.8057
12.8337	10.9122
12.8021	10.1604
12.7705	9.47083
12.7391	8.93299
12.7079	8.06293
12.6769	7.1087
12.6459	6.0036
12.6152	4.88773
12.5845	3.84762
12.5541	3.01291
12.5238	2.55643
12.4936	2.43884
12.4635	2.43668
12.4337	2.48505
12.4039	2.50115
12.3743	2.51547
12.3448	2.56386
12.3155	2.77689
12.2863	2.93448
12.2573	3.06649
12.2284	3.2874
12.1996	3.26064
12.171	3.31131
12.1425	3.3558
12.1141	3.53349
12.0859	3.7676
12.0578	3.77378
12.0298	3.77163
12.0019	3.81425
11.9742	3.94553
11.9466	4.15671
11.9192	4.26042
11.8918	4.36956
11.8646	4.53315
11.8375	4.83628
11.8106	4.91057
11.7837	4.86718
11.757	4.92341
11.7304	5.11628
11.7039	5.3965
11.6776	5.48172
11.6513	5.55288
11.6252	5.71092
11.5992	5.93838
11.5733	6.22597
11.5475	6.47184
11.5219	6.64124
11.4963	6.74717
11.4709	6.91451
11.4455	7.07178
11.4203	7.27063
11.3952	7.61472
11.3702	7.85248
11.3454	8.04533
11.3206	8.45031
11.2959	8.81717
11.2714	9.27858
11.2469	9.7624
11.2226	10.1905
11.1983	10.6455
11.1742	11.2206
11.1502	12.0144
11.1263	12.9334
11.1024	13.6231
11.0787	14.1567
11.0551	14.7591
11.0316	15.1475
11.0081	15.0423
10.9848	14.5951
10.9616	14.0028
10.9385	13.5245
10.9154	13.1426
10.8925	12.7654
10.8697	12.1392
10.8469	11.0064
10.8243	9.91624
10.8017	9.55492
10.7793	10.0472
10.7569	11.1259
10.7346	12.5007
10.7125	13.996
10.6904	15.658
10.6684	17.2411
10.6465	18.7709
10.6247	20.2395
10.6029	21.6786
10.5813	23.0035
10.5597	24.3973
10.5383	26.0489
10.5169	27.7833
10.4956	29.5296
10.4744	31.4927
10.4533	33.5223
10.4323	35.2997
10.4113	36.5899
10.3904	37.3881
10.3697	37.7769
10.349	38.042
10.3284	38.166
10.3078	38.104
10.2874	37.9146
10.267	37.6686
10.2467	37.4089
10.2265	37.1416
10.2064	36.9621
10.1863	36.7152
10.1663	36.1599
10.1464	35.4051
10.1266	34.2435
10.1069	32.7546
10.0872	30.8629
10.0676	28.5573
10.0481	25.7998
10.0287	22.7963
10.0093	19.94
9.99005	17.6724
9.97084	16.1585
9.95169	15.1438
9.93263	14.4411
9.91364	13.8058
9.89472	13.2807
9.87587	12.9367
9.8571	12.7807
9.83839	12.9028
9.81976	13.1059
9.80119	13.4347
9.78271	13.9634
9.76428	14.5001
9.74592	14.8747
9.72764	14.9929
9.70943	14.6936
9.69128	13.9291
9.6732	13.1576
9.65518	12.5972
9.63724	12.3578
9.61935	12.3605
9.60155	12.4099
9.5838	12.6027
9.56611	12.6058
9.5485	12.342
9.53094	11.9699
9.51345	11.6501
9.49604	11.2862
9.47867	10.9929
9.46137	10.4076
9.44414	9.66303
9.42697	9.09061
9.40986	8.56798
9.39281	8.04607
9.37583	7.53878
9.35891	7.01451
9.34204	6.46493
9.32524	6.03069
9.3085	5.5361
9.29182	5.0571
9.27519	4.83185
9.25863	4.62901
9.24213	4.49435
9.22568	4.27487
9.2093	3.98727
9.19297	3.79697
9.17669	3.68374
9.16048	3.69893
9.14433	3.60624
9.12823	3.42396
9.11218	3.44468
9.0962	3.50455
9.08027	3.47204
9.06439	3.56863
9.04858	3.43899
9.03281	3.4311
9.0171	3.63468
9.00145	3.77375
8.98585	3.85731
8.9703	4.05602
8.9548	4.20301
8.93937	4.32211
8.92398	4.59993
8.90865	4.92684
8.89337	5.24135
8.87814	5.52922
8.86296	5.74981
8.84784	5.96146
8.83277	6.17811
8.81774	6.52987
8.80277	7.13187
8.78786	7.63772
8.77298	8.0314
8.75816	8.24579
8.7434	8.15444
8.72868	7.69456
8.714	7.03907
8.69938	6.66475
8.68481	6.73589
8.67029	7.08211
8.65581	7.55122
8.64139	8.14635
8.62701	9.15382
8.61268	10.3306
8.5984	11.244
8.58416	11.7985
8.56997	12.2845
8.55583	13.2297
8.54174	14.6317
8.52769	16.1839
8.51368	17.6015
8.49973	18.7174
8.48582	19.6394
8.47195	20.41
8.45813	21.042
8.44436	21.6457
8.43062	22.1556
8.41693	22.447
8.4033	22.7153
8.3897	23.0132
8.37614	23.3807
8.36264	23.6208
8.34917	23.7399
8.33574	23.9361
8.32236	24.1407
8.30903	24.2554
8.29573	24.3304
8.28248	24.4559
8.26927	24.4924
8.2561	24.3113
8.24298	24.0291
8.2299	23.6078
8.21685	23.0211
8.20385	22.3923
8.19089	21.3721
8.17797	19.8311
8.16509	17.9911
8.15225	15.7996
8.13946	13.473
8.1267	11.3235
8.11398	9.55085
8.10131	8.08738
8.08867	6.71607
8.07606	5.53022
8.0635	4.5473
8.05099	3.75159
8.0385	3.1666
8.02606	2.65505
8.01366	2.22072
8.00129	1.86524
7.98896	1.58959
7.97667	1.43173
7.96442	1.23582
7.9522	0.933818
7.94002	0.666097
7.92788	0.6147
7.91578	0.616155
7.90371	0.598587
7.89168	0.502938
7.87969	0.406719
7.86773	0.414322
7.85581	0.378206
7.84392	0.30954
7.83207	0.242339
7.82026	0.236835
7.80849	0.321758
7.79674	0.260208
7.78503	0.216197
7.77337	0.244441
7.76173	0.191277
7.75012	0.192392
7.73856	0.324102
7.72703	0.338367
7.71553	0.302558
7.70406	0.289331
7.69263	0.275827
7.68123	0.158132
7.66987	0.142134
7.65855	0.251725
7.64725	0.315093
7.63598	0.241598
7.62475	0.222004
7.61356	0.259746
7.60239	0.285145
7.59126	0.358488
7.58017	0.448382
7.5691	0.428
7.55806	0.419422
7.54707	0.394181
7.5361	0.433671
7.52516	0.388293
7.51425	0.277047
7.50338	0.297108
7.49253	0.376712
7.48172	0.538642
7.47094	0.53865
7.46019	0.454151
7.44947	0.4436
7.43879	0.479835
7.42813	0.460473
7.4175	0.460496
7.4069	0.499026
7.39634	0.476369
7.3858	0.556387
7.37529	0.627903
7.36482	0.571795
7.35437	0.514942
7.34396	0.524305
7.33357	0.471626
7.32321	0.451755
7.31288	0.51212
7.30258	0.544642
7.29231	0.5762
7.28207	0.673731
7.27185	0.687843
7.26167	0.643044
7.25152	0.615154
7.24139	0.657691
7.23129	0.670591
7.22122	0.734706
7.21117	0.81184
7.20116	0.863016
7.19117	0.816408
7.18121	0.782231
7.17128	0.840966
7.16137	0.875903
7.1515	0.827564
7.14164	0.860456
7.13182	0.881262
7.12203	0.893369
7.11225	0.885113
7.10251	0.861352
7.0928	0.874699
7.08311	0.932517
7.07344	0.91001
7.06381	0.863426
7.0542	0.939174
7.04461	1.06388
7.03506	1.0822
7.02552	1.03269
7.01601	0.969194
7.00653	0.954983
6.99708	0.989693
6.98765	1.04031
6.97824	1.04751
6.96886	1.12865
6.95951	1.1386
6.95018	1.10327
6.94087	1.07085
6.9316	1.04115
6.92234	1.071
6.91311	1.13312
6.90391	1.10838
6.89473	1.07473
6.88557	1.05182
6.87644	1.04637
6.86733	1.08457
6.85824	1.14068
6.84918	1.09649
6.84015	1.02719
6.83114	1.10242
6.82215	1.14386
6.81319	1.07029
6.80424	1.02619
6.79532	1.0524
6.78643	1.12486
6.77756	1.24551
6.76871	1.2933
6.75989	1.23955
6.75109	1.09826
6.74231	1.00158
6.73355	1.05427
6.72482	1.22107
6.71611	1.30585
6.70742	1.25015
6.69875	1.1923
6.69011	1.17495
6.68149	1.17246
6.67289	1.16267
6.66431	1.19535
6.65576	1.21638
6.64722	1.27003
6.63871	1.38643
6.63022	1.32907
6.62175	1.25563
6.61331	1.30658
6.60488	1.26485
6.59648	1.35383
6.5881	1.38154
6.57974	1.41313
6.5714	1.50253
6.56308	1.47285
6.55478	1.45498
6.54651	1.48648
6.53825	1.51456
6.53001	1.57983
6.5218	1.65595
6.51361	1.60348
6.50544	1.53742
6.49729	1.58542
6.48915	1.55537
6.48104	1.45532
6.47295	1.41378
6.46488	1.39967
6.45683	1.39304
6.4488	1.41348
6.44079	1.42574
6.4328	1.44639
6.42482	1.49977
6.41687	1.59782
6.40894	1.5628
6.40103	1.44437
6.39314	1.39081
6.38526	1.33573
6.37741	1.26611
6.36957	1.29922
6.36176	1.34363
6.35396	1.37374
6.34618	1.41062
6.33843	1.36885
6.33069	1.34875
6.32297	1.39671
6.31527	1.4757
6.30758	1.42851
6.29992	1.42064
6.29227	1.45125
6.28465	1.5246
6.27704	1.53063
6.26945	1.42723
6.26188	1.41594
6.25432	1.39297
6.24679	1.45926
6.23927	1.61183
6.23177	1.69104
6.22429	1.63909
6.21683	1.54326
6.20938	1.5206
6.20195	1.51035
6.19454	1.55153
6.18715	1.58339
6.17978	1.50453
6.17242	1.49027
6.16508	1.48574
6.15776	1.48377
6.15045	1.4507
6.14317	1.43049
6.1359	1.44741
6.12864	1.41459
6.12141	1.43803
6.11419	1.45278
6.10699	1.35155
6.0998	1.29972
6.09263	1.4239
6.08549	1.51487
6.07835	1.56971
6.07123	1.65176
6.06413	1.69038
6.05705	1.73123
6.04998	1.80685
6.04293	1.78935
6.0359	1.73963
6.02888	1.78197
6.02187	1.83782
6.01489	1.87802
6.00792	1.86432
6.00096	1.86791
5.99403	1.89155
5.98711	1.95179
5.9802	2.0008
5.97331	2.0246
5.96644	1.96921
5.95958	1.96453
5.95274	2.01036
5.94591	2.05602
5.9391	2.15256
5.9323	2.17074
5.92552	2.15014
5.91876	2.10254
5.91201	2.06058
5.90528	2.15839
5.89856	2.27211
5.89186	2.1838
5.88517	2.23234
5.8785	2.31003
5.87184	2.23655
5.8652	2.19052
5.85857	2.07899
5.85196	2.11228
5.84536	2.15352
5.83878	2.1904
5.83221	2.33894
5.82566	2.40942
5.81912	2.36496
5.81259	2.28663
5.80608	2.29342
5.79959	2.30392
5.79311	2.36949
5.78665	2.39989
5.78019	2.39686
5.77376	2.4168
5.76734	2.43701
5.76093	2.52698
5.75453	2.6411
5.74815	2.70268
5.74179	2.65507
5.73543	2.65636
5.7291	2.7183
5.72277	2.76837
5.71646	2.84192
5.71017	2.84109
5.70389	2.84491
5.69762	2.89336
5.69136	2.90968
5.68513	2.94932
5.6789	3.11249
5.67268	3.14048
5.66648	3.12303
5.6603	3.2087
5.65413	3.32623
5.64797	3.38654
5.64182	3.42595
5.63569	3.38578
5.62957	3.44102
5.62347	3.58809
5.61737	3.63024
5.61129	3.62544
5.60522	3.68558
5.59917	3.73351
5.59313	3.72274
5.5871	3.81724
5.58109	3.8654
5.57509	3.85277
5.5691	3.92178
5.56312	3.96973
5.55716	3.92972
5.55121	3.92203
5.54528	3.92726
5.53935	3.92062
5.53344	3.91909
5.52754	3.93653
5.52166	3.99883
5.51578	3.9931
5.50992	3.93035
5.50407	3.91301
5.49823	3.84916
5.49241	3.80304
5.4866	3.77552
5.4808	3.76095
5.47501	3.70254
5.46923	3.6316
5.46347	3.56298
5.45772	3.48824
5.45198	3.41484
5.44625	3.32454
5.44054	3.25427
5.43484	3.21894
5.42914	3.1805
5.42347	3.17701
5.4178	3.13343
5.41214	3.05491
5.4065	2.98933
5.40087	2.97258
5.39525	2.95707
5.38964	2.94007
5.38404	2.90323
5.37846	2.83731
5.37288	2.72211
5.36732	2.6464
5.36177	2.63368
5.35623	2.60598
5.35071	2.63734
5.34519	2.60632
5.33968	2.56529
5.33419	2.48777
5.32871	2.43392
5.32324	2.38904
5.31778	2.41432
5.31233	2.4646
5.30689	2.4718
5.30147	2.49772
5.29605	2.50292
5.29065	2.5471
5.28525	2.57312
5.27987	2.60375
5.2745	2.60831
5.26914	2.58509
5.26379	2.55792
5.25845	2.63191
5.25312	2.71575
5.24781	2.71255
5.2425	2.68901
5.23721	2.75714
5.23192	2.75377
5.22665	2.7604
5.22138	2.86476
5.21613	2.93599
5.21089	2.90987
5.20566	2.92416
5.20044	3.03208
5.19522	3.19246
5.19002	3.3602
5.18483	3.46988
5.17965	3.57846
5.17448	3.61292
5.16933	3.62719
5.16418	3.74641
5.15904	3.9008
5.15391	4.06744
5.14879	4.24462
5.14368	4.43822
5.13859	4.54825
5.1335	4.61572
5.12842	4.78662
5.12335	4.97578
5.1183	5.15007
5.11325	5.31418
5.10821	5.50049
5.10318	5.67595
5.09817	5.8349
5.09316	5.99776
5.08816	6.13487
5.08317	6.37613
5.07819	6.75627
5.07322	6.97171
5.06826	7.1192
5.06331	7.33731
5.05837	7.5682
5.05344	7.89302
5.04852	8.22018
5.04361	8.53614
5.03871	8.76897
5.03382	9.00738
5.02894	9.16414
5.02406	9.31754
5.0192	9.50217
5.01435	9.63291
5.0095	9.71852
5.00467	9.84437
4.99984	9.99972
4.99502	10.1394
4.99021	10.2744
4.98542	10.4992
4.98063	10.7541
4.97585	11.0089
4.97108	11.3979
4.96632	11.8409
4.96156	12.2356
4.95682	12.6022
4.95209	12.9226
4.94736	13.2833
4.94264	13.6172
4.93794	13.9439
4.93324	14.326
4.92855	14.7363
4.92387	15.109
4.9192	15.4341
4.91453	15.7202
4.90988	15.9798
4.90524	16.2609
4.9006	16.5449
4.89597	16.7622
4.89135	16.9439
4.88674	17.1303
4.88214	17.3172
4.87755	17.4864
4.87296	17.7472
4.86839	17.9796
4.86382	18.141
4.85926	18.3143
4.85471	18.4732
4.85017	18.5926
4.84564	18.7198
4.84111	18.7972
4.8366	18.8886
4.83209	19.0404
4.82759	19.2048
4.8231	19.3129
4.81862	19.3029
4.81415	19.3363
4.80968	19.3977
4.80522	19.3945
4.80077	19.4355
4.79633	19.5034
4.7919	19.4797
4.78747	19.5376
4.78306	19.5974
4.77865	19.5721
4.77425	19.5869
4.76986	19.6224
4.76547	19.6447
4.7611	19.7371
4.75673	19.8238
4.75237	19.9569
4.74802	20.1235
4.74367	20.275
4.73934	20.4636
4.73501	20.7403
4.73069	20.9473
4.72638	21.1572
4.72207	21.3807
4.71777	21.5687
4.71348	21.6843
4.7092	21.7966
4.70493	22.0385
4.70066	22.273
4.69641	22.3208
4.69216	22.1598
4.68791	21.8573
4.68368	21.7319
4.67945	22.0754
4.67523	22.5814
4.67102	22.865
4.66682	23.0091
4.66262	23.0913
4.65843	23.1083
4.65425	23.1763
4.65007	23.2877
4.64591	23.313
4.64175	23.3215
4.6376	23.4556
4.63345	23.4356
4.62932	23.4039
4.62519	23.446
4.62106	23.4821
4.61695	23.4096
4.61284	23.4472
4.60874	23.5092
4.60465	23.4636
4.60056	23.3884
4.59648	23.4893
4.59241	23.6348
4.58835	23.7003
4.58429	23.849
4.58024	24.0268
4.5762	24.1437
4.57216	24.3434
4.56814	24.6459
4.56411	24.9426
4.5601	25.2103
4.55609	25.4697
4.55209	25.7385
4.5481	25.9833
4.54411	26.1805
4.54013	26.3837
4.53616	26.5097
4.5322	26.6193
4.52824	26.6772
4.52429	26.6752
4.52034	26.5943
4.51641	26.4858
4.51247	26.2957
4.50855	26.0462
4.50463	25.6824
4.50072	25.23
4.49682	24.7245
4.49292	24.1523
4.48903	23.5776
4.48515	22.9389
4.48127	22.1484
4.4774	21.3448
4.47354	20.6428
4.46968	20.0916
4.46584	19.7491
4.46199	19.6821
4.45815	19.7482
4.45432	19.9777
4.4505	20.3811
4.44668	20.8342
4.44287	21.1846
4.43907	21.4445
4.43527	21.5835
4.43148	21.6089
4.4277	21.5625
4.42392	21.559
4.42015	21.4629
4.41638	21.2996
4.41262	21.2403
4.40887	21.1583
4.40513	20.9104
4.40139	20.6373
4.39765	20.3094
4.39393	19.8754
4.39021	18.7082
4.38649	15.4855
4.38278	10.8084
4.37908	10.5344
4.37539	15.0661
4.3717	18.1532
4.36801	18.8075
4.36434	18.4546
4.36067	17.5846
4.357	16.2184
4.35335	14.3184
4.34969	12.0286
4.34605	9.86531
4.34241	8.33978
4.33877	7.55152
4.33514	7.32847
4.33152	7.4084
4.32791	7.78083
4.3243	8.51466
4.32069	9.31179
4.3171	10.0655
4.31351	10.7036
4.30992	11.0176
4.30634	10.8769
4.30277	10.3304
4.2992	9.5462
4.29564	8.7558
4.29208	7.89466
4.28853	7.1518
4.28499	6.82475
4.28145	6.45782
4.27792	6.0681
4.27439	5.82786
4.27087	5.57225
4.26735	5.19854
4.26384	4.68034
4.26034	4.10215
4.25684	3.57826
4.25335	3.58115
4.24986	4.15477
4.24638	5.19945
4.24291	6.80379
4.23944	8.76328
4.23598	10.684
4.23252	12.3517
4.22906	13.7618
4.22562	14.7615
4.22218	15.2506
4.21874	15.2952
4.21531	14.8527
4.21189	14.1034
4.20847	13.2653
4.20506	12.2148
4.20165	11.0773
4.19825	10.076
4.19485	9.20146
4.19146	8.51549
4.18807	8.05897
4.18469	7.89342
4.18132	8.15352
4.17795	9.0304
4.17458	10.7917
4.17123	13.7844
4.16787	17.6759
4.16453	21.6988
4.16118	25.1936
4.15785	27.8705
4.15451	29.6188
4.15119	30.5676
4.14787	31.152
4.14455	31.5714
4.14124	32.041
4.13794	32.5965
4.13464	33.2152
4.13134	33.6741
4.12805	33.9144
4.12477	33.9628
4.12149	33.8545
4.11822	33.6463
4.11495	33.3232
4.11168	32.8788
4.10843	32.5287
4.10517	32.3141
4.10192	32.1752
4.09868	32.1109
4.09545	32.1921
4.09221	32.3048
4.08899	32.3358
4.08576	32.0483
4.08255	31.3664
4.07933	30.597
4.07613	30.077
4.07292	29.9205
4.06973	29.9029
4.06654	29.9791
4.06335	30.5338
4.06017	31.5899
4.05699	32.966
4.05382	34.3861
4.05065	35.526
4.04749	36.4448
4.04433	37.1323
4.04118	37.6997
4.03803	38.2581
4.03489	38.7719
4.03175	39.2612
4.02862	39.751
4.02549	40.2069
4.02237	40.4818
4.01925	40.7334
4.01614	40.9749
4.01303	41.1762
4.00993	41.3841
4.00683	41.6049
4.00373	41.7231
4.00064	41.7977
3.99756	41.9009
3.99448	42.0732
3.9914	42.2224
3.98833	42.378
3.98527	42.5497
3.98221	42.6955
3.97915	42.723
3.9761	42.7717
3.97305	42.9115
3.97001	43.082
3.96697	43.2082
3.96394	43.3257
3.96091	43.4409
3.95789	43.5206
3.95487	43.5803
3.95186	43.6179
3.94885	43.7165
3.94584	43.8723
3.94284	43.9739
3.93984	44.0243
3.93685	44.1165
3.93386	44.2325
3.93088	44.2865
3.9279	44.3882
3.92493	44.3766
3.92196	44.4005
3.919	44.5095
3.91604	44.4947
3.91308	44.5589
3.91013	44.7085
3.90718	44.7464
3.90424	44.7659
3.9013	44.8655
3.89837	44.9581
3.89544	45.0062
3.89252	45.0263
3.8896	45.0967
3.88668	45.2301
3.88377	45.2469
3.88086	45.2126
3.87796	45.2389
3.87506	45.2612
3.87217	45.2661
3.86928	45.3386
3.86639	45.3987
3.86351	45.3831
3.86064	45.3218
3.85776	45.2793
3.8549	45.3173
3.85203	45.3584
3.84917	45.2861
3.84631	45.2204
3.84346	45.2221
3.84062	45.2339
3.83777	45.2372
3.83494	45.2403
3.8321	45.072
3.82927	44.7127
3.82644	44.1763
3.82362	43.6248
3.82081	43.601
3.81799	44.29
3.81518	45.0856
3.81238	45.526
3.80958	45.7337
3.80678	45.9315
3.80399	46.0581
3.8012	46.2072
3.79841	46.267
3.79563	46.2259
3.79286	46.3143
3.79008	46.4074
3.78731	46.4146
3.78455	46.4061
3.78179	46.3499
3.77903	46.3664
3.77628	46.4767
3.77353	46.4987
3.77079	46.4802
3.76805	46.5623
3.76531	46.5774
3.76258	46.544
3.75985	46.5326
3.75713	46.5616
3.7544	46.6208
3.75169	46.6003
3.74898	46.6296
3.74627	46.6951
3.74356	46.7123
3.74086	46.662
3.73816	46.5467
3.73547	46.474
3.73278	46.4159
3.7301	46.3175
3.72741	46.3376
3.72474	46.4345
3.72206	46.5124
3.71939	46.5365
3.71673	46.4484
3.71406	46.4241
3.71141	46.3894
3.70875	46.3378
3.7061	46.3367
3.70345	46.3143
3.70081	46.2324
3.69817	46.2033
3.69553	46.1833
3.6929	46.1748
3.69027	46.163
3.68765	46.1662
3.68503	46.1793
3.68241	46.1441
3.6798	46.1522
3.67719	46.1679
3.67458	46.1642
3.67198	46.1541
3.66938	46.0703
3.66678	45.9814
3.66419	46.0042
3.66161	46.0368
3.65902	45.9846
3.65644	45.9594
3.65387	45.9375
3.65129	45.8726
3.64872	45.8971
3.64616	46.0088
3.64359	45.976
3.64103	45.9034
3.63848	45.8599
3.63593	45.8074
3.63338	45.7728
3.63084	45.7275
3.6283	45.7141
3.62576	45.7688
3.62322	45.7233
3.62069	45.7264
3.61817	45.7927
3.61564	45.738
3.61312	45.5749
3.61061	45.5428
3.6081	45.5385
3.60559	45.4914
3.60308	45.4651
3.60058	45.3847
3.59808	45.2966
3.59558	45.3016
3.59309	45.2384
3.59061	45.1975
3.58812	45.1631
3.58564	45.0373
3.58316	44.9469
3.58069	44.9819
3.57822	44.9719
3.57575	44.9112
3.57328	44.8234
3.57082	44.6947
3.56836	44.5841
3.56591	44.5789
3.56346	44.6283
3.56101	44.5386
3.55857	44.4071
3.55613	44.3206
3.55369	44.2481
3.55126	44.2182
3.54883	44.2286
3.5464	44.2034
3.54397	44.1186
3.54155	44.0303
3.53914	43.9625
3.53672	43.9069
3.53431	43.8613
3.5319	43.7899
3.5295	43.7407
3.5271	43.7125
3.5247	43.5877
3.52231	43.4758
3.51991	43.4154
3.51753	43.386
3.51514	43.2936
3.51276	43.1408
3.51038	43.0382
3.50801	42.9493
3.50563	42.8978
3.50327	42.8938
3.5009	42.7623
3.49854	42.5682
3.49618	42.511
3.49382	42.5189
3.49147	42.4758
3.48912	42.4849
3.48677	42.4634
3.48443	42.3355
3.48209	42.2146
