Name: Vermiculite (Mg,Fe^2+,Al)_3(Al,Si)_4O_10(OH)_2.4H_2O
Type: Mineral
Class: Silicates
Subclass: Phyllosilicates
Particle Size: 45-125um
Sample No.: PS-18A
Owner: JPL
Wavelength range: VNIR-SWIR
Origin: USA, Texas, Llano County, Llano.
Collected by:  Clay Mineral Society
Description: 





Measurement: Hemispherical reflectance
First Column: X
Second Column: Y
X Units: Wavelength (micrometers)
Y Units: Reflectance (percent)
First X Value: 2.500
Last X Value: 0.400
Number of X Values: 2101
Additional information: ps18aa.txt

2.500  36.189304
2.499  36.180534
2.498  36.389673
2.497  36.533533
2.496  36.475002
2.495  36.785976
2.494  36.973380
2.493  37.042952
2.492  37.182809
2.491  37.295067
2.490  37.589024
2.489  37.554927
2.488  37.774945
2.487  38.018407
2.486  38.328843
2.485  38.150181
2.484  38.497991
2.483  38.602097
2.482  38.838471
2.481  38.928723
2.480  39.103911
2.479  39.259264
2.478  39.376885
2.477  39.436980
2.476  39.799304
2.475  39.744094
2.474  40.039064
2.473  39.996246
2.472  40.422867
2.471  40.441262
2.470  40.609523
2.469  40.613166
2.468  40.953854
2.467  41.000386
2.466  41.260925
2.465  41.231512
2.464  41.452456
2.463  41.439835
2.462  41.661364
2.461  41.656262
2.460  41.806223
2.459  41.801390
2.458  41.896514
2.457  41.927958
2.456  42.075497
2.455  42.112381
2.454  42.289333
2.453  42.290718
2.452  42.434904
2.451  42.453894
2.450  42.578698
2.449  42.634742
2.448  42.691938
2.447  42.655904
2.446  43.011444
2.445  42.988695
2.444  43.033548
2.443  43.113322
2.442  43.297387
2.441  43.338196
2.440  43.424102
2.439  43.498164
2.438  43.674693
2.437  43.646878
2.436  43.848526
2.435  43.901498
2.434  44.034603
2.433  44.058923
2.432  44.243464
2.431  44.289749
2.430  44.347885
2.429  44.506582
2.428  44.660148
2.427  44.671148
2.426  44.795282
2.425  44.907716
2.424  45.214492
2.423  45.195650
2.422  45.419204
2.421  45.491520
2.420  45.623444
2.419  45.780480
2.418  45.975249
2.417  46.073748
2.416  46.241621
2.415  46.245668
2.414  46.388605
2.413  46.565618
2.412  46.718492
2.411  46.824258
2.410  46.907705
2.409  46.967867
2.408  47.126782
2.407  47.245505
2.406  47.314220
2.405  47.338219
2.404  47.431618
2.403  47.457085
2.402  47.580172
2.401  47.602104
2.400  47.719496
2.399  47.750722
2.398  47.899371
2.397  47.932119
2.396  48.034540
2.395  48.104314
2.394  48.187862
2.393  48.173492
2.392  48.312992
2.391  48.356814
2.390  48.430207
2.389  48.539922
2.388  48.592417
2.387  48.670604
2.386  48.791462
2.385  48.821963
2.384  48.935685
2.383  49.039842
2.382  49.188855
2.381  49.291581
2.380  49.406293
2.379  49.538630
2.378  49.692603
2.377  49.819474
2.376  49.984427
2.375  50.163099
2.374  50.311806
2.373  50.452881
2.372  50.579268
2.371  50.730128
2.370  50.938620
2.369  51.067037
2.368  51.191807
2.367  51.261354
2.366  51.389182
2.365  51.616338
2.364  51.740452
2.363  51.800198
2.362  51.875425
2.361  51.936923
2.360  51.940868
2.359  51.969125
2.358  51.961495
2.357  51.881732
2.356  51.771783
2.355  51.603628
2.354  51.395063
2.353  51.232326
2.352  51.061538
2.351  50.778399
2.350  50.491564
2.349  50.170935
2.348  49.824013
2.347  49.468919
2.346  49.007015
2.345  48.582025
2.344  48.179500
2.343  47.758463
2.342  47.347222
2.341  46.889595
2.340  46.442056
2.339  46.045839
2.338  45.616559
2.337  45.201901
2.336  44.854544
2.335  44.529363
2.334  44.180903
2.333  43.866395
2.332  43.558451
2.331  43.329332
2.330  43.138660
2.329  42.957088
2.328  42.726121
2.327  42.593316
2.326  42.484078
2.325  42.381724
2.324  42.313026
2.323  42.341530
2.322  42.279055
2.321  42.281178
2.320  42.300049
2.319  42.364386
2.318  42.361476
2.317  42.486389
2.316  42.597176
2.315  42.763440
2.314  42.877418
2.313  43.142559
2.312  43.360680
2.311  43.572302
2.310  43.839103
2.309  44.172186
2.308  44.450652
2.307  44.725122
2.306  45.008114
2.305  45.365086
2.304  45.633486
2.303  45.934151
2.302  46.203611
2.301  46.558504
2.300  46.847274
2.299  47.105532
2.298  47.320171
2.297  47.582797
2.296  47.744869
2.295  48.049624
2.294  48.347937
2.293  48.572804
2.292  48.806674
2.291  49.034490
2.290  49.188348
2.289  49.426219
2.288  49.587635
2.287  49.797893
2.286  49.980865
2.285  50.190177
2.284  50.383357
2.283  50.568227
2.282  50.757243
2.281  50.878840
2.280  50.999682
2.279  51.169013
2.278  51.240442
2.277  51.392127
2.276  51.451927
2.275  51.728025
2.274  51.833683
2.273  51.955390
2.272  52.073913
2.271  52.285237
2.270  52.455839
2.269  52.688773
2.268  52.827827
2.267  53.054467
2.266  53.322109
2.265  53.577333
2.264  53.769442
2.263  54.142854
2.262  54.361963
2.261  54.674211
2.260  54.869702
2.259  55.173915
2.258  55.363423
2.257  55.610120
2.256  55.752179
2.255  55.955735
2.254  56.047690
2.253  56.251514
2.252  56.291633
2.251  56.456042
2.250  56.511288
2.249  56.596094
2.248  56.745145
2.247  56.862715
2.246  57.005951
2.245  57.149005
2.244  57.327824
2.243  57.525292
2.242  57.687931
2.241  57.930607
2.240  58.087159
2.239  58.427208
2.238  58.652275
2.237  59.000680
2.236  59.237386
2.235  59.626829
2.234  59.974025
2.233  60.218297
2.232  60.552575
2.231  60.912426
2.230  61.132276
2.229  61.483256
2.228  61.693954
2.227  62.110904
2.226  62.248014
2.225  62.451766
2.224  62.715033
2.223  62.883081
2.222  63.026695
2.221  63.263413
2.220  63.399389
2.219  63.623106
2.218  63.794566
2.217  63.973252
2.216  64.095651
2.215  64.266044
2.214  64.327282
2.213  64.524513
2.212  64.632438
2.211  64.573676
2.210  64.786302
2.209  64.912350
2.208  65.070776
2.207  65.129802
2.206  65.172151
2.205  65.364963
2.204  65.450917
2.203  65.538858
2.202  65.555174
2.201  65.737502
2.200  65.828837
2.199  65.878936
2.198  65.834155
2.197  65.919257
2.196  66.059300
2.195  66.119716
2.194  66.090938
2.193  66.260582
2.192  66.272117
2.191  66.365223
2.190  66.345625
2.189  66.433661
2.188  66.515343
2.187  66.589403
2.186  66.544597
2.185  66.584281
2.184  66.668554
2.183  66.733737
2.182  66.760298
2.181  66.827341
2.180  66.771862
2.179  66.860177
2.178  66.760246
2.177  66.920963
2.176  66.913051
2.175  66.875406
2.174  66.867203
2.173  66.882192
2.172  66.892139
2.171  66.895103
2.170  66.884169
2.169  66.901695
2.168  66.929132
2.167  66.877421
2.166  66.907061
2.165  66.902064
2.164  66.894830
2.163  66.991809
2.162  66.937187
2.161  66.859274
2.160  66.828950
2.159  66.858232
2.158  66.754907
2.157  66.754902
2.156  66.766741
2.155  66.687980
2.154  66.644734
2.153  66.537103
2.152  66.540072
2.151  66.495257
2.150  66.353403
2.149  66.388303
2.148  66.275881
2.147  66.147366
2.146  66.044054
2.145  65.996128
2.144  65.832867
2.143  65.778120
2.142  65.661387
2.141  65.548423
2.140  65.424784
2.139  65.333998
2.138  65.284748
2.137  65.210367
2.136  65.044591
2.135  64.968244
2.134  64.848182
2.133  64.788887
2.132  64.696550
2.131  64.679438
2.130  64.685603
2.129  64.683725
2.128  64.643085
2.127  64.666895
2.126  64.676354
2.125  64.666909
2.124  64.669848
2.123  64.652193
2.122  64.662548
2.121  64.682964
2.120  64.593896
2.119  64.539216
2.118  64.466547
2.117  64.471615
2.116  64.404713
2.115  64.277184
2.114  64.197054
2.113  64.091091
2.112  64.072317
2.111  64.069135
2.110  63.970739
2.109  63.933020
2.108  63.906432
2.107  63.836798
2.106  63.828865
2.105  63.855473
2.104  63.773248
2.103  63.694230
2.102  63.675562
2.101  63.702486
2.100  63.681450
2.099  63.709589
2.098  63.721321
2.097  63.731773
2.096  63.657014
2.095  63.649211
2.094  63.720912
2.093  63.769993
2.092  63.833603
2.091  63.889534
2.090  63.906262
2.089  63.950693
2.088  64.035206
2.087  64.128231
2.086  64.166246
2.085  64.206600
2.084  64.313308
2.083  64.425481
2.082  64.544092
2.081  64.631227
2.080  64.715856
2.079  64.801039
2.078  64.793983
2.077  64.829130
2.076  64.920282
2.075  65.002647
2.074  65.081599
2.073  65.125690
2.072  65.127949
2.071  65.123166
2.070  65.163319
2.069  65.189858
2.068  65.189303
2.067  65.196792
2.066  65.152143
2.065  65.114202
2.064  65.101637
2.063  65.086858
2.062  65.031859
2.061  64.978526
2.060  64.993451
2.059  64.928085
2.058  64.901153
2.057  64.835305
2.056  64.796237
2.055  64.678920
2.054  64.558714
2.053  64.525529
2.052  64.484929
2.051  64.426245
2.050  64.364913
2.049  64.271425
2.048  64.176758
2.047  64.099061
2.046  64.035365
2.045  63.974518
2.044  63.902479
2.043  63.814739
2.042  63.805171
2.041  63.719313
2.040  63.650422
2.039  63.539305
2.038  63.496397
2.037  63.467865
2.036  63.369658
2.035  63.243047
2.034  63.255548
2.033  63.179084
2.032  63.075662
2.031  62.991908
2.030  62.964095
2.029  62.902156
2.028  62.815872
2.027  62.736607
2.026  62.642424
2.025  62.580663
2.024  62.538432
2.023  62.476676
2.022  62.448154
2.021  62.321383
2.020  62.271487
2.019  62.189911
2.018  62.173194
2.017  62.057820
2.016  61.965639
2.015  61.787417
2.014  61.785356
2.013  61.744093
2.012  61.649990
2.011  61.539311
2.010  61.488855
2.009  61.424650
2.008  61.355352
2.007  61.232469
2.006  61.137637
2.005  60.985847
2.004  60.946884
2.003  60.789056
2.002  60.712122
2.001  60.625132
2.000  60.534348
1.999  60.448877
1.998  60.365806
1.997  60.202903
1.996  60.160042
1.995  60.045679
1.994  59.928210
1.993  59.823103
1.992  59.726275
1.991  59.587627
1.990  59.586741
1.989  59.428983
1.988  59.283118
1.987  59.217116
1.986  59.203477
1.985  59.060827
1.984  59.040713
1.983  58.837291
1.982  58.792236
1.981  58.767362
1.980  58.719611
1.979  58.651730
1.978  58.719885
1.977  58.536557
1.976  58.488496
1.975  58.400411
1.974  58.410045
1.973  58.394881
1.972  58.270792
1.971  58.230809
1.970  58.274650
1.969  58.173235
1.968  58.232060
1.967  58.139550
1.966  58.151082
1.965  58.021173
1.964  58.029972
1.963  58.015975
1.962  58.049657
1.961  57.950876
1.960  57.981758
1.959  57.898309
1.958  57.856139
1.957  57.791554
1.956  57.867502
1.955  57.736026
1.954  57.821267
1.953  57.692819
1.952  57.814959
1.951  57.633615
1.950  57.675110
1.949  57.584279
1.948  57.632109
1.947  57.555184
1.946  57.546676
1.945  57.411645
1.944  57.398707
1.943  57.325152
1.942  57.323394
1.941  57.257088
1.940  57.289854
1.939  57.173623
1.938  57.127302
1.937  57.068557
1.936  57.023378
1.935  56.976813
1.934  56.935430
1.933  56.855933
1.932  56.878738
1.931  56.678503
1.930  56.847311
1.929  56.813447
1.928  56.784001
1.927  56.738116
1.926  56.709270
1.925  56.600071
1.924  56.701553
1.923  56.598323
1.922  56.651786
1.921  56.624433
1.920  56.754834
1.919  56.785878
1.918  56.862987
1.917  56.894376
1.916  56.862315
1.915  56.997836
1.914  57.222318
1.913  57.393998
1.912  57.501576
1.911  57.634445
1.910  57.878415
1.909  58.172270
1.908  58.388464
1.907  58.701073
1.906  59.070141
1.905  59.387853
1.904  59.793056
1.903  60.257281
1.902  60.659764
1.901  61.131782
1.900  61.498937
1.899  62.024496
1.898  62.477124
1.897  62.922949
1.896  63.366362
1.895  63.760828
1.894  64.321540
1.893  64.665000
1.892  65.113297
1.891  65.510808
1.890  65.924625
1.889  66.226818
1.888  66.741185
1.887  67.002864
1.886  67.366061
1.885  67.659966
1.884  67.997819
1.883  68.184994
1.882  68.584542
1.881  68.823332
1.880  69.103336
1.879  69.382301
1.878  69.697378
1.877  69.946968
1.876  70.236450
1.875  70.418910
1.874  70.650961
1.873  70.855278
1.872  71.097950
1.871  71.275440
1.870  71.522997
1.869  71.710620
1.868  71.819445
1.867  72.003059
1.866  72.141151
1.865  72.230002
1.864  72.348567
1.863  72.419019
1.862  72.469575
1.861  72.582701
1.860  72.593647
1.859  72.676896
1.858  72.793555
1.857  72.758530
1.856  72.840987
1.855  72.920041
1.854  73.024903
1.853  73.020196
1.852  73.086799
1.851  73.166900
1.850  73.215033
1.849  73.257520
1.848  73.284675
1.847  73.346457
1.846  73.368723
1.845  73.425563
1.844  73.515077
1.843  73.532196
1.842  73.566082
1.841  73.618229
1.840  73.709790
1.839  73.653484
1.838  73.661996
1.837  73.708818
1.836  73.803053
1.835  73.775535
1.834  73.797486
1.833  73.873883
1.832  73.944351
1.831  73.936063
1.830  73.960128
1.829  73.948553
1.828  73.989497
1.827  74.001927
1.826  74.027077
1.825  74.028070
1.824  74.026987
1.823  74.049133
1.822  74.066727
1.821  74.085483
1.820  74.057579
1.819  74.049552
1.818  74.157171
1.817  74.135468
1.816  74.121444
1.815  74.101049
1.814  74.124259
1.813  74.129895
1.812  74.132616
1.811  74.153641
1.810  74.177417
1.809  74.238180
1.808  74.232888
1.807  74.220550
1.806  74.246975
1.805  74.293252
1.804  74.295263
1.803  74.316222
1.802  74.322077
1.801  74.351599
1.800  74.449366
1.799  74.517534
1.798  74.540850
1.797  74.456535
1.796  74.460236
1.795  74.463390
1.794  74.453860
1.793  74.456874
1.792  74.511160
1.791  74.564144
1.790  74.533117
1.789  74.513400
1.788  74.526906
1.787  74.545442
1.786  74.581440
1.785  74.592139
1.784  74.577788
1.783  74.633379
1.782  74.696215
1.781  74.654869
1.780  74.656812
1.779  74.658872
1.778  74.645338
1.777  74.614091
1.776  74.597576
1.775  74.679814
1.774  74.731038
1.773  74.735844
1.772  74.686604
1.771  74.659423
1.770  74.697411
1.769  74.748212
1.768  74.772527
1.767  74.691200
1.766  74.687390
1.765  74.764402
1.764  74.795904
1.763  74.827277
1.762  74.814329
1.761  74.844164
1.760  74.854057
1.759  74.868314
1.758  74.879388
1.757  74.873791
1.756  74.891052
1.755  74.913447
1.754  74.954621
1.753  74.961452
1.752  74.934438
1.751  74.966930
1.750  75.084284
1.749  75.091642
1.748  75.049080
1.747  75.035256
1.746  75.080346
1.745  75.085116
1.744  75.054179
1.743  75.061941
1.742  75.120950
1.741  75.114447
1.740  75.163829
1.739  75.190437
1.738  75.205907
1.737  75.232155
1.736  75.237034
1.735  75.235994
1.734  75.171723
1.733  75.266533
1.732  75.300923
1.731  75.314575
1.730  75.313030
1.729  75.320874
1.728  75.373564
1.727  75.353995
1.726  75.306651
1.725  75.403123
1.724  75.465394
1.723  75.394305
1.722  75.388182
1.721  75.389820
1.720  75.358563
1.719  75.432584
1.718  75.377920
1.717  75.416253
1.716  75.516626
1.715  75.540908
1.714  75.514268
1.713  75.552533
1.712  75.558859
1.711  75.584977
1.710  75.573062
1.709  75.629427
1.708  75.519637
1.707  75.561893
1.706  75.641621
1.705  75.676841
1.704  75.628569
1.703  75.611869
1.702  75.594402
1.701  75.633162
1.700  75.628464
1.699  75.649281
1.698  75.663255
1.697  75.731933
1.696  75.805483
1.695  75.735467
1.694  75.750852
1.693  75.780320
1.692  75.777900
1.691  75.845726
1.690  75.769318
1.689  75.732082
1.688  75.766234
1.687  75.816631
1.686  75.802403
1.685  75.851447
1.684  75.816528
1.683  75.934484
1.682  75.940894
1.681  75.923782
1.680  75.882802
1.679  75.904221
1.678  75.892549
1.677  75.875309
1.676  75.907367
1.675  76.012679
1.674  75.909234
1.673  76.012741
1.672  75.912267
1.671  75.987974
1.670  76.080812
1.669  76.071563
1.668  76.008166
1.667  76.104266
1.666  76.069231
1.665  76.126554
1.664  76.097103
1.663  76.132089
1.662  76.116467
1.661  76.150039
1.660  76.088543
1.659  76.135453
1.658  76.127222
1.657  76.132878
1.656  76.008376
1.655  76.128985
1.654  76.178601
1.653  76.190923
1.652  76.133968
1.651  76.111297
1.650  76.192746
1.649  76.189889
1.648  76.221490
1.647  76.221175
1.646  76.176577
1.645  76.290463
1.644  76.244895
1.643  76.370377
1.642  76.321979
1.641  76.189017
1.640  76.347959
1.639  76.222861
1.638  76.309898
1.637  76.244203
1.636  76.316109
1.635  76.389563
1.634  76.298450
1.633  76.289368
1.632  76.256554
1.631  76.369544
1.630  76.328688
1.629  76.319112
1.628  76.323500
1.627  76.327118
1.626  76.288350
1.625  76.348943
1.624  76.277950
1.623  76.298636
1.622  76.257879
1.621  76.334563
1.620  76.355468
1.619  76.352666
1.618  76.322985
1.617  76.326542
1.616  76.398445
1.615  76.400019
1.614  76.388963
1.613  76.447260
1.612  76.368730
1.611  76.334901
1.610  76.321978
1.609  76.342199
1.608  76.343779
1.607  76.354557
1.606  76.326372
1.605  76.414992
1.604  76.338344
1.603  76.376600
1.602  76.386548
1.601  76.376305
1.600  76.418965
1.599  76.370682
1.598  76.381846
1.597  76.320679
1.596  76.333082
1.595  76.319500
1.594  76.424945
1.593  76.327682
1.592  76.325295
1.591  76.285006
1.590  76.325051
1.589  76.309661
1.588  76.329812
1.587  76.326914
1.586  76.224057
1.585  76.297684
1.584  76.322285
1.583  76.158373
1.582  76.151514
1.581  76.210611
1.580  76.160401
1.579  76.221145
1.578  76.194102
1.577  76.233779
1.576  76.247369
1.575  76.205904
1.574  76.144993
1.573  76.105785
1.572  76.088407
1.571  76.120258
1.570  76.138335
1.569  76.124672
1.568  76.090066
1.567  76.058864
1.566  76.034249
1.565  75.963213
1.564  76.007508
1.563  75.983942
1.562  75.983936
1.561  75.962140
1.560  75.949998
1.559  75.955746
1.558  75.826609
1.557  75.831984
1.556  75.838617
1.555  75.833247
1.554  75.784422
1.553  75.773673
1.552  75.702357
1.551  75.708138
1.550  75.701319
1.549  75.687964
1.548  75.656317
1.547  75.617782
1.546  75.587458
1.545  75.552200
1.544  75.558605
1.543  75.535690
1.542  75.517635
1.541  75.514038
1.540  75.495394
1.539  75.468623
1.538  75.374573
1.537  75.375354
1.536  75.348016
1.535  75.317939
1.534  75.300571
1.533  75.264644
1.532  75.206086
1.531  75.193918
1.530  75.137071
1.529  75.134706
1.528  75.153811
1.527  75.114120
1.526  75.038889
1.525  74.970250
1.524  75.025116
1.523  74.952512
1.522  74.848283
1.521  74.843708
1.520  74.855596
1.519  74.793147
1.518  74.726554
1.517  74.760403
1.516  74.738615
1.515  74.659977
1.514  74.601623
1.513  74.565569
1.512  74.549337
1.511  74.545026
1.510  74.520881
1.509  74.436756
1.508  74.356735
1.507  74.399863
1.506  74.362878
1.505  74.313639
1.504  74.257257
1.503  74.193766
1.502  74.222306
1.501  74.147437
1.500  74.084583
1.499  74.051686
1.498  74.004371
1.497  73.986555
1.496  73.940270
1.495  73.902056
1.494  73.843548
1.493  73.787248
1.492  73.741390
1.491  73.744617
1.490  73.680111
1.489  73.613238
1.488  73.617256
1.487  73.539697
1.486  73.485603
1.485  73.464213
1.484  73.387606
1.483  73.394421
1.482  73.404075
1.481  73.290791
1.480  73.235432
1.479  73.227418
1.478  73.184137
1.477  73.164400
1.476  73.135239
1.475  73.050539
1.474  73.007553
1.473  72.959794
1.472  72.926808
1.471  72.804966
1.470  72.755971
1.469  72.749216
1.468  72.733500
1.467  72.703609
1.466  72.685165
1.465  72.600719
1.464  72.543154
1.463  72.552809
1.462  72.595871
1.461  72.559955
1.460  72.489966
1.459  72.432794
1.458  72.391200
1.457  72.465119
1.456  72.439657
1.455  72.321538
1.454  72.348020
1.453  72.301053
1.452  72.291850
1.451  72.261098
1.450  72.237914
1.449  72.142976
1.448  72.106462
1.447  71.989788
1.446  71.973646
1.445  71.922395
1.444  71.909211
1.443  71.857229
1.442  71.856607
1.441  71.845770
1.440  71.897979
1.439  71.841100
1.438  71.785599
1.437  71.668860
1.436  71.675733
1.435  71.567615
1.434  71.514168
1.433  71.510851
1.432  71.519374
1.431  71.459481
1.430  71.476871
1.429  71.376315
1.428  71.321284
1.427  71.270845
1.426  71.282742
1.425  71.242143
1.424  71.239448
1.423  71.235282
1.422  71.191387
1.421  71.103955
