Name: Tourmaline Na(Mg_3,Fe_3^2+)Al_6(BO_3)_3Si_6O_18(OH)_4
Type: Mineral
Class: Silicates
Subclass: Cyclosilicates
Particle Size: 45-125um
Sample No.: CS-1A
Owner: JPL
Wavelength range: IR
Origin: USA, New York, Overlook
Collected by Ward's
Description: 





Measurement: Hemispherical reflectance
First Column: X
Second Column: Y
X Units:  Wavelength (micrometers)
Y Units:  Reflectance (percent)
First X Value: 15.3853
Last X Value: 2.00032
Number of X Values: 2256
Additional information: cs01aa.txt
 
15.3853	2.02155
15.3397	2.24528
15.2945	2.03743
15.2495	2.01483
15.2048	2.00996
15.1603	1.70521
15.1161	1.60439
15.0722	1.74398
15.0285	1.98019
14.9851	1.99076
14.9419	2.06016
14.8989	2.23674
14.8563	2.33769
14.8138	2.28962
14.7716	2.20399
14.7296	2.36039
14.6879	2.43297
14.6464	2.44844
14.6052	2.50129
14.5641	2.57125
14.5233	2.73232
14.4828	2.72126
14.4424	2.69516
14.4023	3.01271
14.3624	3.27727
14.3227	3.30543
14.2833	3.58828
14.244	4.06026
14.205	4.19353
14.1662	4.24806
14.1276	4.47127
14.0892	4.72291
14.051	4.82617
14.0131	4.74872
13.9753	4.42708
13.9377	4.01362
13.9004	3.61397
13.8632	3.09401
13.8262	2.76736
13.7895	2.61151
13.7529	2.15551
13.7165	2.01347
13.6803	2.08839
13.6443	1.94636
13.6085	1.71956
13.5729	1.69441
13.5374	1.8241
13.5022	1.89846
13.4671	1.8765
13.4322	1.79273
13.3975	1.93955
13.363	2.07445
13.3286	2.09671
13.2944	2.15295
13.2604	2.04427
13.2266	2.13991
13.193	2.4122
13.1595	2.43653
13.1262	2.3712
13.093	2.46238
13.06	2.47903
13.0272	2.82355
12.9946	3.27273
12.9621	3.47387
12.9298	3.43356
12.8976	3.51777
12.8656	3.73298
12.8337	3.92026
12.8021	3.98152
12.7705	3.984
12.7391	4.02502
12.7079	4.10627
12.6769	4.01217
12.6459	3.85971
12.6152	3.55656
12.5845	3.22035
12.5541	2.8449
12.5238	2.41611
12.4936	2.24092
12.4635	2.24141
12.4337	2.17621
12.4039	2.02992
12.3743	1.9082
12.3448	1.91132
12.3155	2.00862
12.2863	2.13166
12.2573	2.33428
12.2284	2.45553
12.1996	2.4195
12.171	2.45705
12.1425	2.45751
12.1141	2.49836
12.0859	2.72106
12.0578	2.86411
12.0298	2.82803
12.0019	2.79998
11.9742	2.89953
11.9466	3.1822
11.9192	3.1907
11.8918	2.98465
11.8646	2.99673
11.8375	3.20637
11.8106	3.30664
11.7837	3.30249
11.757	3.31664
11.7304	3.44806
11.7039	3.64054
11.6776	3.70515
11.6513	3.78769
11.6252	3.80991
11.5992	3.79908
11.5733	3.89415
11.5475	4.00049
11.5219	4.1119
11.4963	4.06516
11.4709	4.05744
11.4455	4.05706
11.4203	4.15707
11.3952	4.28467
11.3702	4.44374
11.3454	4.5662
11.3206	4.59111
11.2959	4.76401
11.2714	4.90625
11.2469	4.8398
11.2226	4.92699
11.1983	5.00191
11.1742	5.0309
11.1502	5.18409
11.1263	5.36698
11.1024	5.34714
11.0787	5.31801
11.0551	5.44089
11.0316	5.5693
11.0081	5.68671
10.9848	5.80432
10.9616	5.83151
10.9385	5.89311
10.9154	6.06289
10.8925	6.26201
10.8697	6.42823
10.8469	6.64286
10.8243	6.82242
10.8017	6.90591
10.7793	6.99542
10.7569	7.18003
10.7346	7.41032
10.7125	7.67143
10.6904	7.96048
10.6684	8.26274
10.6465	8.43578
10.6247	8.61283
10.6029	8.91115
10.5813	9.29423
10.5597	9.55913
10.5383	9.80823
10.5169	10.1372
10.4956	10.4623
10.4744	10.7384
10.4533	11.121
10.4323	11.6266
10.4113	11.908
10.3904	12.2035
10.3697	12.518
10.349	12.8969
10.3284	13.3132
10.3078	13.6868
10.2874	13.9136
10.267	14.1543
10.2467	14.4185
10.2265	14.6326
10.2064	14.865
10.1863	14.9642
10.1663	14.9844
10.1464	14.884
10.1266	14.7542
10.1069	14.6244
10.0872	14.4153
10.0676	14.2052
10.0481	14.0272
10.0287	13.6652
10.0093	13.3405
9.99005	12.8869
9.97084	12.4276
9.95169	12.1536
9.93263	11.7889
9.91364	11.3469
9.89472	11.2281
9.87587	11.2849
9.8571	11.3425
9.83839	11.3592
9.81976	11.403
9.80119	11.6038
9.78271	11.8276
9.76428	11.9672
9.74592	12.0996
9.72764	12.362
9.70943	12.466
9.69128	12.5107
9.6732	12.6998
9.65518	12.8812
9.63724	12.9628
9.61935	12.9703
9.60155	12.9985
9.5838	12.9658
9.56611	12.9387
9.5485	12.7952
9.53094	12.3736
9.51345	11.8565
9.49604	11.1654
9.47867	10.2818
9.46137	9.43186
9.44414	8.55055
9.42697	7.80493
9.40986	7.40353
9.39281	7.14619
9.37583	6.85545
9.35891	6.69974
9.34204	6.71985
9.32524	6.77317
9.3085	6.89479
9.29182	6.98474
9.27519	7.06174
9.25863	7.37855
9.24213	7.84646
9.22568	8.18178
9.2093	8.41487
9.19297	8.66081
9.17669	8.91748
9.16048	9.18336
9.14433	9.37497
9.12823	9.34031
9.11218	9.20084
9.0962	9.10576
9.08027	8.73934
9.06439	8.28034
9.04858	7.8127
9.03281	7.26082
9.0171	6.56163
9.00145	5.82076
8.98585	5.19671
8.9703	4.53602
8.9548	3.76576
8.93937	3.03435
8.92398	2.54686
8.90865	2.09077
8.89337	1.64415
8.87814	1.28441
8.86296	1.04605
8.84784	0.928233
8.83277	0.761244
8.81774	0.703529
8.80277	0.623246
8.78786	0.451326
8.77298	0.519382
8.75816	0.599078
8.7434	0.57048
8.72868	0.511858
8.714	0.59256
8.69938	0.658332
8.68481	0.740444
8.67029	0.912301
8.65581	0.886573
8.64139	0.89546
8.62701	1.0782
8.61268	1.11856
8.5984	1.21967
8.58416	1.2534
8.56997	1.21913
8.55583	1.35332
8.54174	1.45617
8.52769	1.49133
8.51368	1.41438
8.49973	1.48262
8.48582	1.61499
8.47195	1.75629
8.45813	1.87434
8.44436	1.94901
8.43062	2.03765
8.41693	2.09388
8.4033	2.13342
8.3897	2.20046
8.37614	2.36924
8.36264	2.46113
8.34917	2.53363
8.33574	2.58166
8.32236	2.77531
8.30903	2.99591
8.29573	3.08239
8.28248	3.10324
8.26927	3.14298
8.2561	3.37847
8.24298	3.72143
8.2299	3.89074
8.21685	3.9744
8.20385	4.11944
8.19089	4.38122
8.17797	4.45175
8.16509	4.4111
8.15225	4.6068
8.13946	4.87569
8.1267	5.01355
8.11398	5.1087
8.10131	5.20288
8.08867	5.25994
8.07606	5.40745
8.0635	5.52628
8.05099	5.58815
8.0385	5.52988
8.02606	5.55621
8.01366	5.67447
8.00129	5.65051
7.98896	5.70732
7.97667	5.81988
7.96442	5.9373
7.9522	6.06599
7.94002	6.12113
7.92788	6.09735
7.91578	6.03516
7.90371	6.00516
7.89168	6.0663
7.87969	6.09312
7.86773	5.98475
7.85581	5.96091
7.84392	5.90155
7.83207	5.76871
7.82026	5.73244
7.80849	5.78262
7.79674	5.72977
7.78503	5.57424
7.77337	5.46048
7.76173	5.5115
7.75012	5.4281
7.73856	5.22518
7.72703	5.1138
7.71553	5.16582
7.70406	5.06608
7.69263	4.85484
7.68123	4.71564
7.66987	4.68548
7.65855	4.69388
7.64725	4.59692
7.63598	4.46301
7.62475	4.27937
7.61356	4.12331
7.60239	4.03739
7.59126	3.95298
7.58017	3.8631
7.5691	3.70416
7.55806	3.49299
7.54707	3.36003
7.5361	3.32883
7.52516	3.32719
7.51425	3.21528
7.50338	3.19079
7.49253	3.20851
7.48172	3.21109
7.47094	3.31797
7.46019	3.37715
7.44947	3.4392
7.43879	3.60665
7.42813	3.79808
7.4175	3.84262
7.4069	3.78266
7.39634	3.76409
7.3858	3.74445
7.37529	3.7097
7.36482	3.64069
7.35437	3.5375
7.34396	3.45046
7.33357	3.33381
7.32321	3.22743
7.31288	3.1551
7.30258	3.0449
7.29231	2.84466
7.28207	2.67565
7.27185	2.50572
7.26167	2.24454
7.25152	2.10457
7.24139	1.97604
7.23129	1.7058
7.22122	1.5026
7.21117	1.44575
7.20116	1.34344
7.19117	1.17516
7.18121	1.08971
7.17128	0.924922
7.16137	0.755255
7.1515	0.620135
7.14164	0.520854
7.13182	0.493796
7.12203	0.526226
7.11225	0.518849
7.10251	0.52102
7.0928	0.602279
7.08311	0.665641
7.07344	0.658833
7.06381	0.542975
7.0542	0.370024
7.04461	0.350673
7.03506	0.330079
7.02552	0.420239
7.01601	0.550014
7.00653	0.549816
6.99708	0.447284
6.98765	0.323278
6.97824	0.365059
6.96886	0.525329
6.95951	0.618627
6.95018	0.634452
6.94087	0.56456
6.9316	0.609657
6.92234	0.710031
6.91311	0.759792
6.90391	0.771528
6.89473	0.77855
6.88557	0.821648
6.87644	0.799192
6.86733	0.80022
6.85824	0.965033
6.84918	1.06219
6.84015	1.1043
6.83114	1.13579
6.82215	1.14433
6.81319	1.15676
6.80424	1.10361
6.79532	1.21208
6.78643	1.31698
6.77756	1.30715
6.76871	1.37604
6.75989	1.40079
6.75109	1.44079
6.74231	1.46375
6.73355	1.53141
6.72482	1.56658
6.71611	1.64009
6.70742	1.65747
6.69875	1.70157
6.69011	1.83242
6.68149	1.94485
6.67289	2.02856
6.66431	2.0655
6.65576	2.07323
6.64722	2.15773
6.63871	2.30071
6.63022	2.30142
6.62175	2.25476
6.61331	2.24744
6.60488	2.37119
6.59648	2.39921
6.5881	2.34788
6.57974	2.51466
6.5714	2.67974
6.56308	2.69259
6.55478	2.70632
6.54651	2.71696
6.53825	2.71908
6.53001	2.84759
6.5218	2.98721
6.51361	2.98625
6.50544	3.06771
6.49729	3.30018
6.48915	3.37841
6.48104	3.30379
6.47295	3.27027
6.46488	3.31498
6.45683	3.36354
6.4488	3.36884
6.44079	3.47001
6.4328	3.56764
6.42482	3.63297
6.41687	3.87627
6.40894	3.91644
6.40103	3.75574
6.39314	3.67799
6.38526	3.75686
6.37741	3.90831
6.36957	3.93119
6.36176	3.88071
6.35396	3.93058
6.34618	4.05871
6.33843	4.08858
6.33069	4.06362
6.32297	4.07796
6.31527	4.13402
6.30758	4.13726
6.29992	4.12379
6.29227	4.24591
6.28465	4.34079
6.27704	4.30822
6.26945	4.23107
6.26188	4.23703
6.25432	4.24556
6.24679	4.20687
6.23927	4.24329
6.23177	4.21828
6.22429	4.22948
6.21683	4.3097
6.20938	4.33693
6.20195	4.31522
6.19454	4.37011
6.18715	4.4786
6.17978	4.43402
6.17242	4.37406
6.16508	4.41909
6.15776	4.46131
6.15045	4.36833
6.14317	4.33128
6.1359	4.32404
6.12864	4.3571
6.12141	4.49172
6.11419	4.55935
6.10699	4.48507
6.0998	4.47252
6.09263	4.44083
6.08549	4.5036
6.07835	4.63108
6.07123	4.60076
6.06413	4.43077
6.05705	4.53293
6.04998	4.81158
6.04293	4.63696
6.0359	4.46249
6.02888	4.47255
6.02187	4.59085
6.01489	4.63749
6.00792	4.60687
6.00096	4.59707
5.99403	4.74989
5.98711	4.92889
5.9802	4.85483
5.97331	4.83229
5.96644	4.97485
5.95958	4.97575
5.95274	4.97128
5.94591	5.04253
5.9391	5.16236
5.9323	5.12557
5.92552	5.02908
5.91876	5.05184
5.91201	5.12053
5.90528	5.26957
5.89856	5.52258
5.89186	5.53671
5.88517	5.63253
5.8785	5.70215
5.87184	5.58935
5.8652	5.66439
5.85857	5.69258
5.85196	5.70312
5.84536	5.72041
5.83878	5.81847
5.83221	5.9389
5.82566	6.0506
5.81912	6.08756
5.81259	6.01406
5.80608	5.96288
5.79959	6.01292
5.79311	6.05788
5.78665	6.08464
5.78019	6.25081
5.77376	6.43229
5.76734	6.54108
5.76093	6.50776
5.75453	6.42627
5.74815	6.41282
5.74179	6.44701
5.73543	6.45623
5.7291	6.41437
5.72277	6.48751
5.71646	6.62486
5.71017	6.65716
5.70389	6.53727
5.69762	6.44358
5.69136	6.37458
5.68513	6.35668
5.6789	6.47684
5.67268	6.56041
5.66648	6.44353
5.6603	6.40308
5.65413	6.4532
5.64797	6.49891
5.64182	6.49053
5.63569	6.33525
5.62957	6.26878
5.62347	6.24511
5.61737	6.20759
5.61129	6.17262
5.60522	6.19535
5.59917	6.16178
5.59313	6.08464
5.5871	6.09141
5.58109	6.168
5.57509	6.20237
5.5691	6.14042
5.56312	6.14662
5.55716	6.23433
5.55121	6.31993
5.54528	6.29955
5.53935	6.29045
5.53344	6.37654
5.52754	6.47353
5.52166	6.58924
5.51578	6.68549
5.50992	6.83177
5.50407	6.97672
5.49823	7.04807
5.49241	7.16393
5.4866	7.34327
5.4808	7.51869
5.47501	7.58698
5.46923	7.69538
5.46347	7.92177
5.45772	8.09275
5.45198	8.18585
5.44625	8.24835
5.44054	8.371
5.43484	8.55534
5.42914	8.66731
5.42347	8.80443
5.4178	8.79684
5.41214	8.82765
5.4065	8.91316
5.40087	8.94127
5.39525	9.04243
5.38964	9.17478
5.38404	9.2368
5.37846	9.20404
5.37288	9.30305
5.36732	9.42963
5.36177	9.54481
5.35623	9.60897
5.35071	9.59318
5.34519	9.55055
5.33968	9.55831
5.33419	9.69088
5.32871	9.81155
5.32324	9.78274
5.31778	9.71632
5.31233	9.69278
5.30689	9.70469
5.30147	9.75707
5.29605	9.75379
5.29065	9.7459
5.28525	9.75572
5.27987	9.80031
5.2745	9.78769
5.26914	9.73041
5.26379	9.61399
5.25845	9.60174
5.25312	9.63557
5.24781	9.63728
5.2425	9.6282
5.23721	9.59004
5.23192	9.52459
5.22665	9.46822
5.22138	9.45975
5.21613	9.57023
5.21089	9.54548
5.20566	9.45408
5.20044	9.423
5.19522	9.42167
5.19002	9.39379
5.18483	9.37497
5.17965	9.35473
5.17448	9.33006
5.16933	9.28409
5.16418	9.24088
5.15904	9.25726
5.15391	9.20604
5.14879	9.14005
5.14368	9.14632
5.13859	9.12006
5.1335	9.11084
5.12842	9.07904
5.12335	9.07557
5.1183	9.10216
5.11325	9.08814
5.10821	9.07759
5.10318	9.13556
5.09817	9.15118
5.09316	9.09267
5.08816	9.0802
5.08317	9.15215
5.07819	9.17961
5.07322	9.15517
5.06826	9.20416
5.06331	9.25737
5.05837	9.29096
5.05344	9.32467
5.04852	9.35678
5.04361	9.38791
5.03871	9.47557
5.03382	9.56638
5.02894	9.62772
5.02406	9.60524
5.0192	9.53723
5.01435	9.52486
5.0095	9.61689
5.00467	9.66268
4.99984	9.69874
4.99502	9.7256
4.99021	9.7948
4.98542	9.95531
4.98063	10.0548
4.97585	10.0289
4.97108	9.99993
4.96632	10.0829
4.96156	10.191
4.95682	10.2447
4.95209	10.2564
4.94736	10.3509
4.94264	10.4732
4.93794	10.5846
4.93324	10.5632
4.92855	10.5052
4.92387	10.5917
4.9192	10.712
4.91453	10.8247
4.90988	10.9861
4.90524	11.1016
4.9006	11.1708
4.89597	11.2232
4.89135	11.2214
4.88674	11.2886
4.88214	11.4827
4.87755	11.6169
4.87296	11.6798
4.86839	11.7564
4.86382	11.9028
4.85926	12.0594
4.85471	12.2155
4.85017	12.3358
4.84564	12.3965
4.84111	12.5324
4.8366	12.7746
4.83209	12.8528
4.82759	12.8498
4.8231	12.9744
4.81862	13.1088
4.81415	13.263
4.80968	13.4163
4.80522	13.5126
4.80077	13.5454
4.79633	13.6822
4.7919	13.8717
4.78747	14.0179
4.78306	14.162
4.77865	14.343
4.77425	14.5534
4.76986	14.7457
4.76547	14.9084
4.7611	14.9696
4.75673	15.0598
4.75237	15.2314
4.74802	15.3762
4.74367	15.4554
4.73934	15.5668
4.73501	15.7666
4.73069	15.9137
4.72638	16.019
4.72207	16.1379
4.71777	16.1862
4.71348	16.2344
4.7092	16.3593
4.70493	16.4937
4.70066	16.5668
4.69641	16.6489
4.69216	16.7057
4.68791	16.7552
4.68368	16.8577
4.67945	16.9386
4.67523	17.0035
4.67102	17.144
4.66682	17.1999
4.66262	17.1774
4.65843	17.1971
4.65425	17.2472
4.65007	17.2688
4.64591	17.249
4.64175	17.2107
4.6376	17.1392
4.63345	17.0657
4.62932	17.0131
4.62519	16.996
4.62106	16.9611
4.61695	16.7903
4.61284	16.6244
4.60874	16.5601
4.60465	16.4794
4.60056	16.3083
4.59648	16.1009
4.59241	15.9208
4.58835	15.7678
4.58429	15.6244
4.58024	15.4416
4.5762	15.2037
4.57216	14.9343
4.56814	14.7455
4.56411	14.6481
4.5601	14.5489
4.55609	14.3563
4.55209	14.1292
4.5481	13.9162
4.54411	13.721
4.54013	13.5443
4.53616	13.45
4.5322	13.3025
4.52824	13.0873
4.52429	12.9413
4.52034	12.7574
4.51641	12.639
4.51247	12.513
4.50855	12.3955
4.50463	12.2912
4.50072	12.146
4.49682	12.0627
4.49292	11.9944
4.48903	11.8604
4.48515	11.7954
4.48127	11.7223
4.4774	11.5724
4.47354	11.5002
4.46968	11.4598
4.46584	11.4116
4.46199	11.3374
4.45815	11.3349
4.45432	11.2924
4.4505	11.2151
4.44668	11.1546
4.44287	11.1794
4.43907	11.1753
4.43527	11.14
4.43148	11.1186
4.4277	11.1047
4.42392	11.1022
4.42015	11.0269
4.41638	11.0332
4.41262	11.0108
4.40887	11.0337
4.40513	11.0474
4.40139	11.0475
4.39765	11.0876
4.39393	11.1412
4.39021	11.2297
4.38649	11.2398
4.38278	11.2204
4.37908	11.2362
4.37539	11.2229
4.3717	11.276
4.36801	11.35
4.36434	11.3865
4.36067	11.3842
4.357	11.4595
4.35335	11.5753
4.34969	11.641
4.34605	11.663
4.34241	11.7251
4.33877	11.8344
4.33514	11.9073
4.33152	11.9304
4.32791	11.9776
4.3243	12.048
4.32069	12.1563
4.3171	12.2765
4.31351	12.3995
4.30992	12.4712
4.30634	12.5528
4.30277	12.6862
4.2992	12.8813
4.29564	13.0232
4.29208	13.095
4.28853	13.1782
4.28499	13.26
4.28145	13.3551
4.27792	13.4377
4.27439	13.5765
4.27087	13.6624
4.26735	13.745
4.26384	13.907
4.26034	14.0164
4.25684	14.0363
4.25335	14.182
4.24986	14.4089
4.24638	14.6128
4.24291	14.7896
4.23944	14.9717
4.23598	15.1028
4.23252	15.266
4.22906	15.4297
4.22562	15.5889
4.22218	15.7641
4.21874	15.8925
4.21531	15.9624
4.21189	16.0976
4.20847	16.2598
4.20506	16.3936
4.20165	16.5058
4.19825	16.6934
4.19485	16.8547
4.19146	16.9905
4.18807	17.2786
4.18469	17.5833
4.18132	17.7631
4.17795	17.9584
4.17458	18.1795
4.17123	18.3902
4.16787	18.6387
4.16453	18.8421
4.16118	19.0497
4.15785	19.2785
4.15451	19.5057
4.15119	19.6772
4.14787	19.8891
4.14455	20.1042
4.14124	20.3085
4.13794	20.5317
4.13464	20.7218
4.13134	20.8872
4.12805	21.1023
4.12477	21.3555
4.12149	21.5458
4.11822	21.6753
4.11495	21.8061
4.11168	21.8941
4.10843	22.0226
4.10517	22.1587
4.10192	22.3116
4.09868	22.3594
4.09545	22.388
4.09221	22.4539
4.08899	22.5236
4.08576	22.559
4.08255	22.5558
4.07933	22.5576
4.07613	22.5742
4.07292	22.556
4.06973	22.5458
4.06654	22.5093
4.06335	22.4483
4.06017	22.4648
4.05699	22.4723
4.05382	22.3304
4.05065	22.2518
4.04749	22.2497
4.04433	22.2394
4.04118	22.1699
4.03803	22.0722
4.03489	22.0259
4.03175	22.0424
4.02862	21.9752
4.02549	21.8331
4.02237	21.7239
4.01925	21.741
4.01614	21.7195
4.01303	21.6453
4.00993	21.6703
4.00683	21.6066
4.00373	21.488
4.00064	21.38
3.99756	21.2904
3.99448	21.2394
3.9914	21.1796
3.98833	21.0946
3.98527	21.025
3.98221	20.8887
3.97915	20.7397
3.9761	20.7213
3.97305	20.6344
3.97001	20.4461
3.96697	20.3082
3.96394	20.2041
3.96091	20.1019
3.95789	19.9398
3.95487	19.7564
3.95186	19.5462
3.94885	19.3497
3.94584	19.1793
3.94284	19.0357
3.93984	18.8609
3.93685	18.5917
3.93386	18.3268
3.93088	18.1419
3.9279	17.9984
3.92493	17.7535
3.92196	17.4456
3.919	17.2755
3.91604	17.1038
3.91308	16.8555
3.91013	16.6087
3.90718	16.3349
3.90424	16.0957
3.9013	15.8647
3.89837	15.5971
3.89544	15.3822
3.89252	15.1523
3.8896	14.8624
3.88668	14.6692
3.88377	14.4837
3.88086	14.1968
3.87796	13.9844
3.87506	13.7602
3.87217	13.5611
3.86928	13.3917
3.86639	13.1917
3.86351	12.9754
3.86064	12.8912
3.85776	12.7639
3.8549	12.5283
3.85203	12.3466
3.84917	12.2308
3.84631	12.172
3.84346	12.1232
3.84062	12.1195
3.83777	12.1005
3.83494	12.1191
3.8321	12.1467
3.82927	12.1093
3.82644	12.1761
3.82362	12.2106
3.82081	12.2545
3.81799	12.3946
3.81518	12.5161
3.81238	12.5898
3.80958	12.7926
3.80678	13.0304
3.80399	13.1236
3.8012	13.201
3.79841	13.4604
3.79563	13.6897
3.79286	13.853
3.79008	14.0759
3.78731	14.218
3.78455	14.3846
3.78179	14.5972
3.77903	14.8061
3.77628	14.9082
3.77353	15.018
3.77079	15.1727
3.76805	15.2847
3.76531	15.4533
3.76258	15.5922
3.75985	15.6885
3.75713	15.7724
3.7544	15.7511
3.75169	15.8305
3.74898	15.9724
3.74627	16.0424
3.74356	16.0776
3.74086	16.2302
3.73816	16.2844
3.73547	16.2126
3.73278	16.1407
3.7301	16.1695
3.72741	16.2001
3.72474	16.1734
3.72206	16.1714
3.71939	16.2194
3.71673	16.3293
3.71406	16.4128
3.71141	16.4207
3.70875	16.4552
3.7061	16.5439
3.70345	16.6368
3.70081	16.7729
3.69817	16.7893
3.69553	16.8058
3.6929	16.8227
3.69027	16.9097
3.68765	17.0779
3.68503	17.2186
3.68241	17.3704
3.6798	17.4882
3.67719	17.5787
3.67458	17.715
3.67198	17.8569
3.66938	18.0475
3.66678	18.2968
3.66419	18.4837
3.66161	18.6605
3.65902	18.8811
3.65644	19.1472
3.65387	19.3626
3.65129	19.5497
3.64872	19.7882
3.64616	20.0619
3.64359	20.2749
3.64103	20.5224
3.63848	20.7225
3.63593	20.9185
3.63338	21.2233
3.63084	21.5566
3.6283	21.7784
3.62576	21.9987
3.62322	22.22
3.62069	22.4567
3.61817	22.6761
3.61564	22.9305
3.61312	23.1342
3.61061	23.2872
3.6081	23.4493
3.60559	23.7109
3.60308	23.9634
3.60058	24.1421
3.59808	24.2029
3.59558	24.3646
3.59309	24.5267
3.59061	24.6303
3.58812	24.7631
3.58564	24.9003
3.58316	25.0214
3.58069	25.0899
3.57822	25.1765
3.57575	25.3064
3.57328	25.3997
3.57082	25.4394
3.56836	25.5494
3.56591	25.5809
3.56346	25.6114
3.56101	25.6299
3.55857	25.6737
3.55613	25.8043
3.55369	25.8978
3.55126	25.9181
3.54883	26.0222
3.5464	26.1519
3.54397	26.1696
3.54155	26.2058
3.53914	26.2868
3.53672	26.3617
3.53431	26.4138
3.5319	26.4392
3.5295	26.5294
3.5271	26.718
3.5247	26.8761
3.52231	26.9177
3.51991	26.9775
3.51753	27.0813
3.51514	27.2155
3.51276	27.2646
3.51038	27.2879
3.50801	27.3882
3.50563	27.3923
3.50327	27.5262
3.5009	27.6488
3.49854	27.6566
3.49618	27.6983
3.49382	27.6758
3.49147	27.7704
3.48912	27.8579
3.48677	27.861
3.48443	27.881
3.48209	27.9857
3.47975	28.027
3.47742	28.0198
3.47509	28.049
