Name: Zircon ZrSiO_4
Type: Mineral
Class: Silicates
Subclass: Nesosilicates
Particle Size: 45-125um
Sample No.: NS-9A
Owner: JPL
Wavelength range: VNIR-SWIR
Origin: Malawi, Southern Malawi, Blantyre-Limbe District.
Collected by:  Burminco
Description: 





Measurement: Hemispherical reflectance
First Column: X
Second Column: Y
X Units: Wavelength (micrometers)
Y Units: Reflectance (percent)
First X Value: 2.500
Last X Value: 0.400
Number of X Values: 2101
Additional information: ns09aa.txt

2.500  69.444900
2.499  69.239415
2.498  69.303018
2.497  69.595772
2.496  69.316259
2.495  69.675920
2.494  69.499499
2.493  69.656334
2.492  69.610742
2.491  69.656577
2.490  69.842288
2.489  69.803976
2.488  69.766550
2.487  69.911591
2.486  69.877163
2.485  70.007242
2.484  69.972522
2.483  70.138325
2.482  69.861112
2.481  70.007846
2.480  70.051890
2.479  70.169816
2.478  70.177763
2.477  70.197631
2.476  70.197933
2.475  70.354950
2.474  70.097077
2.473  70.478193
2.472  70.396868
2.471  70.380864
2.470  70.345474
2.469  70.392774
2.468  70.511397
2.467  70.419534
2.466  70.621804
2.465  70.783576
2.464  70.679411
2.463  70.718959
2.462  70.724382
2.461  70.751343
2.460  70.812837
2.459  70.697762
2.458  70.733480
2.457  70.870043
2.456  70.962940
2.455  71.077081
2.454  71.013171
2.453  71.007962
2.452  70.902075
2.451  71.180039
2.450  71.020316
2.449  71.070955
2.448  71.154082
2.447  71.248982
2.446  71.112060
2.445  71.199939
2.444  71.255778
2.443  71.346828
2.442  71.335370
2.441  71.222475
2.440  71.318501
2.439  71.363464
2.438  71.443608
2.437  71.408039
2.436  71.394280
2.435  71.500214
2.434  71.451332
2.433  71.565398
2.432  71.580733
2.431  71.534825
2.430  71.517632
2.429  71.613946
2.428  71.647712
2.427  71.705596
2.426  71.669549
2.425  71.625322
2.424  71.607945
2.423  71.689263
2.422  71.696195
2.421  71.727251
2.420  71.789647
2.419  71.697455
2.418  71.776834
2.417  71.791226
2.416  71.793780
2.415  71.739263
2.414  71.748647
2.413  71.854286
2.412  71.852621
2.411  71.840087
2.410  71.865890
2.409  71.822979
2.408  71.802373
2.407  71.788263
2.406  71.853668
2.405  71.890977
2.404  71.863310
2.403  71.903180
2.402  71.962947
2.401  71.876805
2.400  71.853446
2.399  71.841605
2.398  71.812778
2.397  71.846202
2.396  71.860008
2.395  71.870911
2.394  71.954310
2.393  71.905673
2.392  71.888504
2.391  71.980838
2.390  71.867741
2.389  71.876033
2.388  71.956182
2.387  71.957019
2.386  71.919765
2.385  71.954269
2.384  72.017379
2.383  71.994395
2.382  71.936676
2.381  71.978490
2.380  72.011787
2.379  72.012179
2.378  72.059673
2.377  72.060761
2.376  72.086782
2.375  72.137175
2.374  72.176645
2.373  72.214045
2.372  72.245305
2.371  72.266854
2.370  72.274885
2.369  72.326675
2.368  72.338537
2.367  72.335315
2.366  72.344137
2.365  72.360220
2.364  72.383714
2.363  72.446944
2.362  72.462697
2.361  72.468425
2.360  72.489043
2.359  72.450964
2.358  72.468329
2.357  72.552722
2.356  72.662182
2.355  72.616060
2.354  72.576067
2.353  72.669898
2.352  72.702179
2.351  72.705404
2.350  72.733520
2.349  72.734979
2.348  72.766061
2.347  72.813548
2.346  72.854587
2.345  72.785197
2.344  72.771437
2.343  72.800033
2.342  72.840334
2.341  72.870919
2.340  72.899520
2.339  72.874632
2.338  72.860899
2.337  72.888430
2.336  72.901271
2.335  72.908011
2.334  72.957810
2.333  72.968495
2.332  72.926859
2.331  72.881856
2.330  72.905945
2.329  72.968171
2.328  73.002975
2.327  72.921347
2.326  72.965349
2.325  72.986114
2.324  72.927441
2.323  72.932152
2.322  72.894436
2.321  72.874748
2.320  72.964785
2.319  72.909663
2.318  72.918788
2.317  72.989994
2.316  72.954707
2.315  72.879883
2.314  72.881686
2.313  72.880919
2.312  72.881910
2.311  72.871869
2.310  72.922928
2.309  72.951259
2.308  72.924020
2.307  72.912889
2.306  72.900415
2.305  72.918354
2.304  72.997671
2.303  72.943171
2.302  72.931484
2.301  72.956819
2.300  73.017496
2.299  72.968212
2.298  72.915135
2.297  72.917513
2.296  72.925180
2.295  72.966226
2.294  72.960989
2.293  72.857475
2.292  72.898407
2.291  72.935220
2.290  72.915352
2.289  72.900781
2.288  72.914959
2.287  72.944780
2.286  72.955519
2.285  72.864262
2.284  72.950243
2.283  72.896553
2.282  72.909692
2.281  72.916225
2.280  72.876381
2.279  72.885650
2.278  72.899949
2.277  72.939606
2.276  72.932428
2.275  72.894334
2.274  72.898507
2.273  72.841267
2.272  72.851536
2.271  72.878815
2.270  72.894759
2.269  72.907610
2.268  72.874521
2.267  72.910950
2.266  72.864987
2.265  72.821195
2.264  72.775863
2.263  72.765532
2.262  72.814456
2.261  72.774057
2.260  72.795959
2.259  72.820219
2.258  72.787135
2.257  72.760086
2.256  72.760530
2.255  72.808896
2.254  72.815226
2.253  72.710238
2.252  72.772043
2.251  72.753838
2.250  72.854673
2.249  72.787191
2.248  72.784701
2.247  72.716349
2.246  72.825942
2.245  72.764386
2.244  72.802742
2.243  72.816949
2.242  72.856373
2.241  72.889094
2.240  72.820132
2.239  72.889252
2.238  72.934788
2.237  72.894490
2.236  73.022701
2.235  72.918368
2.234  72.917669
2.233  72.985066
2.232  73.050149
2.231  72.950440
2.230  73.048695
2.229  73.065700
2.228  73.058508
2.227  73.145948
2.226  73.120844
2.225  73.130465
2.224  73.135894
2.223  73.135279
2.222  72.492122
2.221  73.037626
2.220  73.104761
2.219  72.992812
2.218  73.009091
2.217  72.925309
2.216  72.969896
2.215  72.857614
2.214  72.839644
2.213  72.767509
2.212  72.859843
2.211  72.755211
2.210  72.785810
2.209  72.769017
2.208  72.784903
2.207  72.761642
2.206  72.783915
2.205  72.742447
2.204  72.825421
2.203  72.809203
2.202  72.929026
2.201  72.907089
2.200  73.043323
2.199  72.960482
2.198  73.081453
2.197  73.055641
2.196  73.143846
2.195  73.154683
2.194  73.138489
2.193  73.105733
2.192  73.153201
2.191  73.160563
2.190  73.252108
2.189  73.211660
2.188  73.222574
2.187  73.201081
2.186  73.278383
2.185  73.239898
2.184  73.242818
2.183  73.299760
2.182  73.387543
2.181  73.295382
2.180  73.384653
2.179  73.366669
2.178  73.427829
2.177  73.358769
2.176  73.470714
2.175  73.501275
2.174  73.488416
2.173  73.507468
2.172  73.553191
2.171  73.515200
2.170  73.558686
2.169  73.573429
2.168  73.521408
2.167  73.652049
2.166  73.634567
2.165  73.650549
2.164  73.782618
2.163  73.711271
2.162  73.731386
2.161  73.799179
2.160  73.788212
2.159  73.845213
2.158  73.898363
2.157  73.875760
2.156  73.859278
2.155  73.937628
2.154  73.883535
2.153  73.912457
2.152  73.977977
2.151  74.009923
2.150  74.055747
2.149  74.121906
2.148  74.133319
2.147  74.086549
2.146  74.156725
2.145  74.116677
2.144  74.189398
2.143  74.157264
2.142  74.177202
2.141  74.206868
2.140  74.144377
2.139  74.124966
2.138  74.161343
2.137  74.091392
2.136  74.080367
2.135  74.101319
2.134  74.080394
2.133  74.065921
2.132  73.995044
2.131  73.927704
2.130  73.873796
2.129  73.809576
2.128  73.825081
2.127  73.702218
2.126  73.722935
2.125  73.689322
2.124  73.670049
2.123  73.598744
2.122  73.480174
2.121  73.410865
2.120  73.397468
2.119  73.312101
2.118  73.272245
2.117  73.159465
2.116  73.082633
2.115  72.943399
2.114  72.943603
2.113  72.855635
2.112  72.848892
2.111  72.673027
2.110  72.563230
2.109  72.560894
2.108  72.473063
2.107  72.369400
2.106  72.299586
2.105  72.213828
2.104  72.183323
2.103  72.039026
2.102  71.942907
2.101  71.847532
2.100  71.772455
2.099  71.706874
2.098  71.652696
2.097  71.576806
2.096  71.477659
2.095  71.459473
2.094  71.422691
2.093  71.314192
2.092  71.221386
2.091  71.164124
2.090  71.138733
2.089  71.070602
2.088  71.004785
2.087  70.896656
2.086  70.830510
2.085  70.816340
2.084  70.786637
2.083  70.706075
2.082  70.659948
2.081  70.637756
2.080  70.526880
2.079  70.491267
2.078  70.491309
2.077  70.413226
2.076  70.434165
2.075  70.407192
2.074  70.373941
2.073  70.340172
2.072  70.330231
2.071  70.399814
2.070  70.422385
2.069  70.398646
2.068  70.431957
2.067  70.535448
2.066  70.597138
2.065  70.657033
2.064  70.714723
2.063  70.777381
2.062  70.886801
2.061  70.954564
2.060  71.072212
2.059  71.158742
2.058  71.207481
2.057  71.297713
2.056  71.421482
2.055  71.599377
2.054  71.690468
2.053  71.763971
2.052  71.910813
2.051  72.024574
2.050  72.094634
2.049  72.175595
2.048  72.262616
2.047  72.401045
2.046  72.493491
2.045  72.573156
2.044  72.647148
2.043  72.680401
2.042  72.723157
2.041  72.867034
2.040  72.986653
2.039  73.035684
2.038  73.119883
2.037  73.143653
2.036  73.175408
2.035  73.243988
2.034  73.363413
2.033  73.404610
2.032  73.475861
2.031  73.490799
2.030  73.549304
2.029  73.669161
2.028  73.637498
2.027  73.665418
2.026  73.706789
2.025  73.821305
2.024  73.822737
2.023  73.837659
2.022  73.889309
2.021  73.960673
2.020  73.968433
2.019  74.024701
2.018  74.082911
2.017  74.110444
2.016  74.131141
2.015  74.161990
2.014  74.118148
2.013  74.209462
2.012  74.204399
2.011  74.214818
2.010  74.280079
2.009  74.356167
2.008  74.366259
2.007  74.403540
2.006  74.411116
2.005  74.445136
2.004  74.458196
2.003  74.471462
2.002  74.494941
2.001  74.538158
2.000  74.539013
1.999  74.589902
1.998  74.538501
1.997  74.592094
1.996  74.544615
1.995  74.563129
1.994  74.586262
1.993  74.590125
1.992  74.573209
1.991  74.548814
1.990  74.608380
1.989  74.564289
1.988  74.525791
1.987  74.533108
1.986  74.595875
1.985  74.565266
1.984  74.572386
1.983  74.501889
1.982  74.495999
1.981  74.539716
1.980  74.534421
1.979  74.580306
1.978  74.453931
1.977  74.582366
1.976  74.571379
1.975  74.552984
1.974  74.494733
1.973  74.447961
1.972  74.545850
1.971  74.548267
1.970  74.499894
1.969  74.561135
1.968  74.512670
1.967  74.490288
1.966  74.495399
1.965  74.525597
1.964  74.525025
1.963  74.568671
1.962  74.535585
1.961  74.582900
1.960  74.509536
1.959  74.558195
1.958  74.529075
1.957  74.539052
1.956  74.503699
1.955  74.606755
1.954  74.530568
1.953  74.516105
1.952  74.534721
1.951  74.576230
1.950  74.516361
1.949  74.544151
1.948  74.500206
1.947  74.635920
1.946  74.473017
1.945  74.486664
1.944  74.588034
1.943  74.618942
1.942  74.454580
1.941  74.567310
1.940  74.593599
1.939  74.600861
1.938  74.534668
1.937  74.638716
1.936  74.551828
1.935  74.505962
1.934  74.630379
1.933  74.584787
1.932  74.680732
1.931  74.704668
1.930  74.743832
1.929  74.652565
1.928  74.771134
1.927  74.758986
1.926  74.719150
1.925  74.700702
1.924  74.659600
1.923  74.858525
1.922  74.793377
1.921  74.822706
1.920  74.767521
1.919  74.848420
1.918  74.876596
1.917  74.896968
1.916  74.920412
1.915  74.989625
1.914  74.993922
1.913  75.055804
1.912  75.038585
1.911  75.103595
1.910  75.097113
1.909  75.181054
1.908  75.176702
1.907  75.263365
1.906  75.265376
1.905  75.337952
1.904  75.415506
1.903  75.406610
1.902  75.528084
1.901  75.630751
1.900  75.650479
1.899  75.628771
1.898  75.731139
1.897  75.760727
1.896  75.825156
1.895  75.927834
1.894  75.927448
1.893  75.968729
1.892  75.993120
1.891  76.166496
1.890  76.049935
1.889  76.177014
1.888  76.176419
1.887  76.253196
1.886  76.244998
1.885  76.283896
1.884  76.310728
1.883  76.324691
1.882  76.314546
1.881  76.432504
1.880  76.424219
1.879  76.456574
1.878  76.453251
1.877  76.484959
1.876  76.466381
1.875  76.529170
1.874  76.535616
1.873  76.565595
1.872  76.570827
1.871  76.591666
1.870  76.548853
1.869  76.604156
1.868  76.665818
1.867  76.612375
1.866  76.605935
1.865  76.689499
1.864  76.702128
1.863  76.657020
1.862  76.694152
1.861  76.716427
1.860  76.679910
1.859  76.663943
1.858  76.761848
1.857  76.775965
1.856  76.700622
1.855  76.741539
1.854  76.727755
1.853  76.756264
1.852  76.737324
1.851  76.739272
1.850  76.729858
1.849  76.783720
1.848  76.809891
1.847  76.785946
1.846  76.784821
1.845  76.788292
1.844  76.828858
1.843  76.788686
1.842  76.787234
1.841  76.787040
1.840  76.784932
1.839  76.750376
1.838  76.716394
1.837  76.748510
1.836  76.717305
1.835  76.736064
1.834  76.770476
1.833  76.792579
1.832  76.755712
1.831  76.786019
1.830  76.749034
1.829  76.761974
1.828  76.737461
1.827  76.724208
1.826  76.746663
1.825  76.815901
1.824  76.812835
1.823  76.828782
1.822  76.811350
1.821  76.821404
1.820  76.818294
1.819  76.820156
1.818  76.821707
1.817  76.786247
1.816  76.764925
1.815  76.731683
1.814  76.789718
1.813  76.820109
1.812  76.825348
1.811  76.837527
1.810  76.743810
1.809  76.750544
1.808  76.768267
1.807  76.722180
1.806  76.736383
1.805  76.738870
1.804  76.764416
1.803  76.838121
1.802  76.808873
1.801  76.770951
1.800  76.781388
1.799  76.802627
1.798  76.776062
1.797  76.775972
1.796  76.744680
1.795  76.716081
1.794  76.735641
1.793  76.725967
1.792  76.690172
1.791  76.730199
1.790  76.747994
1.789  76.738866
1.788  76.763077
1.787  76.715322
1.786  76.646696
1.785  76.690271
1.784  76.722972
1.783  76.641564
1.782  76.612393
1.781  76.614077
1.780  76.597227
1.779  76.632224
1.778  76.628201
1.777  76.597142
1.776  76.572943
1.775  76.566461
1.774  76.562456
1.773  76.541156
1.772  76.536534
1.771  76.469001
1.770  76.452161
1.769  76.445161
1.768  76.459549
1.767  76.455665
1.766  76.449246
1.765  76.473262
1.764  76.463910
1.763  76.432302
1.762  76.418777
1.761  76.366863
1.760  76.358963
1.759  76.353635
1.758  76.329392
1.757  76.278865
1.756  76.281429
1.755  76.278209
1.754  76.239675
1.753  76.220642
1.752  76.216151
1.751  76.127770
1.750  76.167562
1.749  76.147467
1.748  76.078333
1.747  76.123566
1.746  76.157647
1.745  76.083955
1.744  76.061394
1.743  76.059764
1.742  76.059232
1.741  76.057066
1.740  76.052042
1.739  75.994591
1.738  75.928785
1.737  75.934352
1.736  75.907800
1.735  75.943128
1.734  75.978482
1.733  75.908497
1.732  75.920175
1.731  75.935590
1.730  75.959421
1.729  75.898621
1.728  75.888674
1.727  75.892366
1.726  75.862677
1.725  75.826690
1.724  75.790817
1.723  75.842157
1.722  75.829753
1.721  75.800470
1.720  75.802366
1.719  75.714288
1.718  75.702257
1.717  75.635480
1.716  75.612759
1.715  75.569915
1.714  75.629188
1.713  75.523578
1.712  75.515762
1.711  75.522821
1.710  75.479446
1.709  75.444303
1.708  75.432727
1.707  75.425485
1.706  75.456196
1.705  75.359981
1.704  75.367763
1.703  75.359543
1.702  75.296761
1.701  75.284095
1.700  75.347309
1.699  75.265955
1.698  75.282599
1.697  75.286249
1.696  75.308097
1.695  75.222093
1.694  75.262467
1.693  75.252363
1.692  75.278404
1.691  75.219218
1.690  75.158646
1.689  75.157303
1.688  75.185625
1.687  75.183792
1.686  75.204023
1.685  75.162272
1.684  75.113318
1.683  75.034765
1.682  75.063846
1.681  75.091771
1.680  75.006747
1.679  75.012360
1.678  74.940176
1.677  74.819060
1.676  74.780575
1.675  74.718058
1.674  74.848315
1.673  74.676022
1.672  74.606757
1.671  74.560436
1.670  74.563859
1.669  74.571295
1.668  74.347960
1.667  74.377106
1.666  74.304629
1.665  74.267235
1.664  74.302146
1.663  74.271677
1.662  74.228415
1.661  74.231557
1.660  74.196659
1.659  74.309686
1.658  74.329913
1.657  74.446484
1.656  74.476325
1.655  74.562109
1.654  74.638161
1.653  74.698515
1.652  74.673032
1.651  74.751001
1.650  74.806740
1.649  74.938732
1.648  75.000316
1.647  74.965066
1.646  75.017659
1.645  74.951290
1.644  75.044913
1.643  75.093483
1.642  75.126517
1.641  75.013232
1.640  75.152035
1.639  75.143325
1.638  75.215573
1.637  75.219535
1.636  75.186193
1.635  75.240124
1.634  75.247547
1.633  75.177003
1.632  75.321240
1.631  75.303537
1.630  75.240774
1.629  75.239953
1.628  75.269843
1.627  75.305727
1.626  75.322180
1.625  75.270422
1.624  75.276907
1.623  75.249875
1.622  75.248303
1.621  75.284237
1.620  75.391639
1.619  75.246887
1.618  75.313449
1.617  75.324607
1.616  75.284167
1.615  75.222608
1.614  75.377970
1.613  75.283894
1.612  75.310275
1.611  75.345521
1.610  75.327971
1.609  75.346914
1.608  75.311149
1.607  75.333783
1.606  75.344023
1.605  75.280292
1.604  75.373067
1.603  75.291617
1.602  75.341422
1.601  75.236962
1.600  75.310931
1.599  75.224491
1.598  75.267455
1.597  75.242215
1.596  75.188303
1.595  75.182732
1.594  75.170584
1.593  75.152957
1.592  75.124838
1.591  75.130589
1.590  75.143082
1.589  75.015016
1.588  75.004386
1.587  75.005293
1.586  74.961550
1.585  74.907857
1.584  74.925883
1.583  74.820567
1.582  74.860642
1.581  74.703107
1.580  74.723056
1.579  74.719016
1.578  74.665093
1.577  74.622931
1.576  74.509683
1.575  74.452725
1.574  74.358224
1.573  74.321062
1.572  74.267665
1.571  74.195655
1.570  74.107181
1.569  74.052926
1.568  74.097462
1.567  73.996636
1.566  73.902768
1.565  73.847542
1.564  73.771070
1.563  73.681352
1.562  73.612425
1.561  73.511257
1.560  73.481924
1.559  73.404193
1.558  73.338814
1.557  73.207447
1.556  73.131611
1.555  72.979221
1.554  72.896529
1.553  72.721174
1.552  72.658189
1.551  72.499800
1.550  72.267159
1.549  71.989780
1.548  71.865077
1.547  71.704466
1.546  71.517969
1.545  71.290279
1.544  71.129470
1.543  70.968435
1.542  70.784737
1.541  70.635139
1.540  70.577562
1.539  70.459652
1.538  70.399404
1.537  70.326239
1.536  70.226157
1.535  70.205535
1.534  70.160336
1.533  70.093211
1.532  70.027734
1.531  69.964695
1.530  69.923945
1.529  69.842551
1.528  69.782686
1.527  69.709787
1.526  69.616517
1.525  69.509349
1.524  69.459278
1.523  69.355137
1.522  69.173364
1.521  68.960793
1.520  68.785474
1.519  68.535535
1.518  68.240426
1.517  67.858718
1.516  67.400208
1.515  66.843716
1.514  66.253102
1.513  65.576474
1.512  64.759716
1.511  63.788958
1.510  62.727533
1.509  61.676411
1.508  60.735158
1.507  59.975219
1.506  59.430933
1.505  59.109148
1.504  59.068179
1.503  59.327052
1.502  59.718604
1.501  60.226039
1.500  60.800038
1.499  61.413794
1.498  62.061486
1.497  62.659655
1.496  63.260940
1.495  63.821732
1.494  64.267910
1.493  64.709385
1.492  65.096314
1.491  65.470789
1.490  65.819540
1.489  66.134009
1.488  66.459013
1.487  66.678047
1.486  66.861780
1.485  67.042202
1.484  67.177182
1.483  67.325243
1.482  67.438514
1.481  67.541450
1.480  67.648751
1.479  67.764710
1.478  67.912010
1.477  68.104259
1.476  68.267486
1.475  68.419254
1.474  68.582633
1.473  68.744556
1.472  68.873560
1.471  69.047796
1.470  69.276598
1.469  69.470948
1.468  70.020103
1.467  70.041804
1.466  69.974889
1.465  70.147117
1.464  70.256604
1.463  70.406366
1.462  70.530063
1.461  70.627228
1.460  70.727036
1.459  70.896653
1.458  71.028814
1.457  71.167129
1.456  71.218874
1.455  71.284172
1.454  71.338977
1.453  71.414465
1.452  71.509188
1.451  71.625827
1.450  71.742302
1.449  71.779730
1.448  71.767988
1.447  71.861923
1.446  71.904575
1.445  71.948640
1.444  71.986720
1.443  72.069144
1.442  72.150012
1.441  72.189008
1.440  72.185448
1.439  72.249827
1.438  72.254285
1.437  72.284312
1.436  72.350910
1.435  72.310080
1.434  72.335422
1.433  72.444699
1.432  72.428683
1.431  72.492013
1.430  72.511772
1.429  72.575803
1.428  72.554356
1.427  72.577744
1.426  72.633230
1.425  72.692031
1.424  72.689065
1.423  72.676466
1.422  72.759965
1.421  72.759921
1.420  72.680324
1.419  72.560165
