Name: Calcite CaCO_3
Type: Mineral
Class: Carbonates
Subclass: 
Particle Size: 45-125um
Sample No.: C-3D
Owner: JPL
Wavelength range: IR
Origin: United Kingdom, England
Collected by Ward's
Description: 





Measurement: Hemispherical reflectance
First Column: X
Second Column: Y
X Units:  Wavelength (micrometers)
Y Units:  Reflectance (percent)
First X Value: 15.3853
Last X Value: 2.00032
Number of X Values: 2256
Additional information: c03da.txt
 
15.3853	17.6451
15.3397	17.9086
15.2945	18.333
15.2495	18.7559
15.2048	18.8416
15.1603	19.1771
15.1161	19.4862
15.0722	19.6847
15.0285	19.7658
14.9851	19.8326
14.9419	20.1086
14.8989	20.3352
14.8563	20.5255
14.8138	20.7442
14.7716	20.7754
14.7296	20.8324
14.6879	20.8462
14.6464	20.7817
14.6052	20.7295
14.5641	20.4427
14.5233	20.1308
14.4828	19.5607
14.4424	18.4201
14.4023	17.5232
14.3624	16.9667
14.3227	15.7938
14.2833	14.0555
14.244	12.0676
14.205	9.77017
14.1662	7.13883
14.1276	4.67641
14.0892	3.17999
14.051	2.28568
14.0131	1.34834
13.9753	0.933238
13.9377	2.04889
13.9004	4.42708
13.8632	7.41914
13.8262	10.4335
13.7895	13.4275
13.7529	15.9239
13.7165	17.8499
13.6803	19.4726
13.6443	20.7772
13.6085	21.7391
13.5729	22.5569
13.5374	23.2867
13.5022	23.8854
13.4671	24.2478
13.4322	24.4842
13.3975	24.7637
13.363	24.9214
13.3286	24.8876
13.2944	24.8332
13.2604	24.7308
13.2266	24.5732
13.193	24.2563
13.1595	23.9538
13.1262	23.66
13.093	23.1414
13.06	22.655
13.0272	22.1851
12.9946	21.6056
12.9621	21.1778
12.9298	20.8584
12.8976	20.63
12.8656	20.4805
12.8337	20.4913
12.8021	20.5917
12.7705	20.5743
12.7391	20.6847
12.7079	20.9796
12.6769	21.2785
12.6459	21.6423
12.6152	21.8263
12.5845	21.9234
12.5541	22.0778
12.5238	22.0234
12.4936	22.0707
12.4635	22.4481
12.4337	22.8715
12.4039	23.1494
12.3743	23.427
12.3448	23.6297
12.3155	23.7483
12.2863	23.9624
12.2573	24.2686
12.2284	24.512
12.1996	24.6581
12.171	24.7769
12.1425	24.7008
12.1141	24.6396
12.0859	24.6027
12.0578	24.4201
12.0298	24.0923
12.0019	23.8648
11.9742	23.4573
11.9466	22.9758
11.9192	22.3768
11.8918	21.5267
11.8646	19.8696
11.8375	16.3918
11.8106	10.4658
11.7837	7.95522
11.757	12.2485
11.7304	15.8395
11.7039	16.2994
11.6776	15.3017
11.6513	13.8502
11.6252	12.3862
11.5992	10.7611
11.5733	9.15126
11.5475	7.54598
11.5219	5.99372
11.4963	4.44721
11.4709	3.63666
11.4455	3.76016
11.4203	4.26409
11.3952	4.77266
11.3702	4.98451
11.3454	5.23366
11.3206	6.05922
11.2959	8.38
11.2714	12.7099
11.2469	16.6646
11.2226	18.7116
11.1983	19.9683
11.1742	21.1732
11.1502	22.2512
11.1263	22.9501
11.1024	23.3758
11.0787	23.6576
11.0551	23.7827
11.0316	23.8267
11.0081	23.8984
10.9848	23.8535
10.9616	23.665
10.9385	23.5192
10.9154	23.5481
10.8925	23.4225
10.8697	23.1578
10.8469	23.0677
10.8243	22.8515
10.8017	22.3703
10.7793	21.9926
10.7569	21.5504
10.7346	21.0961
10.7125	20.7052
10.6904	20.4803
10.6684	20.3824
10.6465	20.3702
10.6247	20.5332
10.6029	20.6644
10.5813	20.541
10.5597	20.3977
10.5383	20.4076
10.5169	20.3808
10.4956	20.5342
10.4744	20.6512
10.4533	20.7693
10.4323	20.9925
10.4113	20.8966
10.3904	20.7307
10.3697	20.5815
10.349	20.3231
10.3284	19.9088
10.3078	19.5199
10.2874	19.0999
10.267	18.3851
10.2467	17.6205
10.2265	16.9577
10.2064	16.4537
10.1863	16.0773
10.1663	15.7733
10.1464	15.4452
10.1266	15.0471
10.1069	14.4964
10.0872	13.9222
10.0676	13.5347
10.0481	13.2644
10.0287	13
10.0093	12.5335
9.99005	12.1545
9.97084	11.9257
9.95169	11.7636
9.93263	11.4931
9.91364	11.1179
9.89472	10.7414
9.87587	10.6404
9.8571	10.534
9.83839	10.5539
9.81976	10.7171
9.80119	10.6369
9.78271	10.542
9.76428	10.5009
9.74592	10.5266
9.72764	10.6426
9.70943	10.7062
9.69128	10.794
9.6732	11.0557
9.65518	11.3108
9.63724	11.2669
9.61935	11.1922
9.60155	11.2994
9.5838	11.3837
9.56611	11.4804
9.5485	11.6776
9.53094	11.8846
9.51345	12.0277
9.49604	12.0594
9.47867	12.1223
9.46137	12.2576
9.44414	12.3762
9.42697	12.4296
9.40986	12.4105
9.39281	12.3755
9.37583	12.2403
9.35891	12.2165
9.34204	12.3177
9.32524	12.4036
9.3085	12.4892
9.29182	12.6038
9.27519	12.5902
9.25863	12.2698
9.24213	11.9093
9.22568	11.6996
9.2093	11.7793
9.19297	12.2976
9.17669	12.9654
9.16048	13.4642
9.14433	13.7038
9.12823	13.9265
9.11218	14.2959
9.0962	14.6798
9.08027	14.9725
9.06439	15.1923
9.04858	15.5227
9.03281	15.7646
9.0171	15.9785
9.00145	16.1688
8.98585	16.2985
8.9703	16.452
8.9548	16.6098
8.93937	16.7144
8.92398	16.7533
8.90865	16.8297
8.89337	16.9262
8.87814	17.0186
8.86296	17.02
8.84784	16.9868
8.83277	17.1035
8.81774	17.3105
8.80277	17.34
8.78786	17.1758
8.77298	16.7862
8.75816	16.4196
8.7434	16.2543
8.72868	16.0781
8.714	15.7619
8.69938	15.3847
8.68481	14.9822
8.67029	14.5756
8.65581	14.1907
8.64139	13.6329
8.62701	12.8529
8.61268	12.1447
8.5984	11.8449
8.58416	11.707
8.56997	11.7391
8.55583	11.8838
8.54174	12.1078
8.52769	12.1615
8.51368	12.0367
8.49973	11.8874
8.48582	11.7368
8.47195	11.8419
8.45813	12.2357
8.44436	12.6537
8.43062	12.9761
8.41693	13.2163
8.4033	13.4344
8.3897	13.887
8.37614	14.4353
8.36264	14.9045
8.34917	15.316
8.33574	15.5936
8.32236	15.8937
8.30903	16.1221
8.29573	16.4076
8.28248	16.6057
8.26927	16.7328
8.2561	16.873
8.24298	17.0967
8.2299	17.2992
8.21685	17.3783
8.20385	17.385
8.19089	17.3501
8.17797	17.2141
8.16509	17.0098
8.15225	16.88
8.13946	16.8004
8.1267	16.7439
8.11398	16.5892
8.10131	16.409
8.08867	16.1139
8.07606	15.7746
8.0635	15.5837
8.05099	15.5864
8.0385	15.7775
8.02606	16.0765
8.01366	16.2292
8.00129	16.2593
7.98896	16.2816
7.97667	16.1911
7.96442	16.0273
7.9522	15.7832
7.94002	15.4557
7.92788	15.1645
7.91578	14.9244
7.90371	14.6655
7.89168	14.5756
7.87969	14.5944
7.86773	14.6838
7.85581	14.6533
7.84392	14.5316
7.83207	14.2967
7.82026	13.9839
7.80849	13.7209
7.79674	13.6001
7.78503	13.5696
7.77337	13.5642
7.76173	13.5104
7.75012	13.469
7.73856	13.4277
7.72703	13.2365
7.71553	12.9143
7.70406	12.6512
7.69263	12.2443
7.68123	11.8482
7.66987	11.4924
7.65855	11.0852
7.64725	10.675
7.63598	10.288
7.62475	10.0674
7.61356	9.9636
7.60239	9.75802
7.59126	9.57341
7.58017	9.55434
7.5691	9.4992
7.55806	9.42302
7.54707	9.36531
7.5361	9.3656
7.52516	9.32696
7.51425	9.27009
7.50338	9.19146
7.49253	9.11592
7.48172	9.03265
7.47094	8.92411
7.46019	8.78986
7.44947	8.57153
7.43879	8.34877
7.42813	8.27117
7.4175	8.18381
7.4069	8.02906
7.39634	7.93714
7.3858	7.81392
7.37529	7.66934
7.36482	7.537
7.35437	7.34861
7.34396	7.15793
7.33357	6.94943
7.32321	6.70272
7.31288	6.47728
7.30258	6.31707
7.29231	6.12408
7.28207	5.9823
7.27185	5.90221
7.26167	5.86419
7.25152	5.93607
7.24139	5.92802
7.23129	5.92684
7.22122	5.89102
7.21117	5.8646
7.20116	5.84754
7.19117	5.92409
7.18121	5.97147
7.17128	6.04879
7.16137	6.22596
7.1515	6.34394
7.14164	6.30788
7.13182	6.46751
7.12203	6.81368
7.11225	7.11788
7.10251	7.43943
7.0928	7.63896
7.08311	7.57658
7.07344	7.51515
7.06381	7.47537
7.0542	7.43863
7.04461	7.41987
7.03506	7.36063
7.02552	7.31131
7.01601	7.27146
7.00653	7.22913
6.99708	7.20108
6.98765	7.28614
6.97824	7.39096
6.96886	7.50991
6.95951	7.60152
6.95018	7.59686
6.94087	7.63847
6.9316	7.71488
6.92234	7.81094
6.91311	7.9145
6.90391	8.065
6.89473	8.26529
6.88557	8.36687
6.87644	8.47023
6.86733	8.74071
6.85824	8.82473
6.84918	8.76131
6.84015	8.8655
6.83114	9.07989
6.82215	9.03598
6.81319	8.99297
6.80424	9.17666
6.79532	9.45884
6.78643	9.64147
6.77756	9.74209
6.76871	9.81213
6.75989	9.96479
6.75109	10.2458
6.74231	10.4871
6.73355	10.7393
6.72482	11.1282
6.71611	11.4444
6.70742	11.5497
6.69875	11.7196
6.69011	12.0396
6.68149	12.3481
6.67289	12.5798
6.66431	12.7867
6.65576	12.9646
6.64722	13.3451
6.63871	13.8525
6.63022	14.0494
6.62175	14.2368
6.61331	14.549
6.60488	14.7048
6.59648	14.8958
6.5881	15.1227
6.57974	15.3843
6.5714	15.4836
6.56308	15.3828
6.55478	15.3598
6.54651	15.3125
6.53825	15.2392
6.53001	15.22
6.5218	15.1845
6.51361	14.981
6.50544	14.9757
6.49729	15.2622
6.48915	15.3251
6.48104	15.0932
6.47295	14.9665
6.46488	14.9581
6.45683	14.9675
6.4488	14.859
6.44079	14.5862
6.4328	14.206
6.42482	13.7161
6.41687	13.2071
6.40894	12.3292
6.40103	11.3338
6.39314	10.6361
6.38526	10.0676
6.37741	9.59297
6.36957	9.16491
6.36176	8.6553
6.35396	8.1905
6.34618	7.65745
6.33843	6.85549
6.33069	6.11007
6.32297	5.62566
6.31527	5.28152
6.30758	4.94827
6.29992	4.71328
6.29227	4.67821
6.28465	4.85588
6.27704	4.94079
6.26945	4.91368
6.26188	4.85785
6.25432	4.79887
6.24679	4.6564
6.23927	4.59274
6.23177	4.49553
6.22429	4.38549
6.21683	4.29214
6.20938	4.21493
6.20195	4.13836
6.19454	3.98844
6.18715	3.90303
6.17978	3.83936
6.17242	3.84769
6.16508	3.89192
6.15776	3.84935
6.15045	3.75959
6.14317	3.74736
6.1359	3.7159
6.12864	3.73097
6.12141	3.73799
6.11419	3.77969
6.10699	3.75135
6.0998	3.71864
6.09263	3.79676
6.08549	3.83268
6.07835	3.88849
6.07123	3.9489
6.06413	3.97324
6.05705	4.03284
6.04998	4.14267
6.04293	4.27406
6.0359	4.32338
6.02888	4.35543
6.02187	4.45642
6.01489	4.67537
6.00792	4.88826
6.00096	5.04902
5.99403	5.09919
5.98711	5.12643
5.9802	5.24048
5.97331	5.35575
5.96644	5.4081
5.95958	5.39836
5.95274	5.46284
5.94591	5.54495
5.9391	5.71337
5.9323	5.8376
5.92552	5.88521
5.91876	6.06195
5.91201	6.23419
5.90528	6.4515
5.89856	6.68887
5.89186	6.81303
5.88517	7.00301
5.8785	7.1455
5.87184	7.14524
5.8652	7.14451
5.85857	7.02162
5.85196	6.97355
5.84536	6.99625
5.83878	7.0848
5.83221	7.16438
5.82566	7.18917
5.81912	7.12113
5.81259	7.01006
5.80608	6.89793
5.79959	6.91373
5.79311	6.9613
5.78665	6.93903
5.78019	6.85508
5.77376	6.85462
5.76734	6.96222
5.76093	6.75302
5.75453	6.65677
5.74815	6.9108
5.74179	7.12525
5.73543	7.25395
5.7291	7.52978
5.72277	7.85415
5.71646	8.00237
5.71017	8.22609
5.70389	8.42268
5.69762	8.62978
5.69136	8.9033
5.68513	9.13219
5.6789	9.58536
5.67268	10.1458
5.66648	10.4552
5.6603	10.9073
5.65413	11.4869
5.64797	11.8605
5.64182	12.0572
5.63569	11.784
5.62957	11.2614
5.62347	10.6241
5.61737	9.73292
5.61129	8.53804
5.60522	7.08198
5.59917	5.36674
5.59313	3.65017
5.5871	2.19614
5.58109	1.3743
5.57509	1.07391
5.5691	0.993019
5.56312	0.906012
5.55716	0.962961
5.55121	1.49821
5.54528	2.85835
5.53935	4.95366
5.53344	7.34227
5.52754	9.74435
5.52166	11.9936
5.51578	14.0066
5.50992	15.7428
5.50407	17.2751
5.49823	18.7021
5.49241	20.028
5.4866	21.2841
5.4808	22.5489
5.47501	23.7321
5.46923	24.9246
5.46347	26.0094
5.45772	26.9116
5.45198	27.9027
5.44625	28.9683
5.44054	30.0141
5.43484	31.0915
5.42914	32.2314
5.42347	33.4259
5.4178	34.2886
5.41214	35.0769
5.4065	35.9469
5.40087	36.7571
5.39525	37.5619
5.38964	38.4633
5.38404	39.4221
5.37846	40.1928
5.37288	40.8425
5.36732	41.5817
5.36177	42.3162
5.35623	43.0145
5.35071	43.674
5.34519	44.2188
5.33968	44.8224
5.33419	45.4461
5.32871	46.0126
5.32324	46.6909
5.31778	47.3586
5.31233	47.9765
5.30689	48.5845
5.30147	49.1257
5.29605	49.6337
5.29065	50.1051
5.28525	50.4856
5.27987	50.9407
5.2745	51.2768
5.26914	51.561
5.26379	51.9432
5.25845	52.3784
5.25312	52.7478
5.24781	53.1317
5.2425	53.5293
5.23721	53.8841
5.23192	54.1667
5.22665	54.415
5.22138	54.6064
5.21613	54.9292
5.21089	55.2532
5.20566	55.4944
5.20044	55.7917
5.19522	56.0708
5.19002	56.2836
5.18483	56.4643
5.17965	56.6665
5.17448	56.7807
5.16933	56.8737
5.16418	57.0252
5.15904	57.2111
5.15391	57.4122
5.14879	57.6133
5.14368	57.7512
5.13859	57.8729
5.1335	57.9257
5.12842	57.8657
5.12335	57.6405
5.1183	56.9275
5.11325	55.2251
5.10821	52.3069
5.10318	49.0794
5.09817	48.0854
5.09316	51.0825
5.08816	54.9371
5.08317	57.3729
5.07819	58.5847
5.07322	59.1996
5.06826	59.5631
5.06331	59.7933
5.05837	59.8657
5.05344	59.8977
5.04852	59.9481
5.04361	60.0525
5.03871	60.0495
5.03382	60.0071
5.02894	59.9593
5.02406	59.9502
5.0192	59.9241
5.01435	59.7946
5.0095	59.6809
5.00467	59.6797
4.99984	59.6892
4.99502	59.628
4.99021	59.5464
4.98542	59.5599
4.98063	59.5671
4.97585	59.5086
4.97108	59.3923
4.96632	59.329
4.96156	59.3216
4.95682	59.2759
4.95209	59.1635
4.94736	59.1237
4.94264	59.1616
4.93794	59.1844
4.93324	59.1333
4.92855	59.118
4.92387	59.1373
4.9192	59.185
4.91453	59.2394
4.90988	59.2638
4.90524	59.2631
4.9006	59.3423
4.89597	59.3762
4.89135	59.3849
4.88674	59.4393
4.88214	59.5213
4.87755	59.5651
4.87296	59.534
4.86839	59.4305
4.86382	59.4713
4.85926	59.5796
4.85471	59.6433
4.85017	59.6451
4.84564	59.6253
4.84111	59.6465
4.8366	59.6721
4.83209	59.6374
4.82759	59.6193
4.8231	59.6937
4.81862	59.71
4.81415	59.6375
4.80968	59.5639
4.80522	59.5316
4.80077	59.537
4.79633	59.5034
4.7919	59.4741
4.78747	59.387
4.78306	59.2799
4.77865	59.1492
4.77425	58.9738
4.76986	58.6697
4.76547	58.2414
4.7611	57.7957
4.75673	57.3945
4.75237	57.0138
4.74802	56.5375
4.74367	55.9402
4.73934	55.29
4.73501	54.5472
4.73069	53.6222
4.72638	52.3597
4.72207	50.7904
4.71777	48.9047
4.71348	46.75
4.7092	44.5342
4.70493	42.5499
4.70066	40.7392
4.69641	39.2426
4.69216	38.0997
4.68791	37.1419
4.68368	36.3654
4.67945	35.9051
4.67523	35.708
4.67102	35.5996
4.66682	35.6559
4.66262	35.9435
4.65843	36.5288
4.65425	37.5304
4.65007	38.7736
4.64591	40.1894
4.64175	41.7371
4.6376	43.3765
4.63345	44.9044
4.62932	46.202
4.62519	47.2453
4.62106	48.1732
4.61695	49.0684
4.61284	49.8054
4.60874	50.3062
4.60465	50.6847
4.60056	50.8838
4.59648	51.0609
4.59241	51.3292
4.58835	51.6145
4.58429	51.8355
4.58024	51.9015
4.5762	51.8704
4.57216	51.8944
4.56814	51.9943
4.56411	52.1516
4.5601	52.187
4.55609	52.244
4.55209	52.3067
4.5481	52.3496
4.54411	52.3299
4.54013	52.293
4.53616	52.3257
4.5322	52.4235
4.52824	52.4452
4.52429	52.4648
4.52034	52.5855
4.51641	52.6736
4.51247	52.6826
4.50855	52.7615
4.50463	52.9199
4.50072	53.1745
4.49682	53.4066
4.49292	53.6726
4.48903	54.0147
4.48515	54.4846
4.48127	54.959
4.4774	55.3956
4.47354	55.8518
4.46968	56.3584
4.46584	56.7738
4.46199	57.0589
4.45815	57.3168
4.45432	57.5844
4.4505	57.9053
4.44668	58.2552
4.44287	58.6469
4.43907	59.0642
4.43527	59.4517
4.43148	59.7773
4.4277	59.9751
4.42392	60.1389
4.42015	60.3243
4.41638	60.4705
4.41262	60.6716
4.40887	60.8799
4.40513	60.9709
4.40139	61.0815
4.39765	61.2903
4.39393	61.433
4.39021	61.4684
4.38649	61.5301
4.38278	61.6394
4.37908	61.7228
4.37539	61.7048
4.3717	61.6121
4.36801	61.3993
4.36434	61.1592
4.36067	60.8903
4.357	60.5568
4.35335	60.2401
4.34969	59.9863
4.34605	59.8581
4.34241	59.837
4.33877	59.7706
4.33514	59.7137
4.33152	59.7349
4.32791	59.7941
4.3243	59.7556
4.32069	59.648
4.3171	59.6273
4.31351	59.6384
4.30992	59.6775
4.30634	59.7752
4.30277	59.9303
4.2992	60.1083
4.29564	60.1614
4.29208	60.0103
4.28853	59.81
4.28499	59.5097
4.28145	59.075
4.27792	58.6338
4.27439	58.1939
4.27087	57.7813
4.26735	57.5749
4.26384	57.7801
4.26034	58.3234
4.25684	58.9138
4.25335	59.2978
4.24986	59.4627
4.24638	59.4624
4.24291	59.4396
4.23944	59.4112
4.23598	59.3488
4.23252	59.2088
4.22906	59.098
4.22562	59.0969
4.22218	59.0466
4.21874	58.9699
4.21531	58.8639
4.21189	58.7758
4.20847	58.7394
4.20506	58.6502
4.20165	58.4949
4.19825	58.3437
4.19485	58.1099
4.19146	57.856
4.18807	57.6794
4.18469	57.4906
4.18132	57.2079
4.17795	56.915
4.17458	56.6905
4.17123	56.4646
4.16787	56.2257
4.16453	55.9618
4.16118	55.6718
4.15785	55.3676
4.15451	54.9994
4.15119	54.5753
4.14787	54.1588
4.14455	53.7164
4.14124	53.2506
4.13794	52.716
4.13464	52.1268
4.13134	51.611
4.12805	51.1456
4.12477	50.5508
4.12149	49.9615
4.11822	49.3977
4.11495	48.8412
4.11168	48.226
4.10843	47.5497
4.10517	46.9028
4.10192	46.357
4.09868	45.7846
4.09545	45.0929
4.09221	44.4492
4.08899	43.7849
4.08576	43.0201
4.08255	42.1887
4.07933	41.2811
4.07613	40.3962
4.07292	39.4763
4.06973	38.4799
4.06654	37.462
4.06335	36.4772
4.06017	35.4747
4.05699	34.3133
4.05382	32.8781
4.05065	31.1146
4.04749	29.1623
4.04433	27.0943
4.04118	24.8692
4.03803	22.7121
4.03489	20.9003
4.03175	19.3558
4.02862	17.8247
4.02549	16.4256
4.02237	15.188
4.01925	13.9614
4.01614	12.6969
4.01303	11.3526
4.00993	9.80865
4.00683	8.30321
4.00373	7.05897
4.00064	6.06931
3.99756	5.30392
3.99448	4.70724
3.9914	4.17596
3.98833	3.73083
3.98527	3.50813
3.98221	3.38479
3.97915	3.35388
3.9761	3.41055
3.97305	3.51343
3.97001	3.60925
3.96697	3.74821
3.96394	3.91844
3.96091	4.23621
3.95789	4.64861
3.95487	5.0567
3.95186	5.71384
3.94885	6.58128
3.94584	7.52671
3.94284	8.60804
3.93984	9.74225
3.93685	10.552
3.93386	10.7951
3.93088	10.8739
3.9279	11.1294
3.92493	11.475
3.92196	11.7877
3.919	12.0619
3.91604	12.3114
3.91308	12.5614
3.91013	12.6852
3.90718	12.8456
3.90424	13.0052
3.9013	13.096
3.89837	13.1865
3.89544	13.3728
3.89252	13.5021
3.8896	13.6329
3.88668	13.6713
3.88377	13.715
3.88086	13.9399
3.87796	14.1516
3.87506	14.1176
3.87217	14.0164
3.86928	14.1496
3.86639	14.3028
3.86351	14.3302
3.86064	14.3265
3.85776	14.5142
3.8549	14.7101
3.85203	14.808
3.84917	14.9793
3.84631	15.2544
3.84346	15.6258
3.84062	16.1425
3.83777	16.8052
3.83494	17.6705
3.8321	18.6235
3.82927	19.6628
3.82644	20.8607
3.82362	22.1094
3.82081	23.3148
3.81799	24.5819
3.81518	26.0154
3.81238	27.5204
3.80958	29.1187
3.80678	31.007
3.80399	33.0145
3.8012	35.1914
3.79841	37.5733
3.79563	40.1296
3.79286	42.6832
3.79008	44.8946
3.78731	46.7192
3.78455	48.1185
3.78179	49.1776
3.77903	50.0297
3.77628	50.6896
3.77353	51.2924
3.77079	51.8946
3.76805	52.45
3.76531	52.8627
3.76258	53.2818
3.75985	53.6445
3.75713	53.7849
3.7544	53.8686
3.75169	54.0222
3.74898	54.1887
3.74627	54.4307
3.74356	54.7204
3.74086	54.982
3.73816	55.2643
3.73547	55.4852
3.73278	55.7049
3.7301	55.9531
3.72741	56.1057
3.72474	56.2629
3.72206	56.4308
3.71939	56.5404
3.71673	56.5998
3.71406	56.6487
3.71141	56.7036
3.70875	56.7677
3.7061	56.8005
3.70345	56.8666
3.70081	56.9188
3.69817	56.8521
3.69553	56.8329
3.6929	56.8366
3.69027	56.8506
3.68765	56.7452
3.68503	56.6635
3.68241	56.6119
3.6798	56.5454
3.67719	56.4419
3.67458	56.3607
3.67198	56.4107
3.66938	56.3254
3.66678	56.2095
3.66419	56.0514
3.66161	55.9199
3.65902	55.7809
3.65644	55.5783
3.65387	55.4153
3.65129	55.3302
3.64872	55.2378
3.64616	55.1145
3.64359	54.911
3.64103	54.7175
3.63848	54.5569
3.63593	54.3767
3.63338	54.1054
3.63084	53.9162
3.6283	53.7728
3.62576	53.5439
3.62322	53.3209
3.62069	53.1134
3.61817	52.8167
3.61564	52.4807
3.61312	52.2582
3.61061	52.0165
3.6081	51.6623
3.60559	51.2363
3.60308	50.8548
3.60058	50.4837
3.59808	49.9875
3.59558	49.4533
3.59309	48.8972
3.59061	48.2663
3.58812	47.5473
3.58564	46.731
3.58316	45.8055
3.58069	44.7706
3.57822	43.6883
3.57575	42.7281
3.57328	42.1193
3.57082	41.8362
3.56836	41.7765
3.56591	41.86
3.56346	41.8566
3.56101	41.6937
3.55857	41.4
3.55613	40.963
3.55369	40.4221
3.55126	39.8161
3.54883	39.0419
3.5464	38.0925
3.54397	37.0447
3.54155	35.9436
3.53914	34.632
3.53672	33.1355
3.53431	31.5127
3.5319	29.7064
3.5295	27.6675
3.5271	25.4195
3.5247	23.1294
3.52231	20.9165
3.51991	18.9105
3.51753	17.3554
3.51514	16.1761
3.51276	15.2004
3.51038	14.4236
3.50801	13.7382
3.50563	13.1995
3.50327	12.749
3.5009	12.147
3.49854	11.6487
3.49618	11.2698
3.49382	10.7564
3.49147	10.3177
3.48912	9.94798
3.48677	9.5033
3.48443	9.11218
3.48209	8.79411
3.47975	8.58705
3.47742	8.54566
3.47509	8.78829
3.47276	9.35897
3.47044	10.3047
3.46812	11.5659
3.4658	12.9053
3.46348	14.1671
3.46117	15.0781
