Name: Andesine (Feldspar) (NaSi,CaAl)AlSi_2O_8
Type: Mineral
Class: Silicates
Subclass: Tectosilicates
Particle Size: 45-125um
Sample No.: TS-4A
Owner: JPL
Wavelength range: VNIR-SWIR
Origin: Unknown.
Collected by:  JPL
Description:




 
Measurement: Hemispherical reflectance
First Column: X
Second Column: Y
X Units: Wavelength (micrometers)
Y Units: Reflectance (percent)
First X Value: 2.500
Last X Value: 0.400
Number of X Values: 2101
Additional information: ts04aa.txt

2.500  75.199486
2.499  75.106320
2.498  75.471951
2.497  75.251826
2.496  75.126689
2.495  75.409978
2.494  75.326314
2.493  75.350483
2.492  75.404957
2.491  75.156765
2.490  75.382645
2.489  75.204314
2.488  75.105920
2.487  75.361781
2.486  75.263382
2.485  75.327875
2.484  75.486339
2.483  75.273587
2.482  75.416033
2.481  75.355191
2.480  75.467659
2.479  75.515062
2.478  75.405736
2.477  75.329819
2.476  75.567345
2.475  75.532172
2.474  75.392733
2.473  75.453821
2.472  75.526019
2.471  75.364615
2.470  75.402205
2.469  75.506018
2.468  75.679072
2.467  75.616628
2.466  75.713216
2.465  75.593480
2.464  75.688287
2.463  75.603906
2.462  75.735098
2.461  75.739242
2.460  75.632745
2.459  75.690285
2.458  75.716994
2.457  75.671394
2.456  75.778042
2.455  75.666846
2.454  75.675494
2.453  75.660380
2.452  75.680337
2.451  75.705465
2.450  75.670586
2.449  75.718419
2.448  75.709234
2.447  75.744475
2.446  75.864214
2.445  75.756622
2.444  75.795046
2.443  75.792612
2.442  75.746308
2.441  75.758308
2.440  75.940912
2.439  75.951392
2.438  75.948436
2.437  75.887710
2.436  75.867918
2.435  75.951055
2.434  75.991057
2.433  75.891007
2.432  76.081576
2.431  76.057971
2.430  76.093964
2.429  76.130507
2.428  76.135040
2.427  76.220573
2.426  76.224329
2.425  76.252205
2.424  76.354133
2.423  76.371270
2.422  76.484384
2.421  76.452953
2.420  76.512668
2.419  76.623992
2.418  76.622887
2.417  76.737757
2.416  76.767033
2.415  76.742475
2.414  76.703778
2.413  76.707308
2.412  76.920122
2.411  76.945055
2.410  76.989812
2.409  77.012596
2.408  77.162364
2.407  77.175684
2.406  77.131901
2.405  77.173042
2.404  77.297954
2.403  77.278977
2.402  77.346243
2.401  77.395377
2.400  77.364993
2.399  77.421520
2.398  77.488331
2.397  77.550700
2.396  77.588114
2.395  77.638824
2.394  77.557594
2.393  77.550022
2.392  77.582394
2.391  77.613942
2.390  77.703297
2.389  77.687968
2.388  77.772796
2.387  77.786814
2.386  77.749701
2.385  77.832609
2.384  77.894484
2.383  77.878810
2.382  77.845236
2.381  77.860086
2.380  77.952141
2.379  78.020033
2.378  78.040913
2.377  78.005280
2.376  78.001187
2.375  78.007827
2.374  78.067392
2.373  78.104374
2.372  78.140691
2.371  78.112314
2.370  78.089715
2.369  78.132497
2.368  78.152693
2.367  78.172850
2.366  78.123782
2.365  78.078741
2.364  78.194667
2.363  78.211943
2.362  78.154082
2.361  78.207726
2.360  78.212614
2.359  78.168992
2.358  78.192184
2.357  78.206632
2.356  78.167985
2.355  78.157942
2.354  78.106963
2.353  78.160253
2.352  78.232121
2.351  78.180888
2.350  78.164845
2.349  78.212961
2.348  78.219481
2.347  78.167799
2.346  78.226478
2.345  78.244647
2.344  78.216942
2.343  78.286938
2.342  78.328396
2.341  78.362048
2.340  78.308725
2.339  78.266849
2.338  78.362152
2.337  78.366514
2.336  78.372506
2.335  78.432308
2.334  78.517073
2.333  78.608359
2.332  78.617615
2.331  78.615898
2.330  78.605585
2.329  78.669155
2.328  78.643905
2.327  78.656293
2.326  78.726573
2.325  78.741005
2.324  78.754126
2.323  78.845579
2.322  78.839989
2.321  78.899961
2.320  78.980524
2.319  78.939778
2.318  78.999896
2.317  79.078758
2.316  79.045815
2.315  79.103220
2.314  79.226848
2.313  79.255038
2.312  79.270880
2.311  79.272060
2.310  79.278023
2.309  79.256068
2.308  79.365185
2.307  79.454996
2.306  79.425139
2.305  79.434736
2.304  79.508130
2.303  79.568880
2.302  79.682122
2.301  79.698331
2.300  79.656280
2.299  79.648664
2.298  79.639136
2.297  79.668898
2.296  79.701725
2.295  79.722351
2.294  79.676799
2.293  79.716883
2.292  79.712024
2.291  79.795141
2.290  79.858155
2.289  79.862224
2.288  79.820243
2.287  79.895317
2.286  79.879674
2.285  79.932273
2.284  79.862258
2.283  79.822084
2.282  79.863440
2.281  79.890086
2.280  79.848168
2.279  79.893537
2.278  79.884197
2.277  79.838601
2.276  79.904812
2.275  79.883744
2.274  79.889106
2.273  79.892156
2.272  79.886751
2.271  79.900639
2.270  79.894564
2.269  79.889477
2.268  79.869148
2.267  79.855624
2.266  79.835530
2.265  79.834424
2.264  79.811797
2.263  79.868535
2.262  79.793844
2.261  79.808728
2.260  79.767512
2.259  79.746614
2.258  79.767718
2.257  79.726874
2.256  79.718249
2.255  79.734231
2.254  79.768499
2.253  79.664496
2.252  79.700767
2.251  79.679857
2.250  79.765652
2.249  79.692200
2.248  79.703049
2.247  79.765315
2.246  79.683562
2.245  79.746390
2.244  79.753369
2.243  79.765958
2.242  79.592961
2.241  79.693877
2.240  79.635896
2.239  79.677008
2.238  79.675710
2.237  79.658245
2.236  79.600773
2.235  79.602983
2.234  79.609957
2.233  79.574297
2.232  79.579878
2.231  79.529249
2.230  79.496377
2.229  79.429796
2.228  79.452722
2.227  79.504936
2.226  79.454811
2.225  79.440738
2.224  79.345924
2.223  79.270298
2.222  79.252973
2.221  79.172093
2.220  79.084869
2.219  79.090430
2.218  79.096809
2.217  78.953436
2.216  78.905060
2.215  78.932963
2.214  78.868798
2.213  78.781639
2.212  78.788078
2.211  78.553861
2.210  78.563371
2.209  78.553660
2.208  78.455420
2.207  78.507216
2.206  78.350811
2.205  78.277589
2.204  78.305554
2.203  78.309983
2.202  78.273924
2.201  78.237101
2.200  78.266422
2.199  78.240241
2.198  78.204448
2.197  78.219817
2.196  78.303658
2.195  78.256103
2.194  78.345238
2.193  78.449964
2.192  78.432234
2.191  78.523786
2.190  78.611481
2.189  78.656506
2.188  78.797598
2.187  78.815985
2.186  78.987747
2.185  79.035951
2.184  79.151819
2.183  79.307109
2.182  79.434694
2.181  79.554200
2.180  79.710775
2.179  79.774272
2.178  79.834655
2.177  79.882357
2.176  80.048957
2.175  80.169060
2.174  80.371527
2.173  80.351304
2.172  80.418835
2.171  80.500074
2.170  80.600311
2.169  80.724230
2.168  80.749168
2.167  80.782801
2.166  80.911949
2.165  80.931260
2.164  80.996379
2.163  81.164135
2.162  81.180296
2.161  81.265515
2.160  81.392897
2.159  81.425384
2.158  81.456659
2.157  81.459600
2.156  81.477852
2.155  81.591107
2.154  81.649324
2.153  81.659810
2.152  81.674835
2.151  81.753915
2.150  81.738221
2.149  81.820837
2.148  81.815690
2.147  81.792224
2.146  81.915692
2.145  81.882376
2.144  81.820009
2.143  81.847035
2.142  81.822397
2.141  81.809118
2.140  81.800151
2.139  81.833032
2.138  81.835433
2.137  81.863637
2.136  81.812223
2.135  81.843811
2.134  81.756253
2.133  81.671392
2.132  81.686679
2.131  81.680719
2.130  81.721366
2.129  81.716172
2.128  81.620566
2.127  81.609576
2.126  81.573858
2.125  81.540841
2.124  81.486998
2.123  81.416694
2.122  81.389339
2.121  81.346805
2.120  81.366695
2.119  81.255675
2.118  81.206071
2.117  81.169709
2.116  81.082534
2.115  81.089917
2.114  81.044771
2.113  80.983631
2.112  80.989823
2.111  80.896434
2.110  80.825925
2.109  80.837025
2.108  80.847384
2.107  80.751578
2.106  80.669123
2.105  80.666227
2.104  80.665646
2.103  80.588883
2.102  80.504561
2.101  80.466161
2.100  80.471852
2.099  80.503547
2.098  80.491910
2.097  80.473577
2.096  80.544642
2.095  80.604083
2.094  80.576129
2.093  80.535343
2.092  80.532933
2.091  80.548490
2.090  80.575200
2.089  80.594932
2.088  80.646972
2.087  80.654255
2.086  80.654485
2.085  80.723978
2.084  80.712372
2.083  80.648395
2.082  80.624173
2.081  80.713330
2.080  80.691737
2.079  80.647651
2.078  80.706606
2.077  80.740742
2.076  80.745304
2.075  80.691017
2.074  80.748127
2.073  80.777496
2.072  80.744324
2.071  80.747140
2.070  80.738473
2.069  80.760862
2.068  80.835120
2.067  80.869695
2.066  80.793659
2.065  80.776927
2.064  80.791912
2.063  80.846220
2.062  80.863162
2.061  80.835940
2.060  80.869062
2.059  80.826551
2.058  80.836599
2.057  80.913114
2.056  80.904122
2.055  80.848170
2.054  80.857321
2.053  80.848231
2.052  80.879221
2.051  80.919165
2.050  80.922927
2.049  80.843483
2.048  80.837309
2.047  80.865118
2.046  80.843532
2.045  80.859499
2.044  80.900366
2.043  80.870221
2.042  80.888352
2.041  80.907576
2.040  80.884992
2.039  80.938055
2.038  80.940471
2.037  80.881981
2.036  80.869413
2.035  80.845236
2.034  80.805817
2.033  80.821852
2.032  80.872839
2.031  80.826472
2.030  80.837408
2.029  80.792716
2.028  80.780859
2.027  80.802461
2.026  80.701153
2.025  80.740025
2.024  80.716320
2.023  80.649949
2.022  80.622743
2.021  80.657424
2.020  80.702300
2.019  80.683240
2.018  80.632696
2.017  80.647184
2.016  80.694996
2.015  80.628680
2.014  80.604162
2.013  80.600265
2.012  80.600769
2.011  80.530254
2.010  80.574238
2.009  80.477611
2.008  80.523909
2.007  80.564878
2.006  80.542027
2.005  80.443311
2.004  80.500035
2.003  80.493401
2.002  80.451220
2.001  80.368390
2.000  80.421639
1.999  80.417660
1.998  80.368814
1.997  80.342964
1.996  80.287891
1.995  80.277541
1.994  80.231013
1.993  80.206190
1.992  80.257310
1.991  80.170939
1.990  80.137692
1.989  80.111925
1.988  80.113810
1.987  80.049100
1.986  80.002873
1.985  80.052953
1.984  79.964455
1.983  79.907845
1.982  79.987434
1.981  79.861445
1.980  79.825366
1.979  79.767752
1.978  79.808161
1.977  79.748471
1.976  79.733883
1.975  79.725851
1.974  79.665083
1.973  79.745918
1.972  79.709646
1.971  79.636455
1.970  79.606992
1.969  79.581189
1.968  79.580529
1.967  79.512348
1.966  79.407414
1.965  79.500529
1.964  79.526308
1.963  79.475699
1.962  79.447747
1.961  79.427371
1.960  79.373502
1.959  79.367137
1.958  79.367727
1.957  79.299492
1.956  79.378417
1.955  79.305034
1.954  79.297511
1.953  79.376792
1.952  79.248102
1.951  79.285858
1.950  79.223760
1.949  79.208563
1.948  79.201709
1.947  79.198166
1.946  79.166485
1.945  79.114333
1.944  79.159723
1.943  79.141499
1.942  79.095656
1.941  79.107888
1.940  79.084696
1.939  79.059660
1.938  79.035558
1.937  79.032265
1.936  78.951717
1.935  79.003939
1.934  78.925371
1.933  78.962935
1.932  78.879673
1.931  78.917566
1.930  78.819350
1.929  78.784162
1.928  78.852181
1.927  78.666357
1.926  78.658018
1.925  78.758796
1.924  78.709020
1.923  78.647052
1.922  78.550306
1.921  78.534824
1.920  78.512130
1.919  78.463248
1.918  78.479287
1.917  78.403780
1.916  78.481244
1.915  78.412756
1.914  78.415110
1.913  78.377502
1.912  78.359826
1.911  78.387476
1.910  78.410409
1.909  78.416467
1.908  78.478595
1.907  78.467682
1.906  78.523976
1.905  78.632037
1.904  78.774627
1.903  78.759842
1.902  78.941468
1.901  79.035631
1.900  79.269009
1.899  79.321979
1.898  79.412553
1.897  79.522781
1.896  79.740543
1.895  79.780347
1.894  79.913823
1.893  79.953947
1.892  80.070873
1.891  80.173934
1.890  80.253904
1.889  80.377327
1.888  80.369565
1.887  80.424808
1.886  80.572433
1.885  80.638009
1.884  80.641080
1.883  80.697303
1.882  80.775291
1.881  80.741290
1.880  80.829826
1.879  80.783466
1.878  80.878062
1.877  80.836419
1.876  80.868305
1.875  80.879439
1.874  80.939920
1.873  80.904556
1.872  81.002963
1.871  80.985364
1.870  81.042249
1.869  81.064367
1.868  81.047563
1.867  80.990413
1.866  81.041165
1.865  81.116145
1.864  81.095379
1.863  81.091429
1.862  81.050439
1.861  81.070264
1.860  81.207099
1.859  81.080785
1.858  81.115270
1.857  81.071234
1.856  81.132041
1.855  81.138342
1.854  81.149125
1.853  81.154732
1.852  81.133071
1.851  81.096330
1.850  81.152427
1.849  81.162663
1.848  81.131261
1.847  81.127228
1.846  81.109935
1.845  81.075546
1.844  81.130048
1.843  81.175101
1.842  81.167948
1.841  81.079164
1.840  81.089527
1.839  81.060062
1.838  81.090786
1.837  81.107522
1.836  81.100379
1.835  81.069202
1.834  81.149680
1.833  81.039431
1.832  81.075905
1.831  81.036034
1.830  81.091320
1.829  81.074649
1.828  81.050129
1.827  81.095086
1.826  81.130326
1.825  81.098603
1.824  81.071623
1.823  81.018598
1.822  81.018385
1.821  80.971233
1.820  81.000201
1.819  81.105094
1.818  81.113302
1.817  81.086653
1.816  81.073909
1.815  81.044745
1.814  81.040955
1.813  81.061699
1.812  81.042288
1.811  81.058306
1.810  81.110364
1.809  81.069630
1.808  81.090441
1.807  81.072401
1.806  81.037649
1.805  81.041559
1.804  81.032864
1.803  81.057749
1.802  81.069848
1.801  81.053417
1.800  81.000016
1.799  81.027037
1.798  81.004064
1.797  80.970221
1.796  80.985537
1.795  81.048808
1.794  81.074684
1.793  81.010288
1.792  80.984484
1.791  80.997242
1.790  80.987493
1.789  81.005888
1.788  80.968548
1.787  80.924062
1.786  80.912818
1.785  80.923785
1.784  80.937710
1.783  80.950046
1.782  80.968449
1.781  80.970315
1.780  80.970670
1.779  80.939910
1.778  80.908528
1.777  80.887740
1.776  80.908408
1.775  80.907747
1.774  80.851200
1.773  80.857029
1.772  80.879383
1.771  80.879590
1.770  80.873563
1.769  80.894604
1.768  80.819578
1.767  80.795586
1.766  80.811969
1.765  80.819611
1.764  80.822746
1.763  80.821782
1.762  80.773529
1.761  80.794248
1.760  80.842085
1.759  80.807573
1.758  80.746103
1.757  80.750445
1.756  80.782634
1.755  80.810356
1.754  80.734263
1.753  80.731321
1.752  80.782123
1.751  80.835514
1.750  80.820699
1.749  80.830736
1.748  80.853915
1.747  80.868523
1.746  80.837439
1.745  80.845011
1.744  80.880145
1.743  80.802095
1.742  80.790518
1.741  80.804558
1.740  80.798294
1.739  80.829821
1.738  80.851117
1.737  80.824698
1.736  80.829032
1.735  80.847099
1.734  80.845037
1.733  80.834288
1.732  80.821339
1.731  80.792478
1.730  80.783562
1.729  80.858012
1.728  80.835958
1.727  80.788157
1.726  80.821483
1.725  80.872685
1.724  80.786107
1.723  80.786624
1.722  80.793261
1.721  80.753244
1.720  80.800906
1.719  80.779946
1.718  80.778551
1.717  80.766258
1.716  80.736005
1.715  80.759024
1.714  80.755363
1.713  80.818180
1.712  80.695905
1.711  80.736676
1.710  80.679407
1.709  80.689674
1.708  80.722597
1.707  80.731733
1.706  80.707021
1.705  80.633558
1.704  80.644593
1.703  80.640796
1.702  80.629940
1.701  80.637285
1.700  80.633244
1.699  80.621765
1.698  80.634980
1.697  80.637586
1.696  80.596926
1.695  80.561110
1.694  80.616938
1.693  80.627667
1.692  80.615049
1.691  80.622300
1.690  80.564159
1.689  80.607478
1.688  80.584916
1.687  80.582984
1.686  80.521777
1.685  80.599994
1.684  80.577354
1.683  80.590683
1.682  80.479420
1.681  80.501712
1.680  80.567226
1.679  80.518157
1.678  80.511072
1.677  80.542262
1.676  80.494396
1.675  80.467692
1.674  80.439051
1.673  80.501583
1.672  80.529627
1.671  80.472675
1.670  80.468445
1.669  80.511677
1.668  80.469613
1.667  80.441782
1.666  80.428004
1.665  80.488949
1.664  80.417857
1.663  80.424169
1.662  80.473120
1.661  80.529257
1.660  80.454049
1.659  80.377197
1.658  80.286374
1.657  80.504658
1.656  80.376104
1.655  80.340564
1.654  80.367121
1.653  80.289820
1.652  80.365548
1.651  80.375975
1.650  80.288827
1.649  80.322975
1.648  80.261227
1.647  80.270171
1.646  80.332643
1.645  80.244076
1.644  80.309048
1.643  80.239982
1.642  80.256817
1.641  80.317009
1.640  80.264700
1.639  80.235987
1.638  80.214537
1.637  80.208083
1.636  80.178878
1.635  80.186617
1.634  80.170218
1.633  80.168147
1.632  80.232291
1.631  80.181862
1.630  80.159262
1.629  80.206881
1.628  80.203329
1.627  80.183718
1.626  80.056052
1.625  80.162267
1.624  80.071441
1.623  80.113681
1.622  80.067371
1.621  80.118812
1.620  80.154486
1.619  80.063187
1.618  80.050095
1.617  80.130639
1.616  80.067934
1.615  79.965015
1.614  79.995160
1.613  80.051030
1.612  80.007837
1.611  79.946713
1.610  79.934761
1.609  79.889264
1.608  79.970678
1.607  79.896018
1.606  79.847399
1.605  79.866949
1.604  79.778419
1.603  79.843415
1.602  79.862907
1.601  79.849784
1.600  79.864237
1.599  79.820900
1.598  79.883698
1.597  79.907221
1.596  79.869414
1.595  79.793465
1.594  79.724105
1.593  79.658106
1.592  79.684770
1.591  79.603520
1.590  79.642868
1.589  79.698663
1.588  79.615818
1.587  79.609536
1.586  79.645498
1.585  79.540093
1.584  79.556918
1.583  79.564128
1.582  79.584969
1.581  79.607903
1.580  79.481249
1.579  79.516579
1.578  79.472528
1.577  79.431086
1.576  79.448271
1.575  79.493465
1.574  79.425185
1.573  79.419319
1.572  79.359581
1.571  79.322866
1.570  79.325128
1.569  79.345153
1.568  79.335757
1.567  79.355311
1.566  79.327722
1.565  79.284946
1.564  79.221725
1.563  79.137083
1.562  79.194794
1.561  79.239984
1.560  79.177786
1.559  79.122420
1.558  79.110671
1.557  79.167744
1.556  79.082054
1.555  79.019155
1.554  79.055888
1.553  79.026450
1.552  78.951036
1.551  78.902818
1.550  78.892224
1.549  78.909936
1.548  78.850319
1.547  78.844603
1.546  78.811110
1.545  78.845371
1.544  78.764999
1.543  78.735630
1.542  78.742835
1.541  78.745604
1.540  78.738574
1.539  78.655660
1.538  78.699832
1.537  78.671846
1.536  78.633208
1.535  78.623748
1.534  78.598070
1.533  78.594250
1.532  78.517243
1.531  78.493642
1.530  78.487991
1.529  78.465234
1.528  78.431983
1.527  78.380797
1.526  78.402870
1.525  78.423540
1.524  78.340742
1.523  78.253292
1.522  78.237612
1.521  78.216709
1.520  78.236406
1.519  78.196759
1.518  78.092108
1.517  78.119268
1.516  78.145116
1.515  78.120301
1.514  78.085053
1.513  78.090134
1.512  78.030205
1.511  77.994655
1.510  77.958379
1.509  77.919146
1.508  77.888559
1.507  77.891870
1.506  77.926849
1.505  77.881621
1.504  77.793999
1.503  77.759535
1.502  77.725361
1.501  77.638306
1.500  77.679019
1.499  77.678015
1.498  77.595700
1.497  77.621345
1.496  77.611600
1.495  77.550991
1.494  77.563766
1.493  77.541568
1.492  77.532327
1.491  77.527108
1.490  77.455099
1.489  77.403948
1.488  77.360159
1.487  77.300114
1.486  77.277587
1.485  77.282342
1.484  77.291440
1.483  77.235561
1.482  77.151165
1.481  77.165297
1.480  77.199004
1.479  77.152719
1.478  77.062003
1.477  77.102465
1.476  77.097006
1.475  76.965322
1.474  76.942623
1.473  76.887800
1.472  76.826079
1.471  76.840994
1.470  76.901258
1.469  76.836358
1.468  76.788009
1.467  76.813646
1.466  76.730436
1.465  76.668372
1.464  76.691941
1.463  76.684506
1.462  76.646319
1.461  76.585265
1.460  76.523480
1.459  76.439437
1.458  76.498835
1.457  76.476205
1.456  76.467995
1.455  76.465497
1.454  76.427157
1.453  76.404990
1.452  76.401747
1.451  76.358185
1.450  76.319221
1.449  76.302673
1.448  76.209869
1.447  76.227404
1.446  76.295099
1.445  76.207160
1.444  76.138386
1.443  76.107664
1.442  76.131279
1.441  76.037689
1.440  75.978612
1.439  75.938570
1.438  75.918684
1.437  75.817675
1.436  75.860526
1.435  75.817589
1.434  75.792632
1.433  75.726484
1.432  75.672804
1.431  75.646910
1.430  75.651033
1.429  75.544575
1.428  75.493134
1.427  75.348322
1.426  75.327007
1.425  75.279614
1.424  75.217306
1.423  75.148739
1.422  75.055155
1.421  74.918234
1.420  74.904019
1.419  74.741188
1.418  74.649995
