Name: Cookeite LiAl_4(Si_3Al)O_10(OH)_8
Type: Mineral
Class: Silicates
Subclass: Phyllosilicates
Particle Size: 45-125um
Sample No.: PS-9A
Owner: JPL
Wavelength range: IR
Origin: USA, Arkansas, Pulaski County
Collected by JPL
Description: 





Measurement: Hemispherical reflectance
First Column: X
Second Column: Y
X Units:  Wavelength (micrometers)
Y Units:  Reflectance (percent)
First X Value: 15.3853
Last X Value: 2.00032
Number of X Values: 2256
Additional information: ps09aa.txt
 
15.3853	4.80143
15.3397	4.54008
15.2945	4.45288
15.2495	4.39403
15.2048	4.42172
15.1603	4.42929
15.1161	4.31987
15.0722	4.19487
15.0285	4.08325
14.9851	4.1228
14.9419	4.02494
14.8989	3.90636
14.8563	3.91091
14.8138	4.03179
14.7716	4.16672
14.7296	4.0968
14.6879	4.09631
14.6464	4.10426
14.6052	4.03564
14.5641	3.9147
14.5233	3.80095
14.4828	3.76779
14.4424	3.70129
14.4023	3.62515
14.3624	3.68088
14.3227	3.74951
14.2833	3.83919
14.244	3.86525
14.205	3.90143
14.1662	3.79801
14.1276	3.67972
14.0892	3.77952
14.051	3.92121
14.0131	4.02528
13.9753	4.0588
13.9377	4.14292
13.9004	4.29509
13.8632	4.36246
13.8262	4.32516
13.7895	4.34652
13.7529	4.63716
13.7165	4.75299
13.6803	4.48026
13.6443	4.43241
13.6085	4.42506
13.5729	4.12068
13.5374	3.80347
13.5022	3.70983
13.4671	3.67761
13.4322	3.70475
13.3975	3.61116
13.363	3.47504
13.3286	3.34792
13.2944	3.24531
13.2604	3.25708
13.2266	3.39272
13.193	3.47621
13.1595	3.33682
13.1262	3.04541
13.093	2.98389
13.06	2.93309
13.0272	2.77504
12.9946	2.79464
12.9621	3.03892
12.9298	3.11201
12.8976	3.09899
12.8656	3.26666
12.8337	3.44418
12.8021	3.50734
12.7705	3.46112
12.7391	3.57018
12.7079	3.68274
12.6769	3.58396
12.6459	3.48646
12.6152	3.34861
12.5845	3.61912
12.5541	3.91371
12.5238	3.81784
12.4936	3.65924
12.4635	3.51471
12.4337	3.44322
12.4039	3.37661
12.3743	3.25556
12.3448	3.05803
12.3155	2.82907
12.2863	2.74294
12.2573	2.6894
12.2284	2.73457
12.1996	2.69365
12.171	2.6196
12.1425	2.84974
12.1141	3.007
12.0859	2.93641
12.0578	2.99885
12.0298	3.07206
12.0019	3.17863
11.9742	3.24533
11.9466	3.33097
11.9192	3.42031
11.8918	3.54566
11.8646	3.65919
11.8375	4.01685
11.8106	4.23698
11.7837	4.39221
11.757	4.60327
11.7304	4.85464
11.7039	5.09569
11.6776	5.2906
11.6513	5.36984
11.6252	5.58156
11.5992	5.82947
11.5733	5.95606
11.5475	6.0248
11.5219	6.15505
11.4963	6.34811
11.4709	6.46205
11.4455	6.59766
11.4203	6.82363
11.3952	7.09077
11.3702	7.33041
11.3454	7.39996
11.3206	7.37479
11.2959	7.18415
11.2714	7.11099
11.2469	7.26618
11.2226	7.50565
11.1983	7.66005
11.1742	7.63599
11.1502	7.77317
11.1263	7.9197
11.1024	7.90741
11.0787	8.04614
11.0551	8.19985
11.0316	8.29304
11.0081	8.26854
10.9848	8.29953
10.9616	8.39953
10.9385	8.44812
10.9154	8.45589
10.8925	8.38012
10.8697	8.20449
10.8469	8.16379
10.8243	8.24385
10.8017	8.23942
10.7793	8.17926
10.7569	8.34821
10.7346	8.58467
10.7125	8.75558
10.6904	8.82538
10.6684	8.87751
10.6465	8.87964
10.6247	8.9449
10.6029	8.92805
10.5813	8.8517
10.5597	8.96459
10.5383	8.964
10.5169	8.86738
10.4956	8.85524
10.4744	8.93653
10.4533	9.0861
10.4323	9.25318
10.4113	9.57397
10.3904	10.0406
10.3697	10.3999
10.349	10.7373
10.3284	11.0455
10.3078	11.3635
10.2874	11.8544
10.267	12.2873
10.2467	12.5935
10.2265	12.7708
10.2064	13.0133
10.1863	13.2707
10.1663	13.4499
10.1464	13.6951
10.1266	13.9946
10.1069	14.2725
10.0872	14.5588
10.0676	14.932
10.0481	15.2275
10.0287	15.6192
10.0093	16.0534
9.99005	16.5929
9.97084	17.3435
9.95169	18.3247
9.93263	19.2364
9.91364	19.881
9.89472	20.3998
9.87587	20.7616
9.8571	21.0453
9.83839	21.2832
9.81976	21.336
9.80119	21.306
9.78271	21.1746
9.76428	21.0181
9.74592	21.0501
9.72764	21.4099
9.70943	21.9117
9.69128	22.1736
9.6732	22.2725
9.65518	22.1771
9.63724	21.7587
9.61935	21.3528
9.60155	21.2669
9.5838	21.6168
9.56611	21.9005
9.5485	22.3616
9.53094	22.9881
9.51345	23.7775
9.49604	24.777
9.47867	25.6937
9.46137	26.4565
9.44414	27.4083
9.42697	28.2412
9.40986	28.9679
9.39281	29.6988
9.37583	30.293
9.35891	30.6133
9.34204	30.7758
9.32524	30.8593
9.3085	30.8279
9.29182	30.7481
9.27519	30.6254
9.25863	30.4603
9.24213	30.3339
9.22568	30.1746
9.2093	30.1563
9.19297	30.1687
9.17669	30.1522
9.16048	30.0434
9.14433	29.9286
9.12823	29.7011
9.11218	29.4605
9.0962	29.1126
9.08027	28.4737
9.06439	27.6461
9.04858	26.6322
9.03281	25.4249
9.0171	24.0005
9.00145	22.5238
8.98585	21.7425
8.9703	21.772
8.9548	21.9756
8.93937	21.9083
8.92398	21.7761
8.90865	21.6284
8.89337	21.0826
8.87814	20.2904
8.86296	19.6661
8.84784	19.1092
8.83277	18.3573
8.81774	17.4806
8.80277	16.6583
8.78786	15.8579
8.77298	15.1673
8.75816	14.4142
8.7434	13.5381
8.72868	12.7461
8.714	12.0511
8.69938	11.3671
8.68481	10.6072
8.67029	9.84322
8.65581	9.00416
8.64139	8.22559
8.62701	7.74819
8.61268	7.70903
8.5984	7.64946
8.58416	7.55722
8.56997	7.65636
8.55583	7.67336
8.54174	7.55981
8.52769	7.29925
8.51368	7.08802
8.49973	6.89396
8.48582	6.80818
8.47195	6.71381
8.45813	6.52844
8.44436	6.49753
8.43062	6.31905
8.41693	6.10923
8.4033	5.96329
8.3897	5.94483
8.37614	6.03717
8.36264	5.93068
8.34917	5.70953
8.33574	5.68411
8.32236	5.76031
8.30903	5.58372
8.29573	5.53764
8.28248	5.66883
8.26927	5.61546
8.2561	5.64017
8.24298	5.67439
8.2299	5.58574
8.21685	5.57361
8.20385	5.54256
8.19089	5.43813
8.17797	5.27963
8.16509	5.07485
8.15225	4.86123
8.13946	4.58142
8.1267	4.3689
8.11398	4.1473
8.10131	3.98647
8.08867	3.84568
8.07606	3.47563
8.0635	3.26619
8.05099	3.1277
8.0385	2.96992
8.02606	2.87271
8.01366	2.72729
8.00129	2.59357
7.98896	2.51603
7.97667	2.41178
7.96442	2.35393
7.9522	2.38112
7.94002	2.34585
7.92788	2.3168
7.91578	2.26139
7.90371	2.13692
7.89168	2.01578
7.87969	2.06092
7.86773	2.15749
7.85581	2.1937
7.84392	2.17382
7.83207	2.10165
7.82026	2.11332
7.80849	2.20718
7.79674	2.21855
7.78503	2.23318
7.77337	2.35378
7.76173	2.45641
7.75012	2.39462
7.73856	2.33404
7.72703	2.41968
7.71553	2.54711
7.70406	2.64795
7.69263	2.62137
7.68123	2.55795
7.66987	2.52777
7.65855	2.66429
7.64725	2.8269
7.63598	2.90525
7.62475	2.90075
7.61356	2.88305
7.60239	2.92646
7.59126	3.12969
7.58017	3.29012
7.5691	3.27136
7.55806	3.27054
7.54707	3.37511
7.5361	3.41013
7.52516	3.49557
7.51425	3.55674
7.50338	3.61765
7.49253	3.56903
7.48172	3.6835
7.47094	3.80305
7.46019	3.76599
7.44947	3.78255
7.43879	3.86044
7.42813	3.87457
7.4175	3.9277
7.4069	4.13479
7.39634	4.1931
7.3858	4.20013
7.37529	4.23839
7.36482	4.31409
7.35437	4.379
7.34396	4.37001
7.33357	4.37748
7.32321	4.51243
7.31288	4.6311
7.30258	4.67085
7.29231	4.64573
7.28207	4.72023
7.27185	4.73586
7.26167	4.80412
7.25152	4.9164
7.24139	4.92114
7.23129	5.01092
7.22122	5.0678
7.21117	5.14308
7.20116	5.21936
7.19117	5.24847
7.18121	5.22732
7.17128	5.318
7.16137	5.38917
7.1515	5.39149
7.14164	5.44404
7.13182	5.54215
7.12203	5.6958
7.11225	5.79518
7.10251	5.79556
7.0928	5.77471
7.08311	5.85772
7.07344	5.94616
7.06381	5.97187
7.0542	6.02736
7.04461	6.0633
7.03506	6.08657
7.02552	6.10344
7.01601	6.16525
7.00653	6.28686
6.99708	6.38729
6.98765	6.43673
6.97824	6.4357
6.96886	6.51866
6.95951	6.6481
6.95018	6.7023
6.94087	6.73161
6.9316	6.73364
6.92234	6.76213
6.91311	6.77376
6.90391	6.86953
6.89473	7.0435
6.88557	7.06066
6.87644	7.05988
6.86733	7.12899
6.85824	7.08018
6.84918	7.09881
6.84015	7.27083
6.83114	7.37452
6.82215	7.3318
6.81319	7.29936
6.80424	7.42178
6.79532	7.52593
6.78643	7.56295
6.77756	7.54627
6.76871	7.54084
6.75989	7.53833
6.75109	7.59936
6.74231	7.68083
6.73355	7.72236
6.72482	7.68623
6.71611	7.68635
6.70742	7.73096
6.69875	7.74575
6.69011	7.80898
6.68149	7.88625
6.67289	7.92453
6.66431	8.0824
6.65576	8.17806
6.64722	8.21463
6.63871	8.26056
6.63022	8.25693
6.62175	8.27978
6.61331	8.30762
6.60488	8.32913
6.59648	8.36714
6.5881	8.38898
6.57974	8.42955
6.5714	8.47508
6.56308	8.44465
6.55478	8.28384
6.54651	8.28331
6.53825	8.42156
6.53001	8.59919
6.5218	8.68386
6.51361	8.73731
6.50544	8.84514
6.49729	8.9333
6.48915	9.06023
6.48104	9.1635
6.47295	9.2278
6.46488	9.29944
6.45683	9.40734
6.4488	9.46786
6.44079	9.51603
6.4328	9.55127
6.42482	9.54619
6.41687	9.5068
6.40894	9.51267
6.40103	9.55845
6.39314	9.59419
6.38526	9.52093
6.37741	9.41389
6.36957	9.375
6.36176	9.35786
6.35396	9.41431
6.34618	9.50379
6.33843	9.51113
6.33069	9.4057
6.32297	9.341
6.31527	9.3503
6.30758	9.30186
6.29992	9.25204
6.29227	9.29841
6.28465	9.26062
6.27704	9.14613
6.26945	9.16173
6.26188	9.20871
6.25432	9.1506
6.24679	9.07956
6.23927	9.02583
6.23177	9.03449
6.22429	9.00354
6.21683	8.99914
6.20938	9.02993
6.20195	9.07634
6.19454	9.09028
6.18715	9.05434
6.17978	8.98008
6.17242	8.99268
6.16508	9.11282
6.15776	9.11478
6.15045	9.14078
6.14317	9.23234
6.1359	9.33729
6.12864	9.41339
6.12141	9.50428
6.11419	9.60938
6.10699	9.64086
6.0998	9.7041
6.09263	9.68967
6.08549	9.63093
6.07835	9.686
6.07123	9.73388
6.06413	9.7381
6.05705	9.73664
6.04998	9.73244
6.04293	9.70536
6.0359	9.70035
6.02888	9.73578
6.02187	9.82537
6.01489	9.8124
6.00792	9.72911
6.00096	9.63337
5.99403	9.64809
5.98711	9.62545
5.9802	9.59818
5.97331	9.58768
5.96644	9.57372
5.95958	9.50139
5.95274	9.48131
5.94591	9.61171
5.9391	9.71043
5.9323	9.75076
5.92552	9.74288
5.91876	9.77824
5.91201	9.87123
5.90528	9.83795
5.89856	9.89994
5.89186	10.0366
5.88517	10.2024
5.8785	10.3299
5.87184	10.4082
5.8652	10.4811
5.85857	10.5358
5.85196	10.6531
5.84536	10.7095
5.83878	10.8596
5.83221	10.9561
5.82566	11.0483
5.81912	11.1245
5.81259	11.0966
5.80608	11.1429
5.79959	11.2464
5.79311	11.3147
5.78665	11.4
5.78019	11.5119
5.77376	11.6748
5.76734	11.7226
5.76093	11.6973
5.75453	11.7878
5.74815	11.8119
5.74179	11.8253
5.73543	11.8571
5.7291	11.9533
5.72277	12.0512
5.71646	12.0205
5.71017	11.9476
5.70389	11.9438
5.69762	11.9427
5.69136	11.945
5.68513	11.9409
5.6789	11.8986
5.67268	11.8184
5.66648	11.7885
5.6603	11.7755
5.65413	11.6546
5.64797	11.6265
5.64182	11.5793
5.63569	11.4141
5.62957	11.2466
5.62347	11.1946
5.61737	11.1192
5.61129	11.056
5.60522	10.9942
5.59917	10.9956
5.59313	11.0157
5.5871	11.0322
5.58109	10.9939
5.57509	10.8586
5.5691	10.8484
5.56312	10.9879
5.55716	11.0321
5.55121	11.0019
5.54528	10.9871
5.53935	10.9545
5.53344	10.8993
5.52754	10.9163
5.52166	11.0092
5.51578	11.0983
5.50992	11.1205
5.50407	11.1669
5.49823	11.1614
5.49241	11.1646
5.4866	11.2126
5.4808	11.2805
5.47501	11.3794
5.46923	11.3544
5.46347	11.3397
5.45772	11.4441
5.45198	11.4283
5.44625	11.3716
5.44054	11.4097
5.43484	11.4873
5.42914	11.4599
5.42347	11.3763
5.4178	11.2598
5.41214	11.0697
5.4065	10.9773
5.40087	10.9301
5.39525	10.8691
5.38964	10.7905
5.38404	10.7075
5.37846	10.6746
5.37288	10.7145
5.36732	10.722
5.36177	10.6349
5.35623	10.6406
5.35071	10.7268
5.34519	10.7401
5.33968	10.7777
5.33419	10.7909
5.32871	10.7665
5.32324	10.8929
5.31778	11.0418
5.31233	11.0869
5.30689	11.1902
5.30147	11.3275
5.29605	11.3885
5.29065	11.4181
5.28525	11.5084
5.27987	11.6529
5.2745	11.7767
5.26914	11.869
5.26379	11.9816
5.25845	12.1489
5.25312	12.3045
5.24781	12.5284
5.2425	12.6781
5.23721	12.8056
5.23192	12.9742
5.22665	13.1218
5.22138	13.3232
5.21613	13.6126
5.21089	13.7932
5.20566	13.8904
5.20044	13.9851
5.19522	14.0777
5.19002	14.212
5.18483	14.295
5.17965	14.3488
5.17448	14.4643
5.16933	14.5636
5.16418	14.5957
5.15904	14.6878
5.15391	14.7324
5.14879	14.8175
5.14368	14.9687
5.13859	14.9706
5.1335	14.987
5.12842	15.0933
5.12335	15.1729
5.1183	15.2413
5.11325	15.2913
5.10821	15.397
5.10318	15.4369
5.09817	15.4312
5.09316	15.4669
5.08816	15.4717
5.08317	15.4077
5.07819	15.4288
5.07322	15.4776
5.06826	15.4438
5.06331	15.4155
5.05837	15.4966
5.05344	15.6284
5.04852	15.7143
5.04361	15.7083
5.03871	15.6649
5.03382	15.657
5.02894	15.7425
5.02406	15.7786
5.0192	15.7753
5.01435	15.8055
5.0095	15.8696
5.00467	15.905
4.99984	15.9128
4.99502	15.9141
4.99021	15.9762
4.98542	16.0452
4.98063	16.0701
4.97585	16.2274
4.97108	16.3904
4.96632	16.498
4.96156	16.6336
4.95682	16.7316
4.95209	16.8232
4.94736	16.8789
4.94264	16.894
4.93794	16.9344
4.93324	16.9508
4.92855	16.9777
4.92387	17.0551
4.9192	17.2649
4.91453	17.4747
4.90988	17.56
4.90524	17.6389
4.9006	17.8581
4.89597	18.1117
4.89135	18.2387
4.88674	18.2985
4.88214	18.4066
4.87755	18.5446
4.87296	18.6401
4.86839	18.7393
4.86382	18.8427
4.85926	18.9191
4.85471	18.963
4.85017	19.0003
4.84564	19.0359
4.84111	19.0352
4.8366	19.0259
4.83209	19.1351
4.82759	19.2097
4.8231	19.2776
4.81862	19.4023
4.81415	19.4754
4.80968	19.5141
4.80522	19.4963
4.80077	19.5529
4.79633	19.5767
4.7919	19.583
4.78747	19.5964
4.78306	19.5639
4.77865	19.6255
4.77425	19.7029
4.76986	19.7138
4.76547	19.7844
4.7611	19.8159
4.75673	19.8707
4.75237	19.9773
4.74802	19.9988
4.74367	20.021
4.73934	20.0527
4.73501	20.1104
4.73069	20.1779
4.72638	20.266
4.72207	20.4318
4.71777	20.5588
4.71348	20.5358
4.7092	20.585
4.70493	20.716
4.70066	20.7666
4.69641	20.7469
4.69216	20.8182
4.68791	20.9212
4.68368	21.027
4.67945	21.1361
4.67523	21.2651
4.67102	21.3872
4.66682	21.5371
4.66262	21.7065
4.65843	21.8792
4.65425	22.0296
4.65007	22.1894
4.64591	22.3151
4.64175	22.4466
4.6376	22.6462
4.63345	22.8537
4.62932	23.02
4.62519	23.1595
4.62106	23.3052
4.61695	23.4694
4.61284	23.6228
4.60874	23.7232
4.60465	23.9251
4.60056	24.0891
4.59648	24.2469
4.59241	24.3133
4.58835	24.396
4.58429	24.5659
4.58024	24.7193
4.5762	24.88
4.57216	25.0201
4.56814	25.1471
4.56411	25.3074
4.5601	25.4405
4.55609	25.5868
4.55209	25.7433
4.5481	25.9199
4.54411	26.0539
4.54013	26.1697
4.53616	26.2521
4.5322	26.3547
4.52824	26.4576
4.52429	26.5616
4.52034	26.6996
4.51641	26.8579
4.51247	26.9801
4.50855	27.1298
4.50463	27.2184
4.50072	27.3419
4.49682	27.485
4.49292	27.6046
4.48903	27.8034
4.48515	28.0088
4.48127	28.2467
4.4774	28.4807
4.47354	28.5731
4.46968	28.6461
4.46584	28.8008
4.46199	29.0322
4.45815	29.3065
4.45432	29.5106
4.4505	29.6773
4.44668	29.8247
4.44287	30.0181
4.43907	30.1823
4.43527	30.2573
4.43148	30.4654
4.4277	30.8166
4.42392	31.055
4.42015	31.24
4.41638	31.4899
4.41262	31.7626
4.40887	32.1266
4.40513	32.4619
4.40139	32.7566
4.39765	33.1068
4.39393	33.4547
4.39021	33.7449
4.38649	34.048
4.38278	34.3515
4.37908	34.6434
4.37539	34.8957
4.3717	35.1137
4.36801	35.3296
4.36434	35.5951
4.36067	35.818
4.357	35.9356
4.35335	36.0567
4.34969	36.2895
4.34605	36.5043
4.34241	36.6167
4.33877	36.6757
4.33514	36.7801
4.33152	36.908
4.32791	37.021
4.3243	37.0708
4.32069	37.1898
4.3171	37.335
4.31351	37.4333
4.30992	37.4997
4.30634	37.4756
4.30277	37.454
4.2992	37.5022
4.29564	37.6505
4.29208	37.7182
4.28853	37.6777
4.28499	37.769
4.28145	37.912
4.27792	37.8842
4.27439	37.8347
4.27087	37.9181
4.26735	37.9552
4.26384	38.1249
4.26034	38.4016
4.25684	38.5354
4.25335	38.5568
4.24986	38.6249
4.24638	38.613
4.24291	38.5811
4.23944	38.5703
4.23598	38.6475
4.23252	38.7454
4.22906	38.851
4.22562	38.9504
4.22218	39.0322
4.21874	39.128
4.21531	39.2119
4.21189	39.3005
4.20847	39.3601
4.20506	39.3585
4.20165	39.4187
4.19825	39.4571
4.19485	39.4511
4.19146	39.5335
4.18807	39.6726
4.18469	39.7499
4.18132	39.8333
4.17795	39.8181
4.17458	39.7917
4.17123	39.8996
4.16787	40.0151
4.16453	40.0544
4.16118	40.1163
4.15785	40.1368
4.15451	40.1353
4.15119	40.1852
4.14787	40.2598
4.14455	40.2829
4.14124	40.3219
4.13794	40.365
4.13464	40.4015
4.13134	40.4274
4.12805	40.4465
4.12477	40.4511
4.12149	40.5138
4.11822	40.6033
4.11495	40.6916
4.11168	40.6848
4.10843	40.6344
4.10517	40.6056
4.10192	40.6375
4.09868	40.755
4.09545	40.8397
4.09221	40.7792
4.08899	40.7728
4.08576	40.8564
4.08255	40.8794
4.07933	40.8534
4.07613	40.8701
4.07292	40.8906
4.06973	40.9209
4.06654	40.8932
4.06335	40.8943
4.06017	40.91
4.05699	40.9179
4.05382	40.8991
4.05065	40.8939
4.04749	40.9217
4.04433	40.8597
4.04118	40.7948
4.03803	40.8324
4.03489	40.8919
4.03175	40.8931
4.02862	40.8687
4.02549	40.8954
4.02237	40.9085
4.01925	40.8968
4.01614	40.8612
4.01303	40.8353
4.00993	40.8561
4.00683	40.9131
4.00373	40.9656
4.00064	40.9192
3.99756	40.895
3.99448	40.9919
3.9914	41.0161
3.98833	40.993
3.98527	41.0162
3.98221	41.0206
3.97915	41.0228
3.9761	41.0344
3.97305	41.0262
3.97001	41.0174
3.96697	41.0358
3.96394	41.0978
3.96091	41.0987
3.95789	41.1035
3.95487	41.1122
3.95186	41.1402
3.94885	41.1836
3.94584	41.1957
3.94284	41.1059
3.93984	41.0217
3.93685	41.0338
3.93386	41.1075
3.93088	41.0983
3.9279	41.034
3.92493	41.0199
3.92196	40.9914
3.919	40.9461
3.91604	40.9169
3.91308	40.9376
3.91013	41.0182
3.90718	41.0435
3.90424	40.9232
3.9013	40.8353
3.89837	40.7905
3.89544	40.8037
3.89252	40.7924
3.8896	40.7383
3.88668	40.6869
3.88377	40.671
3.88086	40.6649
3.87796	40.6455
3.87506	40.5972
3.87217	40.582
3.86928	40.5552
3.86639	40.5875
3.86351	40.6065
3.86064	40.6033
3.85776	40.5401
3.8549	40.461
3.85203	40.4457
3.84917	40.4081
3.84631	40.3761
3.84346	40.3912
3.84062	40.3578
3.83777	40.3899
3.83494	40.3807
3.8321	40.2548
3.82927	40.2634
3.82644	40.362
3.82362	40.3189
3.82081	40.2083
3.81799	40.1408
3.81518	40.1435
3.81238	40.1761
3.80958	40.149
3.80678	40.0893
3.80399	40.0602
3.8012	40.0754
3.79841	40.0343
3.79563	40.0114
3.79286	39.9396
3.79008	39.8209
3.78731	39.8331
3.78455	39.8677
3.78179	39.8514
3.77903	39.7162
3.77628	39.5683
3.77353	39.5019
3.77079	39.5547
3.76805	39.6117
3.76531	39.5164
3.76258	39.4878
3.75985	39.444
3.75713	39.3785
3.7544	39.3849
3.75169	39.3373
3.74898	39.1909
3.74627	39.0291
3.74356	39.0069
3.74086	38.9708
3.73816	38.9226
3.73547	38.8397
3.73278	38.6901
3.7301	38.6456
3.72741	38.6721
3.72474	38.6355
3.72206	38.4783
3.71939	38.3408
3.71673	38.2941
3.71406	38.1982
3.71141	38.1691
3.70875	38.1383
3.7061	38.0315
3.70345	37.9165
3.70081	37.8686
3.69817	37.7579
3.69553	37.7348
3.6929	37.7782
3.69027	37.8634
3.68765	37.8097
3.68503	37.6848
3.68241	37.6692
3.6798	37.62
3.67719	37.579
3.67458	37.6059
3.67198	37.5832
3.66938	37.5098
3.66678	37.5017
3.66419	37.4904
3.66161	37.515
3.65902	37.4858
3.65644	37.4294
3.65387	37.3705
3.65129	37.3331
3.64872	37.3259
3.64616	37.2742
3.64359	37.2023
3.64103	37.1913
3.63848	37.2035
3.63593	37.1606
3.63338	37.0836
3.63084	36.9949
3.6283	36.911
3.62576	36.8923
3.62322	36.8939
3.62069	36.8325
3.61817	36.8182
3.61564	36.8112
3.61312	36.7438
3.61061	36.7151
3.6081	36.7016
3.60559	36.6189
3.60308	36.616
3.60058	36.6171
3.59808	36.5882
3.59558	36.5928
3.59309	36.5348
3.59061	36.4297
3.58812	36.3866
3.58564	36.3294
3.58316	36.3081
3.58069	36.2714
3.57822	36.2115
3.57575	36.1314
3.57328	36.039
3.57082	36.0303
3.56836	36.0825
3.56591	36.0274
3.56346	36.0008
3.56101	35.904
3.55857	35.7697
3.55613	35.731
3.55369	35.7608
3.55126	35.6827
3.54883	35.5699
3.5464	35.5403
3.54397	35.4771
3.54155	35.4097
3.53914	35.2859
3.53672	35.2544
3.53431	35.225
3.5319	35.1571
3.5295	35.0659
3.5271	35.0257
3.5247	34.8882
3.52231	34.7129
3.51991	34.6303
3.51753	34.6286
3.51514	34.5651
3.51276	34.4048
3.51038	34.2823
3.50801	34.1928
3.50563	34.0697
3.50327	34.0145
3.5009	33.9173
3.49854	33.8485
3.49618	33.847
3.49382	33.8358
3.49147	33.8197
3.48912	33.7007
3.48677	33.6234
3.48443	33.6457
3.48209	33.6362
3.47975	33.5902
3.47742	33.4471
3.47509	33.3848
3.47276	33.3588
3.47044	33.3225
3.46812	33.1991
3.4658	33.0753
