Name: Scheelite CaWO_4
Type: Mineral
Class: Tungstates
Subclass: 
Particle Size: 125-500um
Sample No.: T-1A
Owner: JPL
Wavelength range: VNIR-SWIR
Origin: USA, California, Kern County, Atolia.
Collected by: Burminco.
Description:




 
Measurement: Hemispherical reflectance
First Column: X
Second Column: Y
X Units: Wavelength (micrometers)
Y Units: Reflectance (percent)
First X Value: 2.500
Last X Value: 0.400
Number of X Values: 2101
Additional information: t01aa.txt

2.500  60.251413
2.499  60.015140
2.498  60.141938
2.497  60.299099
2.496  60.070939
2.495  60.133158
2.494  60.219361
2.493  60.419281
2.492  60.282036
2.491  60.221332
2.490  60.408549
2.489  60.568951
2.488  60.454404
2.487  60.478026
2.486  60.458385
2.485  60.564377
2.484  60.515141
2.483  60.605325
2.482  60.640090
2.481  60.666486
2.480  60.677786
2.479  60.863697
2.478  60.747072
2.477  60.951555
2.476  60.839093
2.475  61.107586
2.474  61.094889
2.473  61.075629
2.472  61.156489
2.471  61.153947
2.470  61.178741
2.469  61.274854
2.468  61.224719
2.467  61.378123
2.466  61.321477
2.465  61.518924
2.464  61.435204
2.463  61.580803
2.462  61.475086
2.461  61.694526
2.460  61.734593
2.459  61.787842
2.458  61.766394
2.457  61.726451
2.456  61.803556
2.455  61.929575
2.454  61.968249
2.453  61.982571
2.452  61.954689
2.451  62.159714
2.450  61.991626
2.449  62.229089
2.448  62.210054
2.447  62.195071
2.446  62.260761
2.445  62.328205
2.444  62.415663
2.443  62.443381
2.442  62.358542
2.441  62.485173
2.440  62.564425
2.439  62.667337
2.438  62.596275
2.437  62.668364
2.436  62.682410
2.435  62.723251
2.434  62.810257
2.433  62.827288
2.432  62.801629
2.431  62.914510
2.430  63.018735
2.429  63.089486
2.428  63.097746
2.427  63.168276
2.426  63.216351
2.425  63.299185
2.424  63.398277
2.423  63.440579
2.422  63.519645
2.421  63.517905
2.420  63.500143
2.419  63.615679
2.418  63.681063
2.417  63.720667
2.416  63.737327
2.415  63.823184
2.414  63.829000
2.413  63.907171
2.412  63.935647
2.411  63.981987
2.410  64.030607
2.409  64.106462
2.408  64.024349
2.407  64.146831
2.406  64.169524
2.405  64.248536
2.404  64.293529
2.403  64.420532
2.402  64.378300
2.401  64.402549
2.400  64.458416
2.399  64.471020
2.398  64.479470
2.397  64.560810
2.396  64.606573
2.395  64.640921
2.394  64.675465
2.393  64.711843
2.392  64.723211
2.391  64.781510
2.390  64.775513
2.389  64.799487
2.388  64.865023
2.387  64.898240
2.386  64.946465
2.385  64.949315
2.384  64.939779
2.383  65.015052
2.382  65.034355
2.381  65.134485
2.380  65.161655
2.379  65.153022
2.378  65.215355
2.377  65.254553
2.376  65.311122
2.375  65.344864
2.374  65.390097
2.373  65.434663
2.372  65.467320
2.371  65.502470
2.370  65.445912
2.369  65.486359
2.368  65.458377
2.367  65.492897
2.366  65.585832
2.365  65.593238
2.364  65.565698
2.363  65.578450
2.362  65.622490
2.361  65.628178
2.360  65.662100
2.359  65.692402
2.358  65.684177
2.357  65.673806
2.356  65.632988
2.355  65.646601
2.354  65.637535
2.353  65.638502
2.352  65.613608
2.351  65.624547
2.350  65.640110
2.349  65.627817
2.348  65.658480
2.347  65.685885
2.346  65.737293
2.345  65.725269
2.344  65.732721
2.343  65.767906
2.342  65.816536
2.341  65.812616
2.340  65.828015
2.339  65.865518
2.338  65.890131
2.337  65.924800
2.336  65.969651
2.335  66.004273
2.334  66.069280
2.333  66.155522
2.332  66.199088
2.331  66.226949
2.330  66.275250
2.329  66.283574
2.328  66.346008
2.327  66.390995
2.326  66.513070
2.325  66.555482
2.324  66.567041
2.323  66.586940
2.322  66.621916
2.321  66.640787
2.320  66.691893
2.319  66.731066
2.318  66.820581
2.317  66.847980
2.316  66.831393
2.315  66.829671
2.314  66.868537
2.313  66.940031
2.312  66.969237
2.311  66.942666
2.310  66.966711
2.309  67.004095
2.308  67.064418
2.307  67.114728
2.306  67.140334
2.305  67.153259
2.304  67.260865
2.303  67.259459
2.302  67.272836
2.301  67.309601
2.300  67.342395
2.299  67.418481
2.298  67.434179
2.297  67.459437
2.296  67.489946
2.295  67.521918
2.294  67.582015
2.293  67.641749
2.292  67.655335
2.291  67.675637
2.290  67.775506
2.289  67.817369
2.288  67.857737
2.287  67.855379
2.286  67.897424
2.285  67.973359
2.284  68.002641
2.283  68.022584
2.282  68.034805
2.281  68.083865
2.280  68.098249
2.279  68.128003
2.278  68.242240
2.277  68.213768
2.276  68.265711
2.275  68.326215
2.274  68.260497
2.273  68.353806
2.272  68.387096
2.271  68.370633
2.270  68.403108
2.269  68.469458
2.268  68.456019
2.267  68.468241
2.266  68.514324
2.265  68.544699
2.264  68.506553
2.263  68.539947
2.262  68.614577
2.261  68.517935
2.260  68.465269
2.259  68.515683
2.258  68.558014
2.257  68.557928
2.256  68.510717
2.255  68.566328
2.254  68.531513
2.253  68.548299
2.252  68.497595
2.251  68.504523
2.250  68.573948
2.249  68.584545
2.248  68.561354
2.247  68.513086
2.246  68.597958
2.245  68.529068
2.244  68.513696
2.243  68.543623
2.242  68.589333
2.241  68.632411
2.240  68.666258
2.239  68.690684
2.238  68.659247
2.237  68.626617
2.236  68.669333
2.235  68.675088
2.234  68.663733
2.233  68.590261
2.232  68.590245
2.231  68.626146
2.230  68.611354
2.229  68.587743
2.228  68.576072
2.227  68.452249
2.226  68.516655
2.225  68.456058
2.224  68.484324
2.223  68.329304
2.222  68.393672
2.221  68.330478
2.220  68.282207
2.219  68.208062
2.218  68.167623
2.217  68.063577
2.216  68.115409
2.215  68.072141
2.214  67.957451
2.213  67.843523
2.212  67.944942
2.211  67.792142
2.210  67.822608
2.209  67.790936
2.208  67.827194
2.207  67.769120
2.206  67.805003
2.205  67.783764
2.204  67.852971
2.203  67.798703
2.202  67.864411
2.201  67.895489
2.200  67.888596
2.199  67.902017
2.198  67.955594
2.197  67.921204
2.196  68.044163
2.195  68.041780
2.194  68.126283
2.193  68.274987
2.192  68.392441
2.191  68.314483
2.190  68.473653
2.189  68.567942
2.188  68.688679
2.187  68.708873
2.186  68.908623
2.185  68.887272
2.184  68.983569
2.183  69.124328
2.182  69.205735
2.181  69.222043
2.180  69.428247
2.179  69.392542
2.178  69.528555
2.177  69.666133
2.176  69.797267
2.175  69.789412
2.174  69.876419
2.173  69.928730
2.172  70.024110
2.171  70.094436
2.170  70.200764
2.169  70.247892
2.168  70.359922
2.167  70.399563
2.166  70.472433
2.165  70.540325
2.164  70.592967
2.163  70.581702
2.162  70.687541
2.161  70.726540
2.160  70.771192
2.159  70.815913
2.158  70.868632
2.157  70.861382
2.156  70.948078
2.155  70.936867
2.154  71.010081
2.153  71.014951
2.152  71.122954
2.151  71.109893
2.150  71.116660
2.149  71.137156
2.148  71.112547
2.147  71.043827
2.146  71.152183
2.145  71.134682
2.144  71.192725
2.143  71.085068
2.142  71.111579
2.141  71.106995
2.140  71.122519
2.139  71.126623
2.138  71.093920
2.137  71.111393
2.136  71.095268
2.135  71.070289
2.134  71.066092
2.133  71.026825
2.132  70.987323
2.131  70.903879
2.130  70.936575
2.129  70.885194
2.128  70.925577
2.127  70.830614
2.126  70.790230
2.125  70.796700
2.124  70.728042
2.123  70.641509
2.122  70.607343
2.121  70.538405
2.120  70.555073
2.119  70.509052
2.118  70.510194
2.117  70.425241
2.116  70.404964
2.115  70.335066
2.114  70.266992
2.113  70.232531
2.112  70.196890
2.111  70.136013
2.110  70.082388
2.109  70.057238
2.108  70.029579
2.107  69.975383
2.106  69.958984
2.105  69.926838
2.104  69.852994
2.103  69.780340
2.102  69.696998
2.101  69.667476
2.100  69.711900
2.099  69.710472
2.098  69.713620
2.097  69.632035
2.096  69.621736
2.095  69.693456
2.094  69.752326
2.093  69.764902
2.092  69.713404
2.091  69.678188
2.090  69.701475
2.089  69.729585
2.088  69.743191
2.087  69.767440
2.086  69.758628
2.085  69.724900
2.084  69.734460
2.083  69.737624
2.082  69.730385
2.081  69.759709
2.080  69.726703
2.079  69.709618
2.078  69.748713
2.077  69.721998
2.076  69.684576
2.075  69.717223
2.074  69.733066
2.073  69.703144
2.072  69.674424
2.071  69.681565
2.070  69.680306
2.069  69.668178
2.068  69.640350
2.067  69.619224
2.066  69.650105
2.065  69.650932
2.064  69.624994
2.063  69.585079
2.062  69.559738
2.061  69.583082
2.060  69.604002
2.059  69.606797
2.058  69.558752
2.057  69.583973
2.056  69.594719
2.055  69.539082
2.054  69.532812
2.053  69.493865
2.052  69.480954
2.051  69.452034
2.050  69.426362
2.049  69.411305
2.048  69.382175
2.047  69.301674
2.046  69.277623
2.045  69.337530
2.044  69.267301
2.043  69.232450
2.042  69.190973
2.041  69.207299
2.040  69.169123
2.039  69.105216
2.038  69.117065
2.037  69.097495
2.036  69.048330
2.035  69.018405
2.034  69.006225
2.033  68.995923
2.032  68.976707
2.031  68.896934
2.030  68.806265
2.029  68.761900
2.028  68.675037
2.027  68.732962
2.026  68.694418
2.025  68.609383
2.024  68.583779
2.023  68.549276
2.022  68.476181
2.021  68.427029
2.020  68.374434
2.019  68.364291
2.018  68.262182
2.017  68.218798
2.016  68.179744
2.015  68.197873
2.014  68.115243
2.013  68.093842
2.012  68.037257
2.011  67.929840
2.010  67.869318
2.009  67.815171
2.008  67.778259
2.007  67.763169
2.006  67.700360
2.005  67.651453
2.004  67.600469
2.003  67.534675
2.002  67.505162
2.001  67.459377
2.000  67.391483
1.999  67.320777
1.998  67.196034
1.997  67.227599
1.996  67.132378
1.995  66.992947
1.994  66.938145
1.993  66.904823
1.992  66.825944
1.991  66.842794
1.990  66.762060
1.989  66.643447
1.988  66.510312
1.987  66.442694
1.986  66.460275
1.985  66.405570
1.984  66.286070
1.983  66.281510
1.982  66.222947
1.981  66.133875
1.980  66.069821
1.979  66.008280
1.978  65.842856
1.977  65.826765
1.976  65.788875
1.975  65.718897
1.974  65.653287
1.973  65.528533
1.972  65.387604
1.971  65.426368
1.970  65.327824
1.969  65.292691
1.968  65.226942
1.967  65.102164
1.966  65.114163
1.965  65.003674
1.964  65.005505
1.963  64.935128
1.962  64.835165
1.961  64.814576
1.960  64.666536
1.959  64.631769
1.958  64.574333
1.957  64.612794
1.956  64.500589
1.955  64.501326
1.954  64.358345
1.953  64.434575
1.952  64.224670
1.951  64.234208
1.950  64.196724
1.949  64.201565
1.948  63.996049
1.947  63.997656
1.946  63.880387
1.945  63.897062
1.944  63.873078
1.943  63.859012
1.942  63.798866
1.941  63.748685
1.940  63.658194
1.939  63.680763
1.938  63.624831
1.937  63.574353
1.936  63.558716
1.935  63.495732
1.934  63.444675
1.933  63.379192
1.932  63.372417
1.931  63.389835
1.930  63.255229
1.929  63.282615
1.928  63.359028
1.927  63.279444
1.926  63.076529
1.925  63.173686
1.924  63.089002
1.923  63.147677
1.922  63.118371
1.921  63.044814
1.920  63.129862
1.919  63.093077
1.918  63.127999
1.917  63.091779
1.916  63.115480
1.915  63.092965
1.914  63.144172
1.913  63.132096
1.912  63.203430
1.911  63.348713
1.910  63.388034
1.909  63.481796
1.908  63.526529
1.907  63.670991
1.906  63.799933
1.905  64.008734
1.904  64.214759
1.903  64.436659
1.902  64.695393
1.901  65.009140
1.900  65.216389
1.899  65.545631
1.898  65.809990
1.897  66.222925
1.896  66.500060
1.895  66.816892
1.894  67.076349
1.893  67.439408
1.892  67.672721
1.891  68.036785
1.890  68.341225
1.889  68.629541
1.888  68.842720
1.887  69.253786
1.886  69.433271
1.885  69.656248
1.884  69.883066
1.883  70.144403
1.882  70.328295
1.881  70.541689
1.880  70.714125
1.879  70.825376
1.878  70.913073
1.877  71.170663
1.876  71.241934
1.875  71.332740
1.874  71.410330
1.873  71.613358
1.872  71.710972
1.871  71.819497
1.870  71.911840
1.869  71.995917
1.868  72.077227
1.867  72.228774
1.866  72.248352
1.865  72.327455
1.864  72.352040
1.863  72.382872
1.862  72.474482
1.861  72.493969
1.860  72.517459
1.859  72.568465
1.858  72.594443
1.857  72.557205
1.856  72.635547
1.855  72.761138
1.854  72.719041
1.853  72.773744
1.852  72.754295
1.851  72.733684
1.850  72.680284
1.849  72.684990
1.848  72.728771
1.847  72.792482
1.846  72.839276
1.845  72.842530
1.844  72.829896
1.843  72.838309
1.842  72.806353
1.841  72.841393
1.840  72.812001
1.839  72.842040
1.838  72.817562
1.837  72.821234
1.836  72.929187
1.835  72.886378
1.834  72.930149
1.833  72.930119
1.832  72.932489
1.831  72.978938
1.830  72.955193
1.829  72.960046
1.828  72.983594
1.827  72.952226
1.826  72.910617
1.825  72.894137
1.824  72.902670
1.823  72.928120
1.822  72.980700
1.821  73.009368
1.820  72.944281
1.819  72.980850
1.818  72.967163
1.817  72.934220
1.816  72.942582
1.815  72.942194
1.814  72.943315
1.813  72.983876
1.812  72.968125
1.811  73.014522
1.810  72.967495
1.809  72.951832
1.808  72.981096
1.807  72.946232
1.806  72.951687
1.805  72.976105
1.804  72.986418
1.803  72.967421
1.802  72.885572
1.801  72.908405
1.800  72.960258
1.799  72.964755
1.798  72.973086
1.797  72.993133
1.796  72.952452
1.795  72.933835
1.794  72.924141
1.793  72.920058
1.792  72.929960
1.791  72.901963
1.790  72.932314
1.789  72.945431
1.788  72.872555
1.787  72.913988
1.786  72.922361
1.785  72.878289
1.784  72.870543
1.783  72.843113
1.782  72.855921
1.781  72.848093
1.780  72.819840
1.779  72.853863
1.778  72.856249
1.777  72.827440
1.776  72.825131
1.775  72.805381
1.774  72.849383
1.773  72.829592
1.772  72.816346
1.771  72.839921
1.770  72.845825
1.769  72.840505
1.768  72.815346
1.767  72.726405
1.766  72.739082
1.765  72.811665
1.764  72.809088
1.763  72.811453
1.762  72.830501
1.761  72.768832
1.760  72.795137
1.759  72.827050
1.758  72.792884
1.757  72.823960
1.756  72.845201
1.755  72.831638
1.754  72.830294
1.753  72.805572
1.752  72.831709
1.751  72.858355
1.750  72.851184
1.749  72.850469
1.748  72.880686
1.747  72.874611
1.746  72.853310
1.745  72.862333
1.744  72.891842
1.743  72.884063
1.742  72.859983
1.741  72.876291
1.740  72.890167
1.739  72.892099
1.738  72.913804
1.737  72.840761
1.736  72.862514
1.735  72.837982
1.734  72.868894
1.733  72.872846
1.732  72.938952
1.731  72.875670
1.730  72.834849
1.729  72.858559
1.728  72.821614
1.727  72.797533
1.726  72.826000
1.725  72.864549
1.724  72.918350
1.723  72.888185
1.722  72.894825
1.721  72.874996
1.720  72.856688
1.719  72.837857
1.718  72.886877
1.717  72.812564
1.716  72.876843
1.715  72.820080
1.714  72.915580
1.713  72.851104
1.712  72.897321
1.711  72.899144
1.710  72.863751
1.709  72.839673
1.708  72.929287
1.707  72.975164
1.706  72.910481
1.705  72.861388
1.704  72.853107
1.703  72.831964
1.702  72.912377
1.701  72.860235
1.700  72.846059
1.699  72.841248
1.698  72.877162
1.697  72.869245
1.696  72.876456
1.695  72.854202
1.694  72.906051
1.693  72.805778
1.692  72.791865
1.691  72.821050
1.690  72.878935
1.689  72.878280
1.688  72.794204
1.687  72.821794
1.686  72.862317
1.685  72.791300
1.684  72.796937
1.683  72.840970
1.682  72.865474
1.681  72.875613
1.680  72.795067
1.679  72.841008
1.678  72.793176
1.677  72.860988
1.676  72.802056
1.675  72.788846
1.674  72.875406
1.673  72.844909
1.672  72.862443
1.671  72.760205
1.670  72.758530
1.669  72.872806
1.668  72.769248
1.667  72.794893
1.666  72.848966
1.665  72.822694
1.664  72.874706
1.663  72.869178
1.662  72.843164
1.661  72.858494
1.660  72.900466
1.659  72.824077
1.658  72.831142
1.657  72.749026
1.656  72.827712
1.655  72.780899
1.654  72.798714
1.653  72.813950
1.652  72.813457
1.651  72.770813
1.650  72.835446
1.649  72.776855
1.648  72.854213
1.647  72.799492
1.646  72.723204
1.645  72.813268
1.644  72.780721
1.643  72.766840
1.642  72.777020
1.641  72.704252
1.640  72.751045
1.639  72.688410
1.638  72.661684
1.637  72.687478
1.636  72.762578
1.635  72.673069
1.634  72.786758
1.633  72.706842
1.632  72.718654
1.631  72.655660
1.630  72.695462
1.629  72.705162
1.628  72.710316
1.627  72.613832
1.626  72.688276
1.625  72.635261
1.624  72.693510
1.623  72.643850
1.622  72.668197
1.621  72.643139
1.620  72.649087
1.619  72.689940
1.618  72.661151
1.617  72.638611
1.616  72.631667
1.615  72.596520
1.614  72.598151
1.613  72.679749
1.612  72.636700
1.611  72.582217
1.610  72.614755
1.609  72.598808
1.608  72.593158
1.607  72.563683
1.606  72.577963
1.605  72.524422
1.604  72.547996
1.603  72.470673
1.602  72.549543
1.601  72.443561
1.600  72.466891
1.599  72.521017
1.598  72.538167
1.597  72.444224
1.596  72.475725
1.595  72.479435
1.594  72.529032
1.593  72.430682
1.592  72.427933
1.591  72.368688
1.590  72.460411
1.589  72.340156
1.588  72.350374
1.587  72.316619
1.586  72.404456
1.585  72.375028
1.584  72.306401
1.583  72.276239
1.582  72.312528
1.581  72.251423
1.580  72.264982
1.579  72.201212
1.578  72.244962
1.577  72.192478
1.576  72.193125
1.575  72.184643
1.574  72.093034
1.573  72.087004
1.572  72.123295
1.571  72.090934
1.570  72.077841
1.569  71.982785
1.568  71.960612
1.567  71.945296
1.566  72.006386
1.565  72.008034
1.564  72.011408
1.563  71.908299
1.562  71.855189
1.561  71.851501
1.560  71.868214
1.559  71.851416
1.558  71.852252
1.557  71.807998
1.556  71.744988
1.555  71.731659
1.554  71.717921
1.553  71.696774
1.552  71.723586
1.551  71.738208
1.550  71.739258
1.549  71.683542
1.548  71.637761
1.547  71.644608
1.546  71.638020
1.545  71.590357
1.544  71.556950
1.543  71.499845
1.542  71.509295
1.541  71.449641
1.540  71.401011
1.539  71.382144
1.538  71.418209
1.537  71.387058
1.536  71.389310
1.535  71.312214
1.534  71.312132
1.533  71.316162
1.532  71.254372
1.531  71.191481
1.530  71.206598
1.529  71.143075
1.528  71.135851
1.527  71.066445
1.526  71.064407
1.525  71.028848
1.524  70.983385
1.523  70.959292
1.522  70.952435
1.521  70.919185
1.520  70.897553
1.519  70.894587
1.518  70.880325
1.517  70.826494
1.516  70.844368
1.515  70.806752
1.514  70.696478
1.513  70.693172
1.512  70.664668
1.511  70.598618
1.510  70.637543
1.509  70.564463
1.508  70.469065
1.507  70.435070
1.506  70.442748
1.505  70.438132
1.504  70.414224
1.503  70.361336
1.502  70.265754
1.501  70.265804
1.500  70.264559
1.499  70.189770
1.498  70.139029
1.497  70.107722
1.496  70.064919
1.495  70.020597
1.494  69.977212
1.493  69.935903
1.492  69.896206
1.491  69.851773
1.490  69.831748
1.489  69.859921
1.488  69.823436
1.487  69.719509
1.486  69.658988
1.485  69.651649
1.484  69.633423
1.483  69.639638
1.482  69.584628
1.481  69.540595
1.480  69.469184
1.479  69.421853
1.478  69.382563
1.477  69.318805
1.476  69.251142
1.475  69.253902
1.474  69.251810
1.473  69.172506
1.472  69.113948
1.471  69.072577
1.470  69.051521
1.469  69.060056
1.468  69.033627
1.467  68.989661
1.466  68.968510
1.465  68.918143
1.464  68.858477
1.463  68.808093
1.462  68.797161
1.461  68.803646
1.460  68.748123
1.459  68.717724
1.458  68.702849
1.457  68.680286
1.456  68.643091
1.455  68.688561
1.454  68.632835
1.453  68.619455
1.452  68.549491
1.451  68.562938
1.450  68.470628
1.449  68.481320
1.448  68.472116
1.447  68.455918
1.446  68.375653
1.445  68.382354
1.444  68.364149
1.443  68.305727
1.442  68.199172
1.441  68.193890
1.440  68.152063
1.439  68.132393
1.438  68.047677
1.437  67.988372
1.436  67.991898
1.435  67.957616
1.434  67.919183
1.433  67.862356
1.432  67.792090
1.431  67.706344
1.430  67.662111
1.429  67.622066
1.428  67.511762
1.427  67.487038
1.426  67.446681
1.425  67.387496
1.424  67.305558
1.423  67.148762
1.422  66.995837
1.421  67.012532
1.420  66.899355
1.419  66.831503
1.418  66.684456
