Name: Brass plate
Type: Manmade materials
Class: Reflectance target
Subclass: 
Particle Size: Solid
Sample No.: SN: ILF-17464-2-2
Owner: JPL
Wavelength range: IR
Origin: Labsphere, P.O. Box 70, Shaker Street, North Sutton, NH 03260
(603) 927-4266
Description: Measurement made at bottom left. Field Brass 1.
Measured Oct. 29 1997.




Measurement: Hemispherical Reflectance
First Column: X
Second Column: Y
X Units: Wavelength (micrometers)
Y Units: Reflectence (percent)
First X Value: 15.3853
Last X Value: 2.00032
Number of X Values: 2256
Additional information: None.
 
15.3853	80.5175
15.3397	80.6071
15.2945	80.7266
15.2495	80.7397
15.2048	80.8326
15.1603	80.7877
15.1161	80.6263
15.0722	80.5483
15.0285	80.4316
14.9851	80.2987
14.9419	80.5582
14.8989	80.8098
14.8563	80.8205
14.8138	80.8029
14.7716	80.7758
14.7296	80.7109
14.6879	80.6025
14.6464	80.4586
14.6052	80.4254
14.5641	80.5178
14.5233	80.4911
14.4828	80.4423
14.4424	80.4249
14.4023	80.5176
14.3624	80.5368
14.3227	80.4877
14.2833	80.6034
14.244	80.7983
14.205	80.7729
14.1662	80.6603
14.1276	80.5716
14.0892	80.2987
14.051	80.1
14.0131	80.1179
13.9753	80.246
13.9377	80.3766
13.9004	80.446
13.8632	80.4438
13.8262	80.4332
13.7895	80.4588
13.7529	80.5413
13.7165	80.5904
13.6803	80.5507
13.6443	80.5314
13.6085	80.5706
13.5729	80.6687
13.5374	80.8441
13.5022	80.862
13.4671	80.7413
13.4322	80.6283
13.3975	80.5992
13.363	80.6583
13.3286	80.6294
13.2944	80.499
13.2604	80.4928
13.2266	80.5276
13.193	80.4741
13.1595	80.4332
13.1262	80.5095
13.093	80.575
13.06	80.6761
13.0272	80.5796
12.9946	80.3097
12.9621	80.1862
12.9298	80.1546
12.8976	80.191
12.8656	80.2709
12.8337	80.197
12.8021	80.0708
12.7705	79.993
12.7391	80.1336
12.7079	80.1985
12.6769	80.1702
12.6459	80.1433
12.6152	80.0376
12.5845	79.9741
12.5541	80.0743
12.5238	80.0863
12.4936	80.0264
12.4635	80.1413
12.4337	80.3898
12.4039	80.4331
12.3743	80.4804
12.3448	80.6005
12.3155	80.6337
12.2863	80.7267
12.2573	80.7409
12.2284	80.798
12.1996	80.8664
12.171	80.8969
12.1425	80.9324
12.1141	80.9211
12.0859	80.8647
12.0578	80.8586
12.0298	80.8758
12.0019	80.9271
11.9742	81.0259
11.9466	81.0243
11.9192	80.9174
11.8918	80.8446
11.8646	80.8912
11.8375	80.8486
11.8106	80.6345
11.7837	80.5829
11.757	80.7438
11.7304	80.7608
11.7039	80.7555
11.6776	80.7543
11.6513	80.7685
11.6252	80.668
11.5992	80.5124
11.5733	80.368
11.5475	80.2083
11.5219	79.9718
11.4963	79.6157
11.4709	79.3746
11.4455	79.4061
11.4203	79.443
11.3952	79.5288
11.3702	79.7065
11.3454	79.8544
11.3206	79.9332
11.2959	79.9987
11.2714	80.1923
11.2469	80.3174
11.2226	80.3191
11.1983	80.2929
11.1742	80.1637
11.1502	80.0765
11.1263	80.0627
11.1024	79.9451
11.0787	79.8717
11.0551	79.8642
11.0316	79.8161
11.0081	79.7414
10.9848	79.7634
10.9616	79.7456
10.9385	79.6915
10.9154	79.6351
10.8925	79.5294
10.8697	79.5123
10.8469	79.4989
10.8243	79.529
10.8017	79.5754
10.7793	79.5322
10.7569	79.4441
10.7346	79.4379
10.7125	79.4086
10.6904	79.2977
10.6684	79.2871
10.6465	79.2734
10.6247	79.1627
10.6029	79.0518
10.5813	79.1361
10.5597	79.1279
10.5383	79.0817
10.5169	79.0068
10.4956	79.0085
10.4744	78.9817
10.4533	78.8496
10.4323	78.8259
10.4113	78.7367
10.3904	78.5959
10.3697	78.5141
10.349	78.4595
10.3284	78.4051
10.3078	78.3881
10.2874	78.3383
10.267	78.304
10.2467	78.3233
10.2265	78.2198
10.2064	78.1112
10.1863	78.0748
10.1663	78.0729
10.1464	78.0665
10.1266	77.9643
10.1069	77.9346
10.0872	77.8986
10.0676	77.8766
10.0481	77.8566
10.0287	77.8381
10.0093	77.8537
9.99005	77.8454
9.97084	77.8597
9.95169	77.8044
9.93263	77.7362
9.91364	77.7395
9.89472	77.7711
9.87587	77.771
9.8571	77.7642
9.83839	77.7686
9.81976	77.7599
9.80119	77.7698
9.78271	77.7475
9.76428	77.8034
9.74592	77.8646
9.72764	77.7272
9.70943	77.6936
9.69128	77.7778
9.6732	77.7851
9.65518	77.8099
9.63724	77.7789
9.61935	77.774
9.60155	77.91
9.5838	78.002
9.56611	77.8899
9.5485	77.865
9.53094	77.9718
9.51345	78.0402
9.49604	78.0296
9.47867	78.0625
9.46137	78.1143
9.44414	78.0851
9.42697	78.1077
9.40986	78.2494
9.39281	78.3364
9.37583	78.286
9.35891	78.3269
9.34204	78.4665
9.32524	78.6042
9.3085	78.6229
9.29182	78.6028
9.27519	78.6658
9.25863	78.6964
9.24213	78.6768
9.22568	78.6195
9.2093	78.6714
9.19297	78.7583
9.17669	78.8831
9.16048	78.9414
9.14433	78.8808
9.12823	78.9108
9.11218	78.9196
9.0962	78.9243
9.08027	78.9839
9.06439	79.0842
9.04858	79.1199
9.03281	79.1983
9.0171	79.3322
9.00145	79.3544
8.98585	79.3611
8.9703	79.279
8.9548	79.2223
8.93937	79.2418
8.92398	79.2865
8.90865	79.3606
8.89337	79.4186
8.87814	79.4182
8.86296	79.4605
8.84784	79.3629
8.83277	79.3333
8.81774	79.3525
8.80277	79.3276
8.78786	79.4214
8.77298	79.5123
8.75816	79.5647
8.7434	79.5399
8.72868	79.5645
8.714	79.6161
8.69938	79.5967
8.68481	79.597
8.67029	79.5867
8.65581	79.5634
8.64139	79.6056
8.62701	79.7771
8.61268	79.8078
8.5984	79.7238
8.58416	79.8186
8.56997	79.961
8.55583	80.0197
8.54174	80.1079
8.52769	80.1144
8.51368	80.1351
8.49973	80.1968
8.48582	80.3143
8.47195	80.2863
8.45813	80.2623
8.44436	80.3985
8.43062	80.5513
8.41693	80.6306
8.4033	80.6399
8.3897	80.6292
8.37614	80.7102
8.36264	80.7516
8.34917	80.77
8.33574	80.8158
8.32236	80.8513
8.30903	80.9137
8.29573	80.9894
8.28248	81.0183
8.26927	81.0407
8.2561	81.1004
8.24298	81.1368
8.2299	81.2024
8.21685	81.2558
8.20385	81.3203
8.19089	81.3416
8.17797	81.3813
8.16509	81.4633
8.15225	81.4726
8.13946	81.4926
8.1267	81.4862
8.11398	81.5018
8.10131	81.5386
8.08867	81.5769
8.07606	81.6458
8.0635	81.6905
8.05099	81.6759
8.0385	81.6288
8.02606	81.6603
8.01366	81.749
8.00129	81.7342
7.98896	81.7696
7.97667	81.8375
7.96442	81.9921
7.9522	82.0978
7.94002	82.0751
7.92788	82.037
7.91578	82.1305
7.90371	82.2104
7.89168	82.2475
7.87969	82.3043
7.86773	82.3573
7.85581	82.4231
7.84392	82.4559
7.83207	82.4988
7.82026	82.5713
7.80849	82.5786
7.79674	82.5679
7.78503	82.5598
7.77337	82.5863
7.76173	82.6175
7.75012	82.6221
7.73856	82.6789
7.72703	82.6929
7.71553	82.7314
7.70406	82.7705
7.69263	82.7857
7.68123	82.7653
7.66987	82.7329
7.65855	82.751
7.64725	82.694
7.63598	82.6853
7.62475	82.7162
7.61356	82.7304
7.60239	82.6737
7.59126	82.6923
7.58017	82.7172
7.5691	82.6777
7.55806	82.6627
7.54707	82.6892
7.5361	82.706
7.52516	82.693
7.51425	82.7106
7.50338	82.7123
7.49253	82.644
7.48172	82.6522
7.47094	82.6602
7.46019	82.6221
7.44947	82.5706
7.43879	82.504
7.42813	82.4593
7.4175	82.4424
7.4069	82.4127
7.39634	82.3229
7.3858	82.2211
7.37529	82.2108
7.36482	82.2224
7.35437	82.1456
7.34396	82.1499
7.33357	82.1415
7.32321	81.9995
7.31288	81.9133
7.30258	81.8723
7.29231	81.8091
7.28207	81.825
7.27185	81.7875
7.26167	81.7035
7.25152	81.6716
7.24139	81.5674
7.23129	81.5022
7.22122	81.4909
7.21117	81.5317
7.20116	81.5295
7.19117	81.4573
7.18121	81.4455
7.17128	81.5478
7.16137	81.5114
7.1515	81.4798
7.14164	81.4342
7.13182	81.3429
7.12203	81.4192
7.11225	81.483
7.10251	81.3495
7.0928	81.2176
7.08311	81.2404
7.07344	81.3417
7.06381	81.3622
7.0542	81.5374
7.04461	81.7144
7.03506	81.5008
7.02552	81.3948
7.01601	81.3859
7.00653	81.3544
6.99708	81.3456
6.98765	81.2676
6.97824	81.251
6.96886	81.3759
6.95951	81.493
6.95018	81.2871
6.94087	81.2362
6.9316	81.2315
6.92234	81.2561
6.91311	81.3043
6.90391	81.2907
6.89473	81.1979
6.88557	81.1908
6.87644	81.3306
6.86733	81.7543
6.85824	81.7852
6.84918	81.3871
6.84015	81.2026
6.83114	81.3257
6.82215	81.3572
6.81319	81.2128
6.80424	81.2707
6.79532	81.574
6.78643	81.6224
6.77756	81.4476
6.76871	81.3336
6.75989	81.238
6.75109	81.299
6.74231	81.3635
6.73355	81.3887
6.72482	81.5361
6.71611	81.7237
6.70742	81.7326
6.69875	81.5779
6.69011	81.6983
6.68149	81.9472
6.67289	81.8892
6.66431	81.7618
6.65576	81.7478
6.64722	82.1661
6.63871	82.7245
6.63022	82.5204
6.62175	82.2101
6.61331	82.1972
6.60488	82.2272
6.59648	82.4466
6.5881	82.5604
6.57974	82.7552
6.5714	83.0202
6.56308	82.7934
6.55478	82.7012
6.54651	82.651
6.53825	82.5739
6.53001	82.7225
6.5218	83.0663
6.51361	82.9546
6.50544	82.9881
6.49729	83.5239
6.48915	83.5855
6.48104	83.3188
6.47295	83.1906
6.46488	83.0732
6.45683	83.0896
6.4488	83.2005
6.44079	83.2287
6.4328	83.3756
6.42482	83.6027
6.41687	84.0777
6.40894	83.882
6.40103	83.2546
6.39314	83.118
6.38526	83.1309
6.37741	83.2448
6.36957	83.3242
6.36176	83.1457
6.35396	83.155
6.34618	83.4259
6.33843	83.2279
6.33069	82.9171
6.32297	82.8762
6.31527	82.8702
6.30758	82.8455
6.29992	82.8187
6.29227	82.7629
6.28465	82.6848
6.27704	82.6495
6.26945	82.5711
6.26188	82.5574
6.25432	82.6319
6.24679	82.6922
6.23927	82.6781
6.23177	82.6025
6.22429	82.6108
6.21683	82.6302
6.20938	82.5619
6.20195	82.5018
6.19454	82.6289
6.18715	82.9236
6.17978	82.7887
6.17242	82.5142
6.16508	82.5634
6.15776	82.5096
6.15045	82.3404
6.14317	82.4056
6.1359	82.4503
6.12864	82.533
6.12141	82.8756
6.11419	83.2467
6.10699	83.0674
6.0998	82.8271
6.09263	82.8201
6.08549	82.8827
6.07835	83.1882
6.07123	83.352
6.06413	83.1386
6.05705	83.4758
6.04998	84.1733
6.04293	83.711
6.0359	83.1627
6.02888	83.0738
6.02187	83.1076
6.01489	83.2868
6.00792	83.2835
6.00096	83.2925
5.99403	83.5364
5.98711	83.5724
5.9802	83.4483
5.97331	83.6014
5.96644	83.5579
5.95958	83.2506
5.95274	83.2527
5.94591	83.4465
5.9391	83.9378
5.9323	83.8095
5.92552	83.3749
5.91876	83.3611
5.91201	83.3768
5.90528	83.4988
5.89856	83.8758
5.89186	83.8272
5.88517	83.9806
5.8785	84.0659
5.87184	83.6564
5.8652	83.6738
5.85857	83.5592
5.85196	83.4501
5.84536	83.466
5.83878	83.5208
5.83221	83.671
5.82566	83.9781
5.81912	83.9615
5.81259	83.6428
5.80608	83.5663
5.79959	83.6215
5.79311	83.5675
5.78665	83.5815
5.78019	83.7311
5.77376	83.9766
5.76734	84.2881
5.76093	84.0053
5.75453	83.7495
5.74815	83.9154
5.74179	83.8858
5.73543	83.8929
5.7291	83.8801
5.72277	83.8392
5.71646	83.907
5.71017	83.961
5.70389	83.8204
5.69762	83.8184
5.69136	83.9104
5.68513	83.8468
5.6789	83.8727
5.67268	83.8898
5.66648	83.848
5.6603	83.9318
5.65413	83.9571
5.64797	84.0328
5.64182	84.1957
5.63569	84.015
5.62957	83.7943
5.62347	83.8094
5.61737	83.8856
5.61129	83.8045
5.60522	83.6821
5.59917	83.5801
5.59313	83.4963
5.5871	83.4727
5.58109	83.5156
5.57509	83.3257
5.5691	83.0737
5.56312	83.0841
5.55716	83.18
5.55121	83.3126
5.54528	83.4774
5.53935	83.6304
5.53344	83.7134
5.52754	83.6905
5.52166	83.7381
5.51578	83.7838
5.50992	83.7128
5.50407	83.7149
5.49823	83.7371
5.49241	83.7836
5.4866	83.8598
5.4808	83.9384
5.47501	83.9454
5.46923	83.9749
5.46347	84.0482
5.45772	84.0491
5.45198	84.0164
5.44625	83.9772
5.44054	83.96
5.43484	83.9801
5.42914	84.0936
5.42347	84.2856
5.4178	84.2141
5.41214	84.0483
5.4065	83.9773
5.40087	83.8963
5.39525	83.8936
5.38964	83.9452
5.38404	83.9869
5.37846	84.007
5.37288	83.971
5.36732	83.9785
5.36177	83.9917
5.35623	84.0425
5.35071	84.1068
5.34519	83.9968
5.33968	83.9339
5.33419	83.966
5.32871	83.9716
5.32324	83.9669
5.31778	83.9544
5.31233	83.96
5.30689	84.0038
5.30147	84.0092
5.29605	84.0055
5.29065	84.0479
5.28525	84.0283
5.27987	84.0733
5.2745	84.0967
5.26914	84.0865
5.26379	84.08
5.25845	84.062
5.25312	84.0965
5.24781	84.1471
5.2425	84.1406
5.23721	84.1502
5.23192	84.1256
5.22665	84.1569
5.22138	84.2055
5.21613	84.2718
5.21089	84.2414
5.20566	84.2232
5.20044	84.2912
5.19522	84.3094
5.19002	84.2575
5.18483	84.2265
5.17965	84.2313
5.17448	84.2207
5.16933	84.2136
5.16418	84.2296
5.15904	84.1749
5.15391	84.196
5.14879	84.2714
5.14368	84.2715
5.13859	84.2538
5.1335	84.2013
5.12842	84.2141
5.12335	84.2644
5.1183	84.2655
5.11325	84.2909
5.10821	84.2917
5.10318	84.3077
5.09817	84.2747
5.09316	84.2751
5.08816	84.278
5.08317	84.259
5.07819	84.2295
5.07322	84.2225
5.06826	84.2326
5.06331	84.2715
5.05837	84.2991
5.05344	84.3368
5.04852	84.3231
5.04361	84.228
5.03871	84.2091
5.03382	84.283
5.02894	84.3051
5.02406	84.2839
5.0192	84.2754
5.01435	84.2787
5.0095	84.2885
5.00467	84.2784
4.99984	84.2949
4.99502	84.3142
4.99021	84.3244
4.98542	84.262
4.98063	84.2627
4.97585	84.3021
4.97108	84.3292
4.96632	84.3165
4.96156	84.3751
4.95682	84.4197
4.95209	84.379
4.94736	84.3334
4.94264	84.3678
4.93794	84.3826
4.93324	84.4021
4.92855	84.4431
4.92387	84.3983
4.9192	84.3384
4.91453	84.3728
4.90988	84.4253
4.90524	84.4489
4.9006	84.4475
4.89597	84.4204
4.89135	84.3999
4.88674	84.4104
4.88214	84.4481
4.87755	84.4236
4.87296	84.42
4.86839	84.4015
4.86382	84.4671
4.85926	84.5143
4.85471	84.4497
4.85017	84.4389
4.84564	84.439
4.84111	84.4692
4.8366	84.4854
4.83209	84.4714
4.82759	84.4632
4.8231	84.4454
4.81862	84.461
4.81415	84.5177
4.80968	84.5614
4.80522	84.5444
4.80077	84.5501
4.79633	84.5391
4.7919	84.4895
4.78747	84.4826
4.78306	84.4961
4.77865	84.4481
4.77425	84.4146
4.76986	84.4465
4.76547	84.4679
4.7611	84.4571
4.75673	84.4266
4.75237	84.4361
4.74802	84.4993
4.74367	84.5132
4.73934	84.5086
4.73501	84.4429
4.73069	84.4176
4.72638	84.4158
4.72207	84.4181
4.71777	84.4115
4.71348	84.409
4.7092	84.4485
4.70493	84.4962
4.70066	84.4583
4.69641	84.4558
4.69216	84.458
4.68791	84.4318
4.68368	84.4055
4.67945	84.4227
4.67523	84.4811
4.67102	84.4915
4.66682	84.3948
4.66262	84.3756
4.65843	84.3781
4.65425	84.4234
4.65007	84.4381
4.64591	84.4536
4.64175	84.4905
4.6376	84.4805
4.63345	84.4793
4.62932	84.4909
4.62519	84.4868
4.62106	84.4439
4.61695	84.379
4.61284	84.4404
4.60874	84.504
4.60465	84.4418
4.60056	84.4278
4.59648	84.4461
4.59241	84.4542
4.58835	84.4767
4.58429	84.4365
4.58024	84.4285
4.5762	84.4797
4.57216	84.4926
4.56814	84.4678
4.56411	84.4482
4.5601	84.4548
4.55609	84.4569
4.55209	84.4882
4.5481	84.4801
4.54411	84.4708
4.54013	84.5674
4.53616	84.5992
4.5322	84.5198
4.52824	84.4827
4.52429	84.5025
4.52034	84.4698
4.51641	84.4707
4.51247	84.5106
4.50855	84.5411
4.50463	84.4928
4.50072	84.4457
4.49682	84.4102
4.49292	84.3937
4.48903	84.453
4.48515	84.4836
4.48127	84.4979
4.4774	84.5103
4.47354	84.5504
4.46968	84.5361
4.46584	84.5327
4.46199	84.547
4.45815	84.5516
4.45432	84.5163
4.4505	84.4647
4.44668	84.4571
4.44287	84.5046
4.43907	84.547
4.43527	84.5357
4.43148	84.4889
4.4277	84.4315
4.42392	84.4172
4.42015	84.4354
4.41638	84.4901
4.41262	84.5066
4.40887	84.4487
4.40513	84.4482
4.40139	84.4745
4.39765	84.4635
4.39393	84.5128
4.39021	84.5174
4.38649	84.4812
4.38278	84.4477
4.37908	84.4061
4.37539	84.4095
4.3717	84.4857
4.36801	84.4792
4.36434	84.4249
4.36067	84.4203
4.357	84.4593
4.35335	84.4724
4.34969	84.442
4.34605	84.431
4.34241	84.4449
4.33877	84.4695
4.33514	84.4275
4.33152	84.3409
4.32791	84.3492
4.3243	84.3026
4.32069	84.1892
4.3171	84.1312
4.31351	84.1168
4.30992	84.0497
4.30634	83.9822
4.30277	83.9665
4.2992	83.9357
4.29564	83.806
4.29208	83.695
4.28853	83.6801
4.28499	83.7185
4.28145	83.6864
4.27792	83.6336
4.27439	83.6652
4.27087	83.7244
4.26735	83.823
4.26384	83.9309
4.26034	84.0832
4.25684	84.2415
4.25335	84.0883
4.24986	83.8464
4.24638	83.696
4.24291	83.5338
4.23944	83.4323
4.23598	83.3498
4.23252	83.334
4.22906	83.3581
4.22562	83.4804
4.22218	83.6286
4.21874	83.7432
4.21531	83.8799
4.21189	84.0508
4.20847	84.1848
4.20506	84.3371
4.20165	84.4047
4.19825	84.4218
4.19485	84.4449
4.19146	84.4404
4.18807	84.4974
4.18469	84.4873
4.18132	84.4586
4.17795	84.4473
4.17458	84.4846
4.17123	84.4795
4.16787	84.4904
4.16453	84.4751
4.16118	84.4549
4.15785	84.4428
4.15451	84.4159
4.15119	84.3896
4.14787	84.4196
4.14455	84.4977
4.14124	84.4917
4.13794	84.478
4.13464	84.5185
4.13134	84.4726
4.12805	84.4072
4.12477	84.4394
4.12149	84.4804
4.11822	84.471
4.11495	84.4305
4.11168	84.3956
4.10843	84.4091
4.10517	84.4093
4.10192	84.4377
4.09868	84.3972
4.09545	84.3182
4.09221	84.326
4.08899	84.3554
4.08576	84.3299
4.08255	84.309
4.07933	84.3337
4.07613	84.4072
4.07292	84.4416
4.06973	84.4147
4.06654	84.397
4.06335	84.39
4.06017	84.2832
4.05699	84.2312
4.05382	84.2564
4.05065	84.3022
4.04749	84.2943
4.04433	84.2799
4.04118	84.2573
4.03803	84.2468
4.03489	84.2424
4.03175	84.2651
4.02862	84.2094
4.02549	84.2033
4.02237	84.1533
4.01925	84.047
4.01614	84.0155
4.01303	84.0199
4.00993	83.9903
4.00683	83.9401
4.00373	83.8608
4.00064	83.8208
3.99756	83.8104
3.99448	83.7509
3.9914	83.6672
3.98833	83.68
3.98527	83.6893
3.98221	83.6151
3.97915	83.6108
3.9761	83.6011
3.97305	83.5143
3.97001	83.4427
3.96697	83.4867
3.96394	83.4954
3.96091	83.5276
3.95789	83.6176
3.95487	83.6361
3.95186	83.6525
3.94885	83.7098
3.94584	83.7303
3.94284	83.7399
3.93984	83.8176
3.93685	83.8824
3.93386	83.9013
3.93088	83.885
3.9279	83.8243
3.92493	83.873
3.92196	83.9557
3.919	83.9936
3.91604	83.9705
3.91308	83.95
3.91013	83.8911
3.90718	83.8605
3.90424	83.9356
3.9013	83.9796
3.89837	84.0378
3.89544	84.0552
3.89252	84.0173
3.8896	84.0711
3.88668	84.1053
3.88377	84.0365
3.88086	84.0306
3.87796	84.108
3.87506	84.1495
3.87217	84.045
3.86928	83.9008
3.86639	83.9309
3.86351	83.9951
3.86064	83.9978
3.85776	83.9876
3.8549	83.9783
3.85203	83.9292
3.84917	83.9507
3.84631	84.0173
3.84346	84.0923
3.84062	84.0818
3.83777	84.0542
3.83494	84.0517
3.8321	84.1012
3.82927	84.0822
3.82644	84.0449
3.82362	84.1131
3.82081	84.0968
3.81799	84.1028
3.81518	84.0596
3.81238	84.0295
3.80958	84.1211
3.80678	84.1609
3.80399	84.1857
3.8012	84.206
3.79841	84.1671
3.79563	84.1068
3.79286	84.1452
3.79008	84.1948
3.78731	84.164
3.78455	84.1348
3.78179	84.1388
3.77903	84.2254
3.77628	84.2174
3.77353	84.199
3.77079	84.2234
3.76805	84.2422
3.76531	84.2393
3.76258	84.2202
3.75985	84.249
3.75713	84.2539
3.7544	84.2089
3.75169	84.1868
3.74898	84.2116
3.74627	84.1986
3.74356	84.1516
3.74086	84.1947
3.73816	84.2573
3.73547	84.2214
3.73278	84.1482
3.7301	84.1971
3.72741	84.2439
3.72474	84.2244
3.72206	84.1495
3.71939	84.1887
3.71673	84.2022
3.71406	84.1751
3.71141	84.2306
3.70875	84.2476
3.7061	84.2184
3.70345	84.2183
3.70081	84.158
3.69817	84.1485
3.69553	84.2003
3.6929	84.2386
3.69027	84.1944
3.68765	84.2081
3.68503	84.2374
3.68241	84.1714
3.6798	84.1522
3.67719	84.1521
3.67458	84.2316
3.67198	84.2308
3.66938	84.1242
3.66678	84.0269
3.66419	84.0259
3.66161	84.0857
3.65902	84.1678
3.65644	84.2488
3.65387	84.2676
3.65129	84.1983
3.64872	84.1663
3.64616	84.1155
3.64359	84.1235
3.64103	84.0793
3.63848	84.0605
3.63593	84.1011
3.63338	84.1317
3.63084	84.1764
3.6283	84.2197
3.62576	84.1337
3.62322	84.0876
3.62069	84.1268
3.61817	84.0781
3.61564	83.9292
3.61312	83.9698
3.61061	84.0176
3.6081	84.0456
3.60559	84.0947
3.60308	84.0724
3.60058	84.077
3.59808	84.1047
3.59558	84.0735
3.59309	84.0511
3.59061	84.0498
3.58812	84.0291
3.58564	83.9697
3.58316	84.0458
3.58069	84.0572
3.57822	84.0205
3.57575	84.0095
3.57328	83.9583
3.57082	83.9612
3.56836	83.9632
3.56591	83.9289
3.56346	83.9245
3.56101	83.9626
3.55857	83.9965
3.55613	84.0034
3.55369	84.0002
3.55126	83.9223
3.54883	83.9424
3.5464	83.9965
3.54397	83.9428
3.54155	83.8524
3.53914	83.857
3.53672	83.8927
3.53431	83.8841
3.5319	83.8652
3.5295	83.803
3.5271	83.7405
3.5247	83.7678
3.52231	83.7121
3.51991	83.6147
3.51753	83.5649
3.51514	83.5195
3.51276	83.4752
3.51038	83.4547
3.50801	83.4457
3.50563	83.3988
3.50327	83.3615
3.5009	83.3136
3.49854	83.2654
3.49618	83.2516
3.49382	83.2628
3.49147	83.2256
3.48912	83.2169
3.48677	83.2138
3.48443	83.2055
3.48209	83.2348
3.47975	83.2094
