Name: Dolomite CaMg(CO_3)_2
Type: Mineral
Class: Carbonates
Subclass: 
Particle Size: 125-500um
Sample No.: C-5A
Owner: JPL
Wavelength range: IR
Origin: USA, Colorado
Collected by Ward's
Description:  Red banded dolomite. 





Measurement: Hemispherical reflectance
First Column: X
Second Column: Y
X Units:  Wavelength (micrometers)
Y Units:  Reflectance (percent)
First X Value: 15.3853
Last X Value: 2.00032
Number of X Values: 2256
Additional information: c05aa.txt
 
15.3853	1.75526
15.3397	1.98734
15.2945	2.26468
15.2495	2.1468
15.2048	2.09189
15.1603	2.18361
15.1161	2.06257
15.0722	2.04998
15.0285	2.27046
14.9851	2.33866
14.9419	2.3767
14.8989	2.54824
14.8563	2.68468
14.8138	2.86833
14.7716	2.90716
14.7296	2.71356
14.6879	2.57863
14.6464	2.60036
14.6052	2.42418
14.5641	2.30958
14.5233	2.27484
14.4828	2.12987
14.4424	2.25712
14.4023	2.55203
14.3624	2.4004
14.3227	2.24512
14.2833	2.34393
14.244	2.45565
14.205	2.38998
14.1662	2.1737
14.1276	2.33672
14.0892	2.4754
14.051	2.30183
14.0131	2.31795
13.9753	2.4578
13.9377	2.49042
13.9004	2.32282
13.8632	2.22909
13.8262	2.44301
13.7895	2.79319
13.7529	2.83711
13.7165	2.56805
13.6803	1.75506
13.6443	1.1759
13.6085	1.2589
13.5729	1.27034
13.5374	1.41547
13.5022	1.73784
13.4671	1.93445
13.4322	2.1016
13.3975	2.24178
13.363	2.56139
13.3286	2.97367
13.2944	3.21323
13.2604	3.35621
13.2266	3.63536
13.193	3.78543
13.1595	3.88573
13.1262	3.96305
13.093	3.987
13.06	3.89305
13.0272	3.73157
12.9946	3.43922
12.9621	3.21562
12.9298	3.19948
12.8976	3.17691
12.8656	3.06194
12.8337	3.12337
12.8021	3.26773
12.7705	3.38568
12.7391	3.39512
12.7079	3.27618
12.6769	3.21618
12.6459	3.1561
12.6152	3.07588
12.5845	2.93663
12.5541	2.7874
12.5238	2.85336
12.4936	2.95254
12.4635	3.12499
12.4337	3.3201
12.4039	3.47652
12.3743	3.71158
12.3448	4.02032
12.3155	4.31084
12.2863	4.56717
12.2573	4.67645
12.2284	4.75293
12.1996	4.76984
12.171	4.75832
12.1425	4.94533
12.1141	5.15217
12.0859	5.1663
12.0578	5.1538
12.0298	5.11461
12.0019	5.20652
11.9742	5.27718
11.9466	5.35002
11.9192	5.44628
11.8918	5.38576
11.8646	5.27932
11.8375	5.02096
11.8106	4.63507
11.7837	4.14105
11.757	3.64148
11.7304	3.12035
11.7039	3.08048
11.6776	3.73014
11.6513	4.09944
11.6252	4.13308
11.5992	4.05866
11.5733	3.95829
11.5475	3.81413
11.5219	3.81456
11.4963	4.03951
11.4709	4.3912
11.4455	4.87496
11.4203	5.38301
11.3952	6.06597
11.3702	6.98738
11.3454	8.02013
11.3206	9.21943
11.2959	10.4151
11.2714	11.6386
11.2469	12.8067
11.2226	13.7174
11.1983	14.5382
11.1742	15.2014
11.1502	15.3576
11.1263	14.1025
11.1024	11.9099
11.0787	10.2454
11.0551	9.28913
11.0316	8.54954
11.0081	7.90683
10.9848	7.54248
10.9616	7.32899
10.9385	7.20339
10.9154	7.11821
10.8925	7.02261
10.8697	7.03189
10.8469	7.06817
10.8243	6.94549
10.8017	6.8183
10.7793	6.69657
10.7569	6.79637
10.7346	6.84947
10.7125	6.73344
10.6904	6.65893
10.6684	6.65673
10.6465	6.58295
10.6247	6.48104
10.6029	6.4327
10.5813	6.46776
10.5597	6.35866
10.5383	6.20379
10.5169	6.1721
10.4956	6.1351
10.4744	6.1697
10.4533	6.22111
10.4323	6.05936
10.4113	5.91377
10.3904	5.824
10.3697	5.54815
10.349	5.40187
10.3284	5.33721
10.3078	5.15884
10.2874	4.99567
10.267	4.79278
10.2467	4.64477
10.2265	4.62978
10.2064	4.49955
10.1863	4.3421
10.1663	4.28807
10.1464	4.24802
10.1266	4.10486
10.1069	3.99853
10.0872	3.96723
10.0676	3.87408
10.0481	3.71975
10.0287	3.73567
10.0093	3.90997
9.99005	3.98983
9.97084	4.02784
9.95169	3.97504
9.93263	3.91679
9.91364	3.82424
9.89472	3.75865
9.87587	3.73421
9.8571	3.76721
9.83839	3.85017
9.81976	3.83508
9.80119	3.79166
9.78271	3.72757
9.76428	3.70706
9.74592	3.69576
9.72764	3.63602
9.70943	3.73698
9.69128	3.77878
9.6732	3.70043
9.65518	3.59535
9.63724	3.52909
9.61935	3.47898
9.60155	3.5175
9.5838	3.58834
9.56611	3.56852
9.5485	3.58203
9.53094	3.73976
9.51345	3.90698
9.49604	3.8519
9.47867	3.74201
9.46137	3.93642
9.44414	4.0709
9.42697	4.03663
9.40986	4.16322
9.39281	4.34554
9.37583	4.4856
9.35891	4.69066
9.34204	4.81075
9.32524	4.94195
9.3085	5.10856
9.29182	5.2305
9.27519	5.31116
9.25863	5.33101
9.24213	5.389
9.22568	5.52773
9.2093	5.50268
9.19297	5.35805
9.17669	5.30302
9.16048	5.1807
9.14433	5.01121
9.12823	4.81684
9.11218	4.70962
9.0962	4.61681
9.08027	4.56883
9.06439	4.78511
9.04858	4.87992
9.03281	4.81791
9.0171	4.86205
9.00145	4.93379
8.98585	4.92432
8.9703	4.75626
8.9548	4.66276
8.93937	4.75177
8.92398	4.88187
8.90865	4.91562
8.89337	4.87972
8.87814	4.97506
8.86296	4.95728
8.84784	4.91979
8.83277	4.89047
8.81774	4.86486
8.80277	4.96703
8.78786	5.09873
8.77298	5.17382
8.75816	5.06036
8.7434	4.97397
8.72868	5.1348
8.714	5.14507
8.69938	5.03547
8.68481	5.11791
8.67029	5.0987
8.65581	5.03318
8.64139	5.02449
8.62701	4.93098
8.61268	4.82597
8.5984	4.80486
8.58416	5.01544
8.56997	5.28485
8.55583	5.40362
8.54174	5.48405
8.52769	5.60524
8.51368	5.66876
8.49973	5.62493
8.48582	5.54502
8.47195	5.46883
8.45813	5.43655
8.44436	5.53305
8.43062	5.57594
8.41693	5.53413
8.4033	5.43285
8.3897	5.33918
8.37614	5.4325
8.36264	5.60912
8.34917	5.78618
8.33574	5.90077
8.32236	6.14669
8.30903	6.40673
8.29573	6.52881
8.28248	6.52151
8.26927	6.43969
8.2561	6.51614
8.24298	6.57569
8.2299	6.50081
8.21685	6.36694
8.20385	6.20666
8.19089	5.99379
8.17797	5.79832
8.16509	5.55339
8.15225	5.4646
8.13946	5.28309
8.1267	5.16783
8.11398	5.21416
8.10131	5.37628
8.08867	5.39474
8.07606	5.29331
8.0635	5.23404
8.05099	5.27257
8.0385	5.32726
8.02606	5.42597
8.01366	5.38338
8.00129	5.34808
7.98896	5.39336
7.97667	5.33991
7.96442	5.29013
7.9522	5.36179
7.94002	5.45965
7.92788	5.45675
7.91578	5.3055
7.90371	5.35177
7.89168	5.49132
7.87969	5.43456
7.86773	5.46007
7.85581	5.55134
7.84392	5.51794
7.83207	5.4856
7.82026	5.48736
7.80849	5.43172
7.79674	5.32158
7.78503	5.19613
7.77337	5.1079
7.76173	5.09205
7.75012	5.09481
7.73856	5.04189
7.72703	4.99703
7.71553	5.02182
7.70406	4.99693
7.69263	4.96882
7.68123	4.95224
7.66987	4.8623
7.65855	4.95775
7.64725	5.11543
7.63598	5.15555
7.62475	5.21706
7.61356	5.20652
7.60239	5.13477
7.59126	5.16548
7.58017	5.1766
7.5691	5.14131
7.55806	5.20585
7.54707	5.31981
7.5361	5.3395
7.52516	5.27715
7.51425	5.17062
7.50338	5.16667
7.49253	5.21283
7.48172	5.15876
7.47094	5.18079
7.46019	5.20997
7.44947	5.24004
7.43879	5.29332
7.42813	5.31792
7.4175	5.31181
7.4069	5.32473
7.39634	5.47791
7.3858	5.54834
7.37529	5.51188
7.36482	5.44794
7.35437	5.52326
7.34396	5.70963
7.33357	5.73531
7.32321	5.71294
7.31288	5.754
7.30258	5.85346
7.29231	6.01014
7.28207	6.20625
7.27185	6.17538
7.26167	6.16224
7.25152	6.2707
7.24139	6.38184
7.23129	6.5179
7.22122	6.58494
7.21117	6.64787
7.20116	6.78692
7.19117	6.92059
7.18121	7.17279
7.17128	7.51665
7.16137	7.69651
7.1515	7.78402
7.14164	7.9842
7.13182	8.21763
7.12203	8.58347
7.11225	8.90029
7.10251	9.12716
7.0928	9.22846
7.08311	9.36675
7.07344	9.87554
7.06381	10.628
7.0542	11.6551
7.04461	12.7543
7.03506	13.4182
7.02552	13.956
7.01601	14.3469
7.00653	14.4905
6.99708	14.5898
6.98765	14.5615
6.97824	14.5754
6.96886	14.7851
6.95951	14.9129
6.95018	14.6676
6.94087	14.5765
6.9316	14.525
6.92234	14.5309
6.91311	14.7096
6.90391	14.808
6.89473	14.8133
6.88557	14.9522
6.87644	15.212
6.86733	15.7033
6.85824	15.7907
6.84918	15.515
6.84015	15.4814
6.83114	15.7186
6.82215	15.9246
6.81319	15.9649
6.80424	16.1192
6.79532	16.3801
6.78643	16.4983
6.77756	16.4864
6.76871	16.552
6.75989	16.7291
6.75109	16.8994
6.74231	16.9705
6.73355	17.1673
6.72482	17.4824
6.71611	17.8855
6.70742	18.1124
6.69875	18.0405
6.69011	18.3866
6.68149	18.9346
6.67289	19.1785
6.66431	19.3213
6.65576	19.5848
6.64722	20.4263
6.63871	21.506
6.63022	21.5906
6.62175	21.45
6.61331	21.7343
6.60488	22.0276
6.59648	22.5879
6.5881	23.1075
6.57974	23.6231
6.5714	24.1861
6.56308	24.2341
6.55478	24.4184
6.54651	24.6462
6.53825	24.901
6.53001	25.3692
6.5218	26.0049
6.51361	26.1737
6.50544	26.6772
6.49729	27.9122
6.48915	28.4203
6.48104	28.1942
6.47295	28.1635
6.46488	28.1645
6.45683	28.3076
6.4488	28.4786
6.44079	28.7207
6.4328	29.0497
6.42482	29.3748
6.41687	30.2227
6.40894	29.8457
6.40103	28.727
6.39314	28.2613
6.38526	27.8168
6.37741	27.4208
6.36957	26.7739
6.36176	25.1563
6.35396	23.2125
6.34618	21.1662
6.33843	18.4879
6.33069	16.0637
6.32297	14.0934
6.31527	12.4015
6.30758	10.9554
6.29992	9.70695
6.29227	8.48864
6.28465	7.44383
6.27704	6.561
6.26945	5.78721
6.26188	5.26148
6.25432	4.86618
6.24679	4.42325
6.23927	4.05752
6.23177	3.70795
6.22429	3.4586
6.21683	3.12006
6.20938	2.92641
6.20195	2.83055
6.19454	2.72915
6.18715	2.7174
6.17978	2.66248
6.17242	2.42632
6.16508	2.36128
6.15776	2.33591
6.15045	2.21282
6.14317	2.01541
6.1359	1.84043
6.12864	1.77857
6.12141	1.71287
6.11419	1.58228
6.10699	1.43539
6.0998	1.3715
6.09263	1.33749
6.08549	1.27106
6.07835	1.38508
6.07123	1.44468
6.06413	1.27394
6.05705	1.238
6.04998	1.40125
6.04293	1.4348
6.0359	1.30201
6.02888	1.18736
6.02187	1.14842
6.01489	1.14508
6.00792	1.16814
6.00096	1.18741
5.99403	1.27362
5.98711	1.23146
5.9802	1.16536
5.97331	1.16191
5.96644	1.14553
5.95958	1.07124
5.95274	1.08538
5.94591	1.19391
5.9391	1.30975
5.9323	1.2639
5.92552	1.1936
5.91876	1.22028
5.91201	1.2296
5.90528	1.21048
5.89856	1.22503
5.89186	1.28818
5.88517	1.32596
5.8785	1.33446
5.87184	1.36724
5.8652	1.41714
5.85857	1.37477
5.85196	1.30968
5.84536	1.31499
5.83878	1.3665
5.83221	1.41463
5.82566	1.45712
5.81912	1.558
5.81259	1.46824
5.80608	1.3343
5.79959	1.32566
5.79311	1.37746
5.78665	1.45817
5.78019	1.44553
5.77376	1.39981
5.76734	1.43716
5.76093	1.41639
5.75453	1.39632
5.74815	1.42352
5.74179	1.43746
5.73543	1.4778
5.7291	1.49641
5.72277	1.56167
5.71646	1.5996
5.71017	1.60406
5.70389	1.63563
5.69762	1.50795
5.69136	1.39636
5.68513	1.44526
5.6789	1.60742
5.67268	1.611
5.66648	1.54155
5.6603	1.51454
5.65413	1.45382
5.64797	1.43741
5.64182	1.44872
5.63569	1.37773
5.62957	1.30754
5.62347	1.20683
5.61737	1.1981
5.61129	1.22005
5.60522	1.22871
5.59917	1.17231
5.59313	1.10461
5.5871	1.18711
5.58109	1.21905
5.57509	1.13119
5.5691	1.03792
5.56312	0.975402
5.55716	0.981063
5.55121	0.951813
5.54528	1.00219
5.53935	1.05761
5.53344	0.92982
5.52754	0.759898
5.52166	0.748236
5.51578	0.782393
5.50992	0.827392
5.50407	0.791921
5.49823	0.74146
5.49241	0.805998
5.4866	0.846897
5.4808	0.822045
5.47501	0.830671
5.46923	0.929723
5.46347	1.10015
5.45772	1.17454
5.45198	1.31613
5.44625	1.43803
5.44054	1.64468
5.43484	1.98811
5.42914	2.26662
5.42347	2.58627
5.4178	2.93302
5.41214	3.30214
5.4065	3.68727
5.40087	3.95133
5.39525	4.17222
5.38964	4.41378
5.38404	4.62081
5.37846	4.77252
5.37288	4.86699
5.36732	4.96639
5.36177	5.11769
5.35623	5.3347
5.35071	5.53006
5.34519	5.69441
5.33968	5.85185
5.33419	6.02295
5.32871	6.19467
5.32324	6.37112
5.31778	6.47921
5.31233	6.58867
5.30689	6.72318
5.30147	6.91179
5.29605	7.1849
5.29065	7.44523
5.28525	7.62059
5.27987	7.88224
5.2745	8.23064
5.26914	8.70043
5.26379	9.22464
5.25845	9.69866
5.25312	10.1418
5.24781	10.6774
5.2425	11.292
5.23721	11.9327
5.23192	12.5239
5.22665	13.1016
5.22138	13.6886
5.21613	14.1514
5.21089	14.5552
5.20566	14.9842
5.20044	15.4003
5.19522	15.726
5.19002	15.9981
5.18483	16.2544
5.17965	16.5565
5.17448	16.9362
5.16933	17.2353
5.16418	17.4846
5.15904	17.7735
5.15391	17.9872
5.14879	18.172
5.14368	18.3893
5.13859	18.5196
5.1335	18.5793
5.12842	18.7385
5.12335	18.9922
5.1183	19.1145
5.11325	19.2034
5.10821	19.2925
5.10318	19.3298
5.09817	19.2127
5.09316	19.0351
5.08816	18.7626
5.08317	18.3
5.07819	17.4816
5.07322	16.2409
5.06826	14.929
5.06331	14.2025
5.05837	14.5125
5.05344	15.5831
5.04852	16.9341
5.04361	18.1069
5.03871	18.9452
5.03382	19.5015
5.02894	19.8899
5.02406	20.2459
5.0192	20.5405
5.01435	20.7162
5.0095	20.8516
5.00467	21.0353
4.99984	21.2636
4.99502	21.4642
4.99021	21.6866
4.98542	21.9493
4.98063	22.2581
4.97585	22.6616
4.97108	23.095
4.96632	23.5963
4.96156	24.0097
4.95682	24.3956
4.95209	24.8018
4.94736	25.0583
4.94264	25.1675
4.93794	25.3638
4.93324	25.6364
4.92855	25.8872
4.92387	26.122
4.9192	26.4254
4.91453	26.8168
4.90988	27.2475
4.90524	27.7252
4.9006	28.1396
4.89597	28.6221
4.89135	29.0516
4.88674	29.3768
4.88214	29.6378
4.87755	29.9542
4.87296	30.2771
4.86839	30.3867
4.86382	30.3999
4.85926	30.4972
4.85471	30.6206
4.85017	30.6856
4.84564	30.7718
4.84111	30.7905
4.8366	30.7556
4.83209	30.7474
4.82759	30.8059
4.8231	30.8352
4.81862	30.8781
4.81415	30.8411
4.80968	30.7973
4.80522	30.7699
4.80077	30.8017
4.79633	30.761
4.7919	30.7229
4.78747	30.6547
4.78306	30.6548
4.77865	30.7022
4.77425	30.6946
4.76986	30.5811
4.76547	30.4869
4.7611	30.4111
4.75673	30.2996
4.75237	30.19
4.74802	30.1134
4.74367	29.9589
4.73934	29.736
4.73501	29.4802
4.73069	29.286
4.72638	28.9827
4.72207	28.555
4.71777	28.083
4.71348	27.6388
4.7092	27.0456
4.70493	26.4367
4.70066	25.8487
4.69641	25.1101
4.69216	24.1809
4.68791	23.2922
4.68368	22.2719
4.67945	20.9375
4.67523	19.4867
4.67102	18.0544
4.66682	16.5998
4.66262	15.3694
4.65843	14.3465
4.65425	13.4997
4.65007	12.9705
4.64591	12.6397
4.64175	12.3602
4.6376	12.1536
4.63345	12.0331
4.62932	11.9299
4.62519	11.8259
4.62106	11.7251
4.61695	11.7299
4.61284	11.8397
4.60874	11.9622
4.60465	12.2207
4.60056	12.6515
4.59648	13.1653
4.59241	13.6664
4.58835	14.2712
4.58429	15.0138
4.58024	15.7512
4.5762	16.3256
4.57216	16.8551
4.56814	17.4232
4.56411	17.9738
4.5601	18.4655
4.55609	18.9533
4.55209	19.4053
4.5481	19.8413
4.54411	20.2812
4.54013	20.6051
4.53616	20.8598
4.5322	21.1558
4.52824	21.4082
4.52429	21.7952
4.52034	22.178
4.51641	22.5234
4.51247	23.0013
4.50855	23.6778
4.50463	24.5565
4.50072	25.4511
4.49682	26.2569
4.49292	26.816
4.48903	27.1263
4.48515	27.2831
4.48127	27.2291
4.4774	26.9246
4.47354	26.4987
4.46968	25.9275
4.46584	25.2999
4.46199	24.6558
4.45815	23.9357
4.45432	23.1886
4.4505	22.5825
4.44668	22.1481
4.44287	21.8288
4.43907	21.6807
4.43527	21.6391
4.43148	21.8394
4.4277	22.1512
4.42392	22.5929
4.42015	23.155
4.41638	23.7399
4.41262	24.392
4.40887	25.0374
4.40513	25.6523
4.40139	26.2642
4.39765	26.8366
4.39393	27.4455
4.39021	28.064
4.38649	28.7593
4.38278	29.3833
4.37908	29.8595
4.37539	30.304
4.3717	30.765
4.36801	31.2039
4.36434	31.6553
4.36067	32.0215
4.357	32.1948
4.35335	32.0911
4.34969	31.5868
4.34605	30.6478
4.34241	29.3657
4.33877	28.1758
4.33514	27.3702
4.33152	26.7912
4.32791	26.3304
4.3243	25.9121
4.32069	25.4684
4.3171	25.0086
4.31351	24.5648
4.30992	24.2302
4.30634	23.9536
4.30277	23.6007
4.2992	23.2829
4.29564	23.0817
4.29208	22.7824
4.28853	22.1926
4.28499	21.6143
4.28145	21.0906
4.27792	20.7038
4.27439	20.5638
4.27087	20.5006
4.26735	20.6499
4.26384	21.1839
4.26034	21.8722
4.25684	22.4739
4.25335	23.0311
4.24986	23.621
4.24638	23.9942
4.24291	24.2986
4.23944	24.6822
4.23598	25.1051
4.23252	25.4683
4.22906	25.7384
4.22562	25.9827
4.22218	26.135
4.21874	26.2257
4.21531	26.3423
4.21189	26.6719
4.20847	27.1614
4.20506	27.5372
4.20165	27.966
4.19825	28.4029
4.19485	28.6584
4.19146	28.6024
4.18807	28.4144
4.18469	28.261
4.18132	28.0797
4.17795	27.8969
4.17458	27.6269
4.17123	27.3068
4.16787	27.011
4.16453	26.7058
4.16118	26.3547
4.15785	25.9545
4.15451	25.3895
4.15119	24.93
4.14787	24.7103
4.14455	24.7368
4.14124	24.8061
4.13794	24.7257
4.13464	24.6964
4.13134	24.7377
4.12805	24.7392
4.12477	24.6717
4.12149	24.5819
4.11822	24.3539
4.11495	24.1072
4.11168	23.965
4.10843	23.7255
4.10517	23.5005
4.10192	23.2609
4.09868	22.9311
4.09545	22.6394
4.09221	22.2978
4.08899	21.831
4.08576	21.3054
4.08255	20.7481
4.07933	20.278
4.07613	19.7982
4.07292	19.228
4.06973	18.5705
4.06654	17.8984
4.06335	17.2768
4.06017	16.6293
4.05699	16.0051
4.05382	15.3603
4.05065	14.6348
4.04749	13.8404
4.04433	13.1475
4.04118	12.4564
4.03803	11.7352
4.03489	10.9395
4.03175	10.1812
4.02862	9.44806
4.02549	8.73822
4.02237	8.00064
4.01925	7.2243
4.01614	6.55839
4.01303	5.92421
4.00993	5.26438
4.00683	4.6857
4.00373	4.20171
4.00064	3.79084
3.99756	3.46834
3.99448	3.17699
3.9914	2.91306
3.98833	2.69925
3.98527	2.51349
3.98221	2.27474
3.97915	2.0571
3.9761	1.92296
3.97305	1.94134
3.97001	1.88816
3.96697	1.77108
3.96394	1.71878
3.96091	1.74308
3.95789	1.83725
3.95487	1.76732
3.95186	1.66225
3.94885	1.72714
3.94584	1.83239
3.94284	1.89284
3.93984	1.8589
3.93685	1.79632
3.93386	1.69425
3.93088	1.62979
3.9279	1.70586
3.92493	1.86372
3.92196	1.8891
3.919	1.80899
3.91604	1.81268
3.91308	1.80776
3.91013	1.87623
3.90718	2.00068
3.90424	2.0772
3.9013	2.18018
3.89837	2.28434
3.89544	2.30082
3.89252	2.19516
3.8896	2.15181
3.88668	2.24983
3.88377	2.2828
3.88086	2.31521
3.87796	2.41143
3.87506	2.45498
3.87217	2.43621
3.86928	2.50476
3.86639	2.58343
3.86351	2.60602
3.86064	2.73327
3.85776	2.82289
3.8549	2.97409
3.85203	3.39442
3.84917	3.91276
3.84631	4.36159
3.84346	4.79996
3.84062	4.96808
3.83777	4.93222
3.83494	4.85123
3.8321	4.52962
3.82927	4.24674
3.82644	4.08911
3.82362	3.80584
3.82081	3.5746
3.81799	3.35435
3.81518	3.03976
3.81238	2.78417
3.80958	2.59723
3.80678	2.50435
3.80399	2.51582
3.8012	2.58402
3.79841	2.72267
3.79563	2.87363
3.79286	2.99584
3.79008	3.14498
3.78731	3.37491
3.78455	3.75426
3.78179	4.09716
3.77903	4.37689
3.77628	4.63886
3.77353	4.97975
3.77079	5.46339
3.76805	6.00509
3.76531	6.53646
3.76258	7.17832
3.75985	8.00441
3.75713	8.88963
3.7544	9.86118
3.75169	11.076
3.74898	12.4297
3.74627	14.0146
3.74356	15.5929
3.74086	16.9372
3.73816	18.1416
3.73547	19.2724
3.73278	20.1067
3.7301	20.7938
3.72741	21.4321
3.72474	21.9094
3.72206	22.3632
3.71939	22.786
3.71673	23.2124
3.71406	23.6248
3.71141	23.9653
3.70875	24.3386
3.7061	24.6851
3.70345	25.0781
3.70081	25.5116
3.69817	25.9568
3.69553	26.3784
3.6929	26.7838
3.69027	27.3257
3.68765	27.7699
3.68503	28.0226
3.68241	28.3022
3.6798	28.5905
3.67719	28.8055
3.67458	28.9458
3.67198	29.0425
3.66938	29.2259
3.66678	29.4765
3.66419	29.5764
3.66161	29.5994
3.65902	29.6442
3.65644	29.7375
3.65387	29.8458
3.65129	29.9043
3.64872	29.9465
3.64616	29.9664
3.64359	29.9488
3.64103	29.9331
3.63848	29.9984
3.63593	29.9647
3.63338	29.8718
3.63084	29.8935
3.6283	29.9192
3.62576	29.8297
3.62322	29.6582
3.62069	29.5001
3.61817	29.3621
3.61564	29.2937
3.61312	29.2863
3.61061	29.1754
3.6081	29.0607
3.60559	28.9648
3.60308	28.7998
3.60058	28.674
3.59808	28.5948
3.59558	28.4086
3.59309	28.2852
3.59061	28.1847
3.58812	28.0564
3.58564	27.8899
3.58316	27.6814
3.58069	27.487
3.57822	27.2358
3.57575	26.9594
3.57328	26.5485
3.57082	26.1299
3.56836	25.7481
3.56591	25.2687
3.56346	24.5303
3.56101	23.5861
3.55857	22.5814
3.55613	21.374
3.55369	19.9864
3.55126	18.6787
3.54883	17.9064
3.5464	17.907
3.54397	18.3641
3.54155	18.8535
3.53914	19.1176
3.53672	19.1482
3.53431	18.89
3.5319	18.4372
3.5295	17.7769
3.5271	16.9063
3.5247	16.0138
3.52231	15.1315
3.51991	14.0843
3.51753	12.934
3.51514	11.8183
3.51276	10.795
3.51038	9.72
3.50801	8.4927
3.50563	7.4299
3.50327	6.53595
3.5009	5.71313
3.49854	5.07527
3.49618	4.4773
3.49382	3.96637
3.49147	3.58617
3.48912	3.44071
3.48677	3.23788
3.48443	3.07189
3.48209	2.98568
3.47975	2.80424
3.47742	2.67044
3.47509	2.58487
3.47276	2.51935
3.47044	2.47101
3.46812	2.39977
3.4658	2.35076
3.46348	2.41548
