Name: Labradorite (Feldspar) (NaSi,CaAl)AlSi_2O_8
Type: Mineral
Class: Silicates
Subclass: Tectosilicates
Particle Size: 0-45um
Sample No.: TS-2B
Owner: JPL
Wavelength range: IR
Origin: Canada, Quebec, Lake St. John
Collected by Ward's
Description:   





Measurement: Hemispherical reflectance
First Column: X
Second Column: Y
X Units:  Wavelength (micrometers)
Y Units:  Reflectance (percent)
First X Value: 15.3853
Last X Value: 2.00032
Number of X Values: 2256
Additional information: ts02ba.txt
 
15.3853	3.6472
15.3397	3.64869
15.2945	3.0607
15.2495	2.74626
15.2048	2.76513
15.1603	2.69839
15.1161	2.61811
15.0722	2.37162
15.0285	2.42304
14.9851	2.57697
14.9419	2.36928
14.8989	2.3392
14.8563	2.5353
14.8138	2.63946
14.7716	2.65674
14.7296	2.60495
14.6879	2.70225
14.6464	2.84156
14.6052	2.83257
14.5641	2.81413
14.5233	2.67101
14.4828	2.55951
14.4424	2.74379
14.4023	2.92134
14.3624	2.91945
14.3227	2.74552
14.2833	2.81514
14.244	2.96814
14.205	3.0356
14.1662	3.20588
14.1276	3.22635
14.0892	3.11246
14.051	2.92442
14.0131	2.93956
13.9753	3.1897
13.9377	3.26571
13.9004	3.20614
13.8632	3.18854
13.8262	3.13108
13.7895	3.02301
13.7529	3.09946
13.7165	3.09888
13.6803	3.03648
13.6443	3.03044
13.6085	3.14978
13.5729	3.09341
13.5374	2.97049
13.5022	3.2603
13.4671	3.38631
13.4322	3.31374
13.3975	3.24964
13.363	3.19075
13.3286	3.14817
13.2944	3.04852
13.2604	2.94123
13.2266	2.89732
13.193	2.97061
13.1595	2.99875
13.1262	3.07014
13.093	2.95915
13.06	3.00779
13.0272	3.18787
12.9946	3.14649
12.9621	3.06042
12.9298	3.05149
12.8976	3.31764
12.8656	3.39513
12.8337	3.21151
12.8021	3.24578
12.7705	3.50077
12.7391	3.53484
12.7079	3.53265
12.6769	3.67465
12.6459	3.91893
12.6152	4.16847
12.5845	4.40375
12.5541	4.60417
12.5238	4.79598
12.4936	5.25705
12.4635	5.75734
12.4337	6.22947
12.4039	6.69308
12.3743	7.34495
12.3448	8.11604
12.3155	8.61641
12.2863	9.10298
12.2573	9.65414
12.2284	10.2818
12.1996	10.8602
12.171	11.2544
12.1425	11.4513
12.1141	11.5625
12.0859	11.6076
12.0578	11.7668
12.0298	11.7328
12.0019	11.6363
11.9742	11.5779
11.9466	11.3477
11.9192	11.2468
11.8918	11.1824
11.8646	10.9124
11.8375	10.7628
11.8106	10.61
11.7837	10.5018
11.757	10.3585
11.7304	10.0474
11.7039	9.96996
11.6776	10.0546
11.6513	9.94507
11.6252	9.77054
11.5992	9.81311
11.5733	9.7471
11.5475	9.67725
11.5219	9.65714
11.4963	9.48298
11.4709	9.32341
11.4455	9.1602
11.4203	9.06131
11.3952	8.87058
11.3702	8.66011
11.3454	8.42786
11.3206	8.23528
11.2959	8.09394
11.2714	7.72188
11.2469	7.35973
11.2226	7.20794
11.1983	7.01234
11.1742	6.81059
11.1502	6.58732
11.1263	6.37435
11.1024	6.29204
11.0787	6.09692
11.0551	5.96316
11.0316	5.95148
11.0081	5.97201
10.9848	6.00687
10.9616	6.12798
10.9385	6.21392
10.9154	6.20383
10.8925	6.03948
10.8697	5.9244
10.8469	5.87004
10.8243	5.96824
10.8017	6.08899
10.7793	6.09789
10.7569	6.06311
10.7346	6.05415
10.7125	5.96871
10.6904	6.013
10.6684	6.13069
10.6465	6.1274
10.6247	6.08842
10.6029	6.13791
10.5813	6.08779
10.5597	5.94881
10.5383	5.92593
10.5169	6.00854
10.4956	5.97537
10.4744	5.9297
10.4533	5.93587
10.4323	5.87405
10.4113	5.87379
10.3904	5.93819
10.3697	5.96475
10.349	5.83378
10.3284	5.69361
10.3078	5.60539
10.2874	5.51404
10.267	5.5859
10.2467	5.73396
10.2265	5.78876
10.2064	5.79861
10.1863	5.76455
10.1663	5.74871
10.1464	5.75737
10.1266	5.82157
10.1069	5.83172
10.0872	5.80405
10.0676	5.9091
10.0481	6.1259
10.0287	6.1705
10.0093	6.08969
9.99005	5.97465
9.97084	6.0193
9.95169	6.0523
9.93263	5.95094
9.91364	5.9794
9.89472	6.07639
9.87587	6.006
9.8571	5.92172
9.83839	5.90022
9.81976	5.80847
9.80119	5.66603
9.78271	5.51244
9.76428	5.46995
9.74592	5.55701
9.72764	5.55822
9.70943	5.42661
9.69128	5.41258
9.6732	5.44798
9.65518	5.36772
9.63724	5.32587
9.61935	5.30674
9.60155	5.21295
9.5838	5.1567
9.56611	5.05631
9.5485	4.84581
9.53094	4.73119
9.51345	4.67731
9.49604	4.6523
9.47867	4.64564
9.46137	4.52325
9.44414	4.46055
9.42697	4.29354
9.40986	4.1339
9.39281	4.13549
9.37583	4.00751
9.35891	3.89963
9.34204	3.89594
9.32524	3.83048
9.3085	3.76401
9.29182	3.70567
9.27519	3.76972
9.25863	3.76878
9.24213	3.62492
9.22568	3.63617
9.2093	3.74241
9.19297	3.91846
9.17669	3.98023
9.16048	3.84309
9.14433	3.79495
9.12823	3.8929
9.11218	4.06476
9.0962	4.19042
9.08027	4.31504
9.06439	4.32444
9.04858	4.37615
9.03281	4.57294
9.0171	4.60427
9.00145	4.64264
8.98585	4.79006
8.9703	4.79683
8.9548	4.63459
8.93937	4.68252
8.92398	4.83404
8.90865	4.79836
8.89337	4.81249
8.87814	4.79122
8.86296	4.95447
8.84784	5.04727
8.83277	5.08384
8.81774	5.06021
8.80277	5.12452
8.78786	5.24083
8.77298	5.35779
8.75816	5.43479
8.7434	5.39254
8.72868	5.3782
8.714	5.24203
8.69938	5.14833
8.68481	5.21134
8.67029	5.2261
8.65581	5.21451
8.64139	5.25085
8.62701	5.22571
8.61268	5.20688
8.5984	5.2235
8.58416	5.31607
8.56997	5.34018
8.55583	5.29053
8.54174	5.27394
8.52769	5.23853
8.51368	5.24769
8.49973	5.34084
8.48582	5.36386
8.47195	5.38505
8.45813	5.49907
8.44436	5.55113
8.43062	5.66596
8.41693	5.69849
8.4033	5.60287
8.3897	5.59834
8.37614	5.77205
8.36264	5.7644
8.34917	5.54603
8.33574	5.43613
8.32236	5.29258
8.30903	5.17715
8.29573	5.05448
8.28248	4.86075
8.26927	4.61704
8.2561	4.3814
8.24298	4.11271
8.2299	3.8606
8.21685	3.61301
8.20385	3.35573
8.19089	3.45478
8.17797	3.30727
8.16509	2.99176
8.15225	2.86254
8.13946	2.79617
8.1267	2.7555
8.11398	2.60229
8.10131	2.48853
8.08867	2.41532
8.07606	2.45524
8.0635	2.43015
8.05099	2.33425
8.0385	2.29474
8.02606	2.26375
8.01366	2.29763
8.00129	2.31831
7.98896	2.25518
7.97667	2.22071
7.96442	2.34125
7.9522	2.39507
7.94002	2.41083
7.92788	2.45377
7.91578	2.51656
7.90371	2.55572
7.89168	2.6012
7.87969	2.74892
7.86773	2.81632
7.85581	2.80866
7.84392	2.8929
7.83207	2.94755
7.82026	2.98837
7.80849	3.14957
7.79674	3.30148
7.78503	3.40171
7.77337	3.43392
7.76173	3.51968
7.75012	3.62508
7.73856	3.69178
7.72703	3.79243
7.71553	3.9391
7.70406	4.10183
7.69263	4.20145
7.68123	4.19121
7.66987	4.26316
7.65855	4.50971
7.64725	4.67711
7.63598	4.65752
7.62475	4.75191
7.61356	4.90735
7.60239	5.09472
7.59126	5.23645
7.58017	5.35092
7.5691	5.45704
7.55806	5.63907
7.54707	5.71107
7.5361	5.75916
7.52516	5.90328
7.51425	6.0741
7.50338	6.23519
7.49253	6.39924
7.48172	6.45519
7.47094	6.63083
7.46019	6.86183
7.44947	6.92545
7.43879	7.01891
7.42813	7.08879
7.4175	7.1507
7.4069	7.36196
7.39634	7.54035
7.3858	7.62922
7.37529	7.79117
7.36482	7.97345
7.35437	8.0847
7.34396	8.16393
7.33357	8.26913
7.32321	8.33927
7.31288	8.4494
7.30258	8.57599
7.29231	8.63657
7.28207	8.67892
7.27185	8.75414
7.26167	8.81397
7.25152	8.91663
7.24139	9.07136
7.23129	9.23518
7.22122	9.35211
7.21117	9.44323
7.20116	9.54741
7.19117	9.54993
7.18121	9.57439
7.17128	9.76071
7.16137	9.89916
7.1515	9.92027
7.14164	9.85068
7.13182	9.87036
7.12203	9.94396
7.11225	10.0706
7.10251	10.1657
7.0928	10.2908
7.08311	10.3594
7.07344	10.3529
7.06381	10.4467
7.0542	10.7115
7.04461	10.7948
7.03506	10.6279
7.02552	10.6328
7.01601	10.6918
7.00653	10.7037
6.99708	10.7801
6.98765	10.8291
6.97824	10.8163
6.96886	10.881
6.95951	11.0979
6.95018	11.056
6.94087	11.0646
6.9316	11.1769
6.92234	11.2422
6.91311	11.2824
6.90391	11.3656
6.89473	11.3905
6.88557	11.4051
6.87644	11.5614
6.86733	11.9156
6.85824	11.9356
6.84918	11.7758
6.84015	11.8354
6.83114	12.0381
6.82215	12.1097
6.81319	12.0619
6.80424	12.1401
6.79532	12.4384
6.78643	12.675
6.77756	12.6272
6.76871	12.523
6.75989	12.5586
6.75109	12.7149
6.74231	12.8369
6.73355	12.938
6.72482	13.0491
6.71611	13.237
6.70742	13.345
6.69875	13.293
6.69011	13.5063
6.68149	13.7929
6.67289	13.8427
6.66431	13.8405
6.65576	13.8517
6.64722	14.1859
6.63871	14.7464
6.63022	14.7492
6.62175	14.5404
6.61331	14.5444
6.60488	14.6591
6.59648	14.953
6.5881	15.0861
6.57974	15.2885
6.5714	15.5753
6.56308	15.5149
6.55478	15.5766
6.54651	15.616
6.53825	15.6075
6.53001	15.7864
6.5218	16.0451
6.51361	16.0227
6.50544	16.1341
6.49729	16.6349
6.48915	16.798
6.48104	16.5879
6.47295	16.4601
6.46488	16.3833
6.45683	16.3876
6.4488	16.5053
6.44079	16.6187
6.4328	16.7294
6.42482	16.9584
6.41687	17.5653
6.40894	17.4623
6.40103	16.7913
6.39314	16.5952
6.38526	16.616
6.37741	16.6915
6.36957	16.868
6.36176	16.7704
6.35396	16.7424
6.34618	16.9807
6.33843	16.7317
6.33069	16.3596
6.32297	16.4597
6.31527	16.5298
6.30758	16.6207
6.29992	16.6046
6.29227	16.6099
6.28465	16.6378
6.27704	16.6582
6.26945	16.6767
6.26188	16.6374
6.25432	16.6466
6.24679	16.7076
6.23927	16.7137
6.23177	16.7005
6.22429	16.7738
6.21683	16.8463
6.20938	16.9055
6.20195	16.9504
6.19454	17.0822
6.18715	17.3346
6.17978	17.248
6.17242	17.053
6.16508	17.1752
6.15776	17.2471
6.15045	17.2306
6.14317	17.2673
6.1359	17.1823
6.12864	17.147
6.12141	17.4215
6.11419	17.7581
6.10699	17.5741
6.0998	17.3777
6.09263	17.3816
6.08549	17.5336
6.07835	17.8715
6.07123	17.9794
6.06413	17.7784
6.05705	18.0797
6.04998	18.8151
6.04293	18.4716
6.0359	17.9633
6.02888	17.9165
6.02187	18.0445
6.01489	18.1823
6.00792	18.1633
6.00096	18.2043
5.99403	18.4827
5.98711	18.6194
5.9802	18.5708
5.97331	18.7341
5.96644	18.8285
5.95958	18.7103
5.95274	18.8545
5.94591	19.0575
5.9391	19.5605
5.9323	19.5458
5.92552	19.2187
5.91876	19.1914
5.91201	19.2503
5.90528	19.5116
5.89856	20.0509
5.89186	20.1377
5.88517	20.3387
5.8785	20.4498
5.87184	20.0755
5.8652	20.2216
5.85857	20.2123
5.85196	20.21
5.84536	20.2681
5.83878	20.451
5.83221	20.8233
5.82566	21.2648
5.81912	21.3363
5.81259	21.0259
5.80608	20.9558
5.79959	21.117
5.79311	21.1911
5.78665	21.2871
5.78019	21.4695
5.77376	21.7978
5.76734	22.2977
5.76093	22.1443
5.75453	21.9048
5.74815	22.085
5.74179	22.0778
5.73543	22.0492
5.7291	22.0602
5.72277	22.2192
5.71646	22.4718
5.71017	22.6352
5.70389	22.4274
5.69762	22.4172
5.69136	22.6183
5.68513	22.6502
5.6789	22.8065
5.67268	22.9129
5.66648	22.8549
5.6603	22.9992
5.65413	23.1227
5.64797	23.3423
5.64182	23.6251
5.63569	23.4524
5.62957	23.2955
5.62347	23.2709
5.61737	23.3953
5.61129	23.5326
5.60522	23.6313
5.59917	23.6814
5.59313	23.6649
5.5871	23.7261
5.58109	23.8935
5.57509	23.8985
5.5691	23.7571
5.56312	23.8023
5.55716	23.9768
5.55121	24.2452
5.54528	24.4011
5.53935	24.5712
5.53344	24.7232
5.52754	24.9054
5.52166	25.1125
5.51578	25.2001
5.50992	25.2167
5.50407	25.3738
5.49823	25.5746
5.49241	25.7331
5.4866	25.7977
5.4808	26.005
5.47501	26.1593
5.46923	26.3733
5.46347	26.5272
5.45772	26.4441
5.45198	26.4674
5.44625	26.639
5.44054	26.8359
5.43484	26.9502
5.42914	27.1629
5.42347	27.5804
5.4178	27.6672
5.41214	27.5608
5.4065	27.6229
5.40087	27.7745
5.39525	27.9539
5.38964	28.135
5.38404	28.2584
5.37846	28.2791
5.37288	28.3633
5.36732	28.5867
5.36177	28.7618
5.35623	28.9428
5.35071	29.1787
5.34519	29.2044
5.33968	29.2179
5.33419	29.2932
5.32871	29.4074
5.32324	29.5445
5.31778	29.6348
5.31233	29.7174
5.30689	29.8759
5.30147	29.9889
5.29605	30.0851
5.29065	30.1901
5.28525	30.2881
5.27987	30.4382
5.2745	30.5952
5.26914	30.6796
5.26379	30.7135
5.25845	30.8145
5.25312	30.9052
5.24781	31.0235
5.2425	31.1292
5.23721	31.2693
5.23192	31.3702
5.22665	31.5512
5.22138	31.8086
5.21613	32.0854
5.21089	32.1772
5.20566	32.1332
5.20044	32.309
5.19522	32.5002
5.19002	32.6703
5.18483	32.8404
5.17965	33.0265
5.17448	33.1748
5.16933	33.3799
5.16418	33.5499
5.15904	33.6747
5.15391	33.8724
5.14879	34.1343
5.14368	34.333
5.13859	34.4878
5.1335	34.6168
5.12842	34.8214
5.12335	35.0605
5.1183	35.2249
5.11325	35.4272
5.10821	35.5827
5.10318	35.7582
5.09817	35.9785
5.09316	36.1631
5.08816	36.4039
5.08317	36.6909
5.07819	36.8355
5.07322	36.9235
5.06826	37.1117
5.06331	37.327
5.05837	37.5336
5.05344	37.7111
5.04852	37.8671
5.04361	38.0964
5.03871	38.2432
5.03382	38.4071
5.02894	38.5485
5.02406	38.7642
5.0192	38.9878
5.01435	39.0963
5.0095	39.2853
5.00467	39.4283
4.99984	39.5214
4.99502	39.6479
4.99021	39.7292
4.98542	39.8186
4.98063	39.9466
4.97585	40.0995
4.97108	40.2097
4.96632	40.3004
4.96156	40.3887
4.95682	40.4706
4.95209	40.5655
4.94736	40.7191
4.94264	40.8461
4.93794	40.9007
4.93324	40.9413
4.92855	41.0302
4.92387	41.1093
4.9192	41.1764
4.91453	41.2376
4.90988	41.2839
4.90524	41.3944
4.9006	41.5386
4.89597	41.5967
4.89135	41.6962
4.88674	41.8027
4.88214	41.91
4.87755	41.9189
4.87296	41.9485
4.86839	42.0463
4.86382	42.143
4.85926	42.1508
4.85471	42.209
4.85017	42.2922
4.84564	42.3413
4.84111	42.3952
4.8366	42.5003
4.83209	42.6178
4.82759	42.6215
4.8231	42.6807
4.81862	42.7791
4.81415	42.8592
4.80968	42.9068
4.80522	42.9633
4.80077	43.034
4.79633	43.0311
4.7919	43.1451
4.78747	43.2665
4.78306	43.3299
4.77865	43.3552
4.77425	43.4304
4.76986	43.4973
4.76547	43.6085
4.7611	43.7413
4.75673	43.8534
4.75237	43.8983
4.74802	43.8979
4.74367	43.9255
4.73934	44.0411
4.73501	44.164
4.73069	44.2183
4.72638	44.2812
4.72207	44.3844
4.71777	44.4576
4.71348	44.561
4.7092	44.6508
4.70493	44.6947
4.70066	44.7524
4.69641	44.8233
4.69216	44.9492
4.68791	45.0488
4.68368	45.092
4.67945	45.213
4.67523	45.3894
4.67102	45.4291
4.66682	45.4453
4.66262	45.5503
4.65843	45.7129
4.65425	45.851
4.65007	45.9123
4.64591	46.0257
4.64175	46.1772
4.6376	46.3205
4.63345	46.4205
4.62932	46.5193
4.62519	46.6091
4.62106	46.762
4.61695	46.8661
4.61284	46.957
4.60874	47.0244
4.60465	47.1341
4.60056	47.2752
4.59648	47.4434
4.59241	47.5634
4.58835	47.7051
4.58429	47.8125
4.58024	47.8934
4.5762	47.9006
4.57216	48.0484
4.56814	48.2253
4.56411	48.2871
4.5601	48.4238
4.55609	48.5944
4.55209	48.6437
4.5481	48.7367
4.54411	48.8887
4.54013	49.0039
4.53616	49.0787
4.5322	49.163
4.52824	49.2133
4.52429	49.2601
4.52034	49.3431
4.51641	49.4016
4.51247	49.4885
4.50855	49.6327
4.50463	49.7631
4.50072	49.8818
4.49682	49.9678
4.49292	50.0462
4.48903	50.1069
4.48515	50.1491
4.48127	50.2462
4.4774	50.3552
4.47354	50.4299
4.46968	50.4681
4.46584	50.5168
4.46199	50.5873
4.45815	50.6611
4.45432	50.746
4.4505	50.7978
4.44668	50.8247
4.44287	50.8561
4.43907	50.9495
4.43527	51.1026
4.43148	51.1799
4.4277	51.2164
4.42392	51.3045
4.42015	51.3635
4.41638	51.4132
4.41262	51.4402
4.40887	51.4676
4.40513	51.5778
4.40139	51.6892
4.39765	51.7256
4.39393	51.7983
4.39021	51.8583
4.38649	51.8946
4.38278	52.0348
4.37908	52.1084
4.37539	52.1799
4.3717	52.2701
4.36801	52.291
4.36434	52.285
4.36067	52.2868
4.357	52.4356
4.35335	52.5517
4.34969	52.5446
4.34605	52.5308
4.34241	52.5906
4.33877	52.6881
4.33514	52.7202
4.33152	52.7298
4.32791	52.7506
4.3243	52.7516
4.32069	52.73
4.3171	52.6902
4.31351	52.7049
4.30992	52.7384
4.30634	52.6408
4.30277	52.5551
4.2992	52.5488
4.29564	52.4821
4.29208	52.4484
4.28853	52.4818
4.28499	52.5665
4.28145	52.5696
4.27792	52.5892
4.27439	52.6462
4.27087	52.6994
4.26735	52.7916
4.26384	52.9488
4.26034	53.2638
4.25684	53.5499
4.25335	53.445
4.24986	53.2122
4.24638	52.9742
4.24291	52.7923
4.23944	52.781
4.23598	52.7691
4.23252	52.7477
4.22906	52.8555
4.22562	53.0274
4.22218	53.1812
4.21874	53.3428
4.21531	53.5196
4.21189	53.7228
4.20847	53.9502
4.20506	54.0931
4.20165	54.2389
4.19825	54.388
4.19485	54.4399
4.19146	54.4532
4.18807	54.4776
4.18469	54.5148
4.18132	54.4856
4.17795	54.5249
4.17458	54.5386
4.17123	54.5293
4.16787	54.524
4.16453	54.4998
4.16118	54.5606
4.15785	54.6129
4.15451	54.6159
4.15119	54.6037
4.14787	54.6598
4.14455	54.7301
4.14124	54.7618
4.13794	54.7283
4.13464	54.69
4.13134	54.7067
4.12805	54.7506
4.12477	54.7817
4.12149	54.7881
4.11822	54.7888
4.11495	54.786
4.11168	54.8024
4.10843	54.7908
4.10517	54.7819
4.10192	54.8357
4.09868	54.8035
4.09545	54.8128
4.09221	54.8416
4.08899	54.8505
4.08576	54.82
4.08255	54.8245
4.07933	54.8652
4.07613	54.8379
4.07292	54.7674
4.06973	54.8107
4.06654	54.9123
4.06335	54.9002
4.06017	54.8603
4.05699	54.8641
4.05382	54.8593
4.05065	54.8656
4.04749	54.834
4.04433	54.8276
4.04118	54.8221
4.03803	54.74
4.03489	54.6648
4.03175	54.6504
4.02862	54.6715
4.02549	54.688
4.02237	54.6076
4.01925	54.51
4.01614	54.4629
4.01303	54.4474
4.00993	54.3649
4.00683	54.2858
4.00373	54.2608
4.00064	54.1211
3.99756	53.8946
3.99448	53.7004
3.9914	53.5598
3.98833	53.4017
3.98527	53.3151
3.98221	53.3498
3.97915	53.3856
3.9761	53.4194
3.97305	53.4284
3.97001	53.4245
3.96697	53.4997
3.96394	53.602
3.96091	53.7276
3.95789	53.8473
3.95487	53.9305
3.95186	53.9848
3.94885	54.1203
3.94584	54.2581
3.94284	54.3666
3.93984	54.4828
3.93685	54.5941
3.93386	54.5675
3.93088	54.5202
3.9279	54.6061
3.92493	54.6687
3.92196	54.7284
3.919	54.7481
3.91604	54.7622
3.91308	54.7849
3.91013	54.7523
3.90718	54.7886
3.90424	54.841
3.9013	54.8431
3.89837	54.82
3.89544	54.8159
3.89252	54.8407
3.8896	54.8739
3.88668	54.8683
3.88377	54.8696
3.88086	54.8765
3.87796	54.8636
3.87506	54.8212
3.87217	54.8567
3.86928	54.8661
3.86639	54.8459
3.86351	54.9501
3.86064	54.9995
3.85776	54.9946
3.8549	54.9831
3.85203	54.9148
3.84917	54.8765
3.84631	54.9255
3.84346	55.0222
3.84062	55.0267
3.83777	55.0328
3.83494	55.0748
3.8321	55.1016
3.82927	55.1362
3.82644	55.2145
3.82362	55.2273
3.82081	55.2239
3.81799	55.172
3.81518	55.1566
3.81238	55.2619
3.80958	55.3325
3.80678	55.3259
3.80399	55.3095
3.8012	55.3533
3.79841	55.3928
3.79563	55.3702
3.79286	55.3262
3.79008	55.4013
3.78731	55.4469
3.78455	55.4328
3.78179	55.4371
3.77903	55.4791
3.77628	55.5059
3.77353	55.4808
3.77079	55.426
3.76805	55.4382
3.76531	55.4427
3.76258	55.443
3.75985	55.4601
3.75713	55.4887
3.7544	55.4091
3.75169	55.4435
3.74898	55.443
3.74627	55.3746
3.74356	55.4167
3.74086	55.5079
3.73816	55.496
3.73547	55.453
3.73278	55.3977
3.7301	55.4299
3.72741	55.3975
3.72474	55.4366
3.72206	55.5198
3.71939	55.411
3.71673	55.3514
3.71406	55.3821
3.71141	55.3925
3.70875	55.3707
3.7061	55.4145
3.70345	55.4032
3.70081	55.3508
3.69817	55.3623
3.69553	55.389
3.6929	55.3853
3.69027	55.3294
3.68765	55.3667
3.68503	55.3882
3.68241	55.3307
3.6798	55.3106
3.67719	55.2429
3.67458	55.2165
3.67198	55.2067
3.66938	55.2718
3.66678	55.2967
3.66419	55.1957
3.66161	55.2287
3.65902	55.2625
3.65644	55.2392
3.65387	55.2163
3.65129	55.2363
3.64872	55.2319
3.64616	55.1746
3.64359	55.1463
3.64103	55.1899
3.63848	55.1775
3.63593	55.1695
3.63338	55.2075
3.63084	55.1776
3.6283	55.0882
3.62576	55.0975
3.62322	55.0937
3.62069	55.0803
3.61817	55.0869
3.61564	55.0825
3.61312	55.076
3.61061	54.9892
3.6081	55.0375
3.60559	55.0419
3.60308	55.0014
3.60058	55.0246
3.59808	54.9804
3.59558	54.9363
3.59309	54.9529
3.59061	54.9891
3.58812	54.9802
3.58564	54.8928
3.58316	54.8541
3.58069	54.8104
3.57822	54.7784
3.57575	54.8711
3.57328	54.8756
3.57082	54.7643
3.56836	54.7205
3.56591	54.7693
3.56346	54.8113
3.56101	54.7693
3.55857	54.6257
3.55613	54.543
3.55369	54.5727
3.55126	54.6359
3.54883	54.614
3.5464	54.6075
3.54397	54.5706
3.54155	54.5545
3.53914	54.4767
3.53672	54.4552
3.53431	54.3982
3.5319	54.3959
3.5295	54.3501
3.5271	54.1995
3.5247	54.0566
3.52231	54.0136
3.51991	54.0017
3.51753	53.9007
3.51514	53.851
3.51276	53.7977
3.51038	53.6875
3.50801	53.6453
3.50563	53.5843
3.50327	53.5204
3.5009	53.5077
3.49854	53.4826
3.49618	53.4415
3.49382	53.3739
3.49147	53.3089
3.48912	53.2396
3.48677	53.1585
3.48443	53.2046
3.48209	53.1976
3.47975	53.1625
3.47742	53.2051
3.47509	53.2224
3.47276	53.1975
3.47044	53.1711
3.46812	53.1942
