Name: Limestone Conglomerate-Breccia
Type: Rock
Class: Sedimentary
Subclass:  Conglomerate 
Particle Size: Solid surface
Sample No.: Ward50.txt
Owner: JPL
Wavelength range:  IR 
Origin: Ward's Collection of American Rocks.  Sample locality - Loudoun County, Virginia.
Collected by:  Ward's Natural Science
Description: This is a reddish brown conglomerate-breccia composed o
angular to rounded fragments of limestone of various shades of gray and
buff with a chocolate colored calcareous cement.  The degree of roundness
of the pebbles varies witht he specimen.
Geologic age - Triassic (Newark).

Measurement: Hemispherical reflectance
First Column: X
Second Column: Y
X Units: Wavelength (micrometers)
Y Units: Reflectance (percent)
First X Value: 15.3871
Last X Value: 1.9998
Number of X Values: 2257
Additional information: None

15.3871   3.27684
15.3416   3.02468
15.2964   3.28655
15.2514   3.78066
15.2066   3.93104
15.1622   4.08460
15.1180   4.21800
15.0740   3.93245
15.0303   3.70008
14.9869   3.74904
14.9437   3.94094
14.9008   4.10216
14.8581   4.00660
14.8156   4.08401
14.7734   4.31060
14.7314   4.43429
14.6897   4.40984
14.6482   4.49544
14.6069   4.42064
14.5659   4.24529
14.5251   4.46765
14.4845   4.61293
14.4442   4.49946
14.4041   4.38217
14.3642   4.26458
14.3245   4.35996
14.2850   4.21192
14.2458   4.05154
14.2068   4.36807
14.1679   4.39472
14.1293   4.31593
14.0909   4.64196
14.0528   4.83032
14.0148   4.40021
13.9770   3.76352
13.9394   3.52883
13.9021   3.52562
13.8649   3.75617
13.8279   3.91074
13.7911   4.05440
13.7546   4.32903
13.7182   4.41326
13.6820   3.89990
13.6460   3.25649
13.6101   3.22486
13.5745   3.41682
13.5391   3.67265
13.5038   3.83228
13.4687   3.76594
13.4339   3.87579
13.3991   4.11403
13.3646   4.35576
13.3302   4.35242
13.2961   4.41800
13.2621   4.50912
13.2282   4.53858
13.1946   4.56588
13.1611   4.56660
13.1278   4.64169
13.0946   4.89426
13.0616   4.98301
13.0288   4.89521
12.9962   4.80063
12.9637   4.96805
12.9313   5.24153
12.8992   5.30112
12.8672   5.19519
12.8353   5.24386
12.8036   5.42958
12.7721   5.35632
12.7407   5.11175
12.7095   5.26006
12.6784   5.43245
12.6475   5.34232
12.6167   5.29426
12.5861   5.30102
12.5556   5.44572
12.5253   5.57734
12.4951   5.71552
12.4651   5.79079
12.4352   5.63338
12.4054   5.35320
12.3758   4.99836
12.3463   4.88852
12.3170   4.88914
12.2878   4.76529
12.2588   4.70913
12.2299   4.75503
12.2011   4.78291
12.1725   4.90294
12.1439   5.00829
12.1156   5.21035
12.0873   5.29464
12.0592   5.27660
12.0312   5.24281
12.0034   5.29138
11.9757   5.29033
11.9481   5.41393
11.9206   5.53940
11.8933   5.54836
11.8661   5.59067
11.8390   5.53479
11.8120   5.30548
11.7852   5.30957
11.7584   5.56074
11.7318   5.78814
11.7053   5.80855
11.6790   5.92140
11.6527   6.05816
11.6266   6.22227
11.6006   6.24705
11.5747   6.49532
11.5489   6.99516
11.5233   7.51875
11.4977   8.23098
11.4723   9.31220
11.4469  10.40470
11.4217  11.51650
11.3966  12.92590
11.3716  14.31850
11.3468  15.41410
11.3220  16.32240
11.2973  17.24260
11.2728  17.49220
11.2483  16.63080
11.2240  15.49950
11.1997  14.81830
11.1756  14.37450
11.1515  13.73930
11.1276  12.16960
11.1038   9.98044
11.0801   8.54350
11.0564   7.82643
11.0329   7.39716
11.0095   7.21504
10.9862   6.90313
10.9629   6.70703
10.9398   6.61085
10.9168   6.58004
10.8938   6.63511
10.8710   6.51960
10.8483   6.37088
10.8256   6.28744
10.8031   6.18464
10.7806   6.11097
10.7582   6.14763
10.7360   6.13441
10.7138   6.13261
10.6917   6.18303
10.6697   6.24646
10.6478   6.24594
10.6260   6.18037
10.6042   6.22454
10.5826   6.21053
10.5610   6.16600
10.5396   6.28707
10.5182   6.35945
10.4969   6.44606
10.4757   6.58735
10.4546   6.63031
10.4335   6.69319
10.4126   6.79248
10.3917   6.82353
10.3709   6.85522
10.3502   6.85223
10.3296   6.72721
10.3091   6.73208
10.2886   6.82561
10.2683   6.87522
10.2480   6.91850
10.2277   6.98224
10.2076   7.01685
10.1876   7.11431
10.1676   7.14762
10.1477   7.15174
10.1279   7.32556
10.1081   7.42636
10.0885   7.45000
10.0689   7.49118
10.0494   7.49996
10.0299   7.46903
10.0106   7.47602
 9.9913   7.51761
 9.9720   7.58788
 9.9529   7.63633
 9.9338   7.60601
 9.9148   7.64200
 9.8959   7.79479
 9.8771   7.85559
 9.8583   7.84741
 9.8396   7.87503
 9.8210   7.84993
 9.8024   7.90406
 9.7839   8.04065
 9.7655   8.24426
 9.7471   8.33264
 9.7288   8.35792
 9.7106   8.39055
 9.6925   8.57540
 9.6744   8.81788
 9.6564   8.88389
 9.6384   8.65447
 9.6205   8.65398
 9.6027   8.82005
 9.5850   8.97713
 9.5673   8.98803
 9.5497   8.99662
 9.5321   9.08977
 9.5146   9.09547
 9.4972   9.29075
 9.4798   9.44815
 9.4625   9.45746
 9.4453   9.59425
 9.4281   9.74833
 9.4110   9.68579
 9.3940   9.90396
 9.3770  10.31830
 9.3600  10.50590
 9.3432  10.54680
 9.3264  10.79530
 9.3096  11.00900
 9.2930  11.29560
 9.2763  11.34210
 9.2598  11.16220
 9.2432  11.07970
 9.2268  11.17300
 9.2104  11.28930
 9.1941  11.09680
 9.1778  11.11690
 9.1616  11.39450
 9.1454  11.47330
 9.1293  11.28000
 9.1133  11.17050
 9.0973  11.12800
 9.0814  10.97910
 9.0655  10.99720
 9.0497  11.03990
 9.0339  11.09830
 9.0182  11.20490
 9.0025  11.35070
 8.9870  11.35810
 8.9714  11.33440
 8.9559  11.38060
 8.9405  11.42890
 8.9251  11.30380
 8.9097  11.21370
 8.8945  11.26110
 8.8792  11.26440
 8.8641  11.28450
 8.8489  11.41010
 8.8338  11.58000
 8.8188  11.57700
 8.8039  11.48930
 8.7889  11.34100
 8.7741  11.26960
 8.7592  11.38280
 8.7445  11.30890
 8.7297  11.02440
 8.7151  10.85980
 8.7005  10.97470
 8.6859  10.81390
 8.6714  10.38340
 8.6569  10.15330
 8.6425   9.90725
 8.6281   9.70587
 8.6137   9.68554
 8.5994  10.00970
 8.5852  10.36460
 8.5710  10.55360
 8.5569  10.72950
 8.5428  10.76460
 8.5287  10.58190
 8.5147  10.67620
 8.5008  10.78090
 8.4869  10.69880
 8.4730  10.67050
 8.4592  10.60080
 8.4454  10.51130
 8.4316  10.55240
 8.4180  10.71960
 8.4043  10.82930
 8.3907  10.85380
 8.3772  10.87300
 8.3637  10.96190
 8.3502  11.05070
 8.3368  11.24390
 8.3234  11.38330
 8.3100  11.49950
 8.2967  11.67790
 8.2835  11.71920
 8.2703  11.69880
 8.2571  11.62240
 8.2440  11.68660
 8.2309  11.79570
 8.2179  11.70090
 8.2049  11.63040
 8.1919  11.63880
 8.1790  11.53230
 8.1661  11.24510
 8.1532  10.98490
 8.1404  10.71600
 8.1277  10.44340
 8.1150  10.35280
 8.1023  10.21910
 8.0897  10.00150
 8.0770   9.87666
 8.0645   9.74850
 8.0520   9.62368
 8.0395   9.58413
 8.0270   9.59263
 8.0146   9.64187
 8.0023   9.70846
 7.9899   9.67046
 7.9776   9.48899
 7.9654   9.36238
 7.9532   9.30594
 7.9410   9.30519
 7.9288   9.41444
 7.9167   9.26297
 7.9047   9.15374
 7.8926   9.16520
 7.8807   9.13740
 7.8687   9.14472
 7.8568   9.20943
 7.8449   9.13342
 7.8330   9.05727
 7.8212   8.99601
 7.8094   9.01198
 7.7977   9.06006
 7.7860   8.98800
 7.7743   8.94065
 7.7627   8.98577
 7.7511   8.98237
 7.7395   8.96727
 7.7280   8.90300
 7.7165   8.84556
 7.7050   8.86247
 7.6936   8.84718
 7.6822   8.95100
 7.6708   9.00233
 7.6595   8.93585
 7.6482   8.87585
 7.6369   8.89915
 7.6257   8.91365
 7.6145   8.90399
 7.6033   8.91720
 7.5922   8.88086
 7.5811   8.82090
 7.5700   8.82064
 7.5590   8.87519
 7.5480   8.93235
 7.5370   9.04688
 7.5261   9.01519
 7.5152   8.98890
 7.5043   9.14484
 7.4935   9.22248
 7.4826   9.21823
 7.4718   9.28724
 7.4611   9.39480
 7.4504   9.45660
 7.4397   9.45559
 7.4290   9.50731
 7.4184   9.63970
 7.4078   9.75959
 7.3972   9.75912
 7.3867   9.84229
 7.3762   9.86938
 7.3657   9.88402
 7.3553   9.93394
 7.3449  10.04930
 7.3345  10.23490
 7.3241  10.31350
 7.3138  10.47640
 7.3035  10.62110
 7.2932  10.80530
 7.2830  10.97010
 7.2727  11.07560
 7.2626  11.15280
 7.2524  11.26610
 7.2423  11.58090
 7.2322  11.92130
 7.2221  12.17680
 7.2120  12.47910
 7.2020  12.85550
 7.1921  13.32370
 7.1821  13.73740
 7.1722  14.21890
 7.1623  14.68200
 7.1524  15.06700
 7.1425  15.43520
 7.1327  15.89760
 7.1229  16.52180
 7.1131  17.36850
 7.1034  18.19140
 7.0937  18.82850
 7.0840  19.32040
 7.0743  19.72590
 7.0647  20.18650
 7.0551  20.90170
 7.0455  21.55550
 7.0359  22.08940
 7.0264  22.66490
 7.0169  22.96220
 7.0074  23.08180
 6.9979  23.11270
 6.9885  23.08050
 6.9791  23.17610
 6.9697  23.30790
 6.9604  23.39810
 6.9510  23.38550
 6.9417  23.40550
 6.9324  23.45340
 6.9232  23.53390
 6.9140  23.64660
 6.9047  23.87120
 6.8956  24.00860
 6.8864  24.19080
 6.8773  24.43360
 6.8682  24.86710
 6.8591  24.98120
 6.8500  24.90300
 6.8410  25.07490
 6.8320  25.37550
 6.8230  25.62360
 6.8140  25.74950
 6.8051  25.91090
 6.7962  26.33930
 6.7873  26.66900
 6.7784  26.68130
 6.7695  26.80870
 6.7607  27.06900
 6.7519  27.37900
 6.7431  27.67050
 6.7344  28.04580
 6.7256  28.55760
 6.7169  28.97990
 6.7082  29.26710
 6.6996  29.58340
 6.6909  30.07080
 6.6823  30.62920
 6.6737  30.94630
 6.6651  31.17010
 6.6566  31.53690
 6.6480  32.25280
 6.6395  33.21550
 6.6310  33.55110
 6.6226  33.69220
 6.6141  34.07160
 6.6057  34.50880
 6.5973  34.99510
 6.5889  35.49370
 6.5805  35.99650
 6.5722  36.44700
 6.5639  36.66590
 6.5556  36.92250
 6.5473  37.06380
 6.5390  37.22390
 6.5308  37.39980
 6.5226  37.69360
 6.5144  37.79460
 6.5062  38.03010
 6.4981  38.50840
 6.4900  38.52800
 6.4818  38.14640
 6.4737  37.78410
 6.4657  37.22610
 6.4576  36.57930
 6.4496  35.71660
 6.4416  34.60030
 6.4336  33.29350
 6.4256  32.05780
 6.4177  31.07310
 6.4097  29.67810
 6.4018  28.11140
 6.3939  26.92100
 6.3860  25.83640
 6.3782  24.75540
 6.3704  23.59740
 6.3625  22.09540
 6.3547  20.25410
 6.3470  18.27680
 6.3392  16.06190
 6.3315  14.04850
 6.3237  12.49370
 6.3160  11.20070
 6.3083  10.00820
 6.3007   8.95496
 6.2930   8.04417
 6.2854   7.40856
 6.2778   6.83705
 6.2702   6.26383
 6.2626   5.74603
 6.2551   5.40462
 6.2476   5.14169
 6.2400   4.72416
 6.2325   4.31687
 6.2251   4.10079
 6.2176   3.89501
 6.2101   3.64757
 6.2027   3.47294
 6.1953   3.36916
 6.1879   3.34375
 6.1805   3.16659
 6.1732   2.97578
 6.1658   2.89506
 6.1585   2.79773
 6.1512   2.70572
 6.1439   2.50282
 6.1367   2.50463
 6.1294   2.63186
 6.1222   2.63896
 6.1149   2.47002
 6.1077   2.24360
 6.1006   2.16320
 6.0934   2.17984
 6.0862   2.14405
 6.0791   2.11015
 6.0720   2.15539
 6.0649   2.18528
 6.0578   2.12252
 6.0507   2.13676
 6.0437   2.03485
 6.0366   1.87761
 6.0296   1.90004
 6.0226   1.99452
 6.0156   2.02597
 6.0087   2.04567
 6.0017   2.06468
 5.9948   2.14437
 5.9878   2.11596
 5.9809   2.03234
 5.9740   2.05855
 5.9672   2.14181
 5.9603   2.07926
 5.9535   2.02561
 5.9466   2.00995
 5.9398   2.04901
 5.9330   2.11909
 5.9262   2.08400
 5.9195   2.06777
 5.9127   2.07981
 5.9060   2.18627
 5.8993   2.23656
 5.8926   2.13253
 5.8859   2.13509
 5.8792   2.14860
 5.8726   2.08493
 5.8659   2.05251
 5.8593   2.05876
 5.8527   2.09189
 5.8461   2.18001
 5.8395   2.16481
 5.8329   2.19689
 5.8264   2.23964
 5.8198   2.21770
 5.8133   2.10013
 5.8068   2.00763
 5.8003   2.09177
 5.7938   2.18852
 5.7874   2.17912
 5.7809   2.18622
 5.7745   2.21893
 5.7680   2.26120
 5.7616   2.28784
 5.7552   2.20807
 5.7489   2.13240
 5.7425   2.16475
 5.7361   2.22390
 5.7298   2.23747
 5.7235   2.26351
 5.7172   2.30564
 5.7109   2.32883
 5.7046   2.35245
 5.6983   2.30150
 5.6921   2.41655
 5.6858   2.46757
 5.6796   2.35525
 5.6734   2.30390
 5.6672   2.34606
 5.6610   2.44528
 5.6548   2.54996
 5.6487   2.54824
 5.6425   2.48530
 5.6364   2.48005
 5.6303   2.47909
 5.6242   2.40160
 5.6181   2.35512
 5.6120   2.36934
 5.6059   2.38456
 5.5999   2.32487
 5.5938   2.25103
 5.5878   2.31905
 5.5818   2.29768
 5.5758   2.20778
 5.5698   2.12574
 5.5638   2.03360
 5.5578   1.99361
 5.5519   2.04423
 5.5460   2.09639
 5.5400   2.12906
 5.5341   2.21929
 5.5282   2.43231
 5.5223   2.50779
 5.5164   2.36039
 5.5106   2.23692
 5.5047   2.29080
 5.4989   2.40564
 5.4931   2.46806
 5.4873   2.49892
 5.4815   2.56198
 5.4757   2.62539
 5.4699   2.62296
 5.4641   2.64383
 5.4584   2.64445
 5.4527   2.71850
 5.4469   2.90429
 5.4412   3.05885
 5.4355   3.05809
 5.4298   3.11616
 5.4241   3.19610
 5.4185   3.26986
 5.4128   3.42429
 5.4072   3.53486
 5.4015   3.52984
 5.3959   3.56186
 5.3903   3.60216
 5.3847   3.59110
 5.3791   3.56522
 5.3735   3.61186
 5.3680   3.70926
 5.3624   3.77136
 5.3569   3.81915
 5.3514   3.83393
 5.3458   3.81476
 5.3403   3.80182
 5.3348   3.82531
 5.3294   3.82495
 5.3239   3.84031
 5.3184   3.90074
 5.3130   3.98341
 5.3075   4.03792
 5.3021   4.02887
 5.2967   4.09255
 5.2913   4.12891
 5.2859   4.19265
 5.2805   4.23982
 5.2751   4.23287
 5.2698   4.25915
 5.2644   4.36843
 5.2591   4.42927
 5.2538   4.48242
 5.2485   4.55047
 5.2431   4.56842
 5.2378   4.59494
 5.2326   4.65134
 5.2273   4.70123
 5.2220   4.78072
 5.2168   4.89435
 5.2115   4.99862
 5.2063   5.02293
 5.2011   5.01056
 5.1959   4.93935
 5.1907   4.96772
 5.1855   5.05916
 5.1803   5.07904
 5.1751   5.13297
 5.1700   5.25153
 5.1648   5.26220
 5.1597   5.24133
 5.1545   5.23676
 5.1494   5.24418
 5.1443   5.29445
 5.1392   5.33364
 5.1341   5.32477
 5.1291   5.30405
 5.1240   5.31832
 5.1189   5.41736
 5.1139   5.39058
 5.1088   5.28865
 5.1038   5.14141
 5.0988   5.09561
 5.0938   5.21552
 5.0888   5.35661
 5.0838   5.45989
 5.0788   5.44531
 5.0738   5.36342
 5.0689   5.30789
 5.0639   5.23021
 5.0590   5.32709
 5.0541   5.43526
 5.0491   5.47254
 5.0442   5.60496
 5.0393   5.74042
 5.0344   5.76697
 5.0296   5.69426
 5.0247   5.71567
 5.0198   5.82763
 5.0150   5.78565
 5.0101   5.71928
 5.0053   5.82591
 5.0004   5.91878
 4.9956   5.92661
 4.9908   5.84138
 4.9860   5.94758
 4.9812   6.03469
 4.9765   5.93821
 4.9717   5.94943
 4.9669   6.09198
 4.9622   6.13227
 4.9574   6.08530
 4.9527   6.03671
 4.9480   6.09014
 4.9432   6.15832
 4.9385   6.26565
 4.9338   6.31478
 4.9291   6.31552
 4.9245   6.32904
 4.9198   6.34364
 4.9151   6.39503
 4.9105   6.45450
 4.9058   6.50939
 4.9012   6.52829
 4.8966   6.60245
 4.8919   6.66192
 4.8873   6.63287
 4.8827   6.64628
 4.8781   6.71262
 4.8736   6.76421
 4.8690   6.87373
 4.8644   6.87450
 4.8599   6.91550
 4.8553   6.93185
 4.8508   6.80828
 4.8462   6.86497
 4.8417   7.06028
 4.8372   7.15443
 4.8327   7.15238
 4.8282   7.13507
 4.8237   7.17026
 4.8192   7.17742
 4.8147   7.19779
 4.8103   7.22860
 4.8058   7.25077
 4.8014   7.30504
 4.7969   7.33015
 4.7925   7.27853
 4.7881   7.40410
 4.7836   7.49687
 4.7792   7.39138
 4.7748   7.36061
 4.7704   7.42882
 4.7660   7.41796
 4.7617   7.35168
 4.7573   7.38182
 4.7530   7.43115
 4.7486   7.40282
 4.7443   7.34032
 4.7399   7.30410
 4.7356   7.22853
 4.7313   7.23921
 4.7270   7.21424
 4.7226   7.11322
 4.7184   7.03758
 4.7141   6.92541
 4.7098   6.74430
 4.7055   6.64986
 4.7012   6.55025
 4.6970   6.34869
 4.6927   6.22552
 4.6885   6.23605
 4.6842   6.04314
 4.6800   5.94637
 4.6758   5.93460
 4.6716   5.90422
 4.6674   5.86344
 4.6632   5.82204
 4.6590   5.86033
 4.6548   5.81477
 4.6506   5.80471
 4.6465   5.82058
 4.6423   5.80047
 4.6382   5.93212
 4.6340   6.13252
 4.6299   6.16362
 4.6258   6.17820
 4.6216   6.24552
 4.6175   6.28162
 4.6134   6.35735
 4.6093   6.35571
 4.6052   6.28913
 4.6011   6.38822
 4.5971   6.47805
 4.5930   6.59421
 4.5889   6.68496
 4.5849   6.75959
 4.5808   6.88080
 4.5768   6.91768
 4.5727   7.02044
 4.5687   7.03213
 4.5647   7.05377
 4.5607   7.10764
 4.5567   7.13736
 4.5526   7.26600
 4.5487   7.36433
 4.5447   7.33659
 4.5407   7.33377
 4.5367   7.31945
 4.5328   7.37099
 4.5288   7.49553
 4.5248   7.48953
 4.5209   7.43683
 4.5170   7.61472
 4.5130   7.71948
 4.5091   7.60567
 4.5052   7.64166
 4.5013   7.79884
 4.4974   7.88410
 4.4935   7.98282
 4.4896   8.09870
 4.4857   8.12302
 4.4818   8.23392
 4.4779   8.31214
 4.4741   8.28885
 4.4702   8.25370
 4.4664   8.24047
 4.4625   8.23255
 4.4587   8.18832
 4.4549   8.10237
 4.4510   8.02329
 4.4472   8.03820
 4.4434   8.13039
 4.4396   8.13136
 4.4358   8.16823
 4.4320   8.26312
 4.4282   8.28173
 4.4245   8.47732
 4.4207   8.65331
 4.4169   8.66281
 4.4132   8.72227
 4.4094   8.77688
 4.4057   8.81248
 4.4019   8.86111
 4.3982   9.02221
 4.3945   9.14980
 4.3907   9.30429
 4.3870   9.47492
 4.3833   9.51503
 4.3796   9.52567
 4.3759   9.67536
 4.3722   9.72283
 4.3685   9.63882
 4.3649   9.74785
 4.3612   9.87010
 4.3575   9.81075
 4.3539   9.71278
 4.3502   9.63782
 4.3466   9.52803
 4.3429   9.50259
 4.3393   9.38261
 4.3357   9.24850
 4.3320   9.27692
 4.3284   9.24143
 4.3248   9.05336
 4.3212   9.00547
 4.3176   8.98547
 4.3140   8.87310
 4.3105   8.80121
 4.3069   8.70925
 4.3033   8.55961
 4.2997   8.63846
 4.2962   8.68302
 4.2926   8.66797
 4.2890   8.60722
 4.2855   8.48912
 4.2820   8.36644
 4.2784   8.28441
 4.2749   8.28078
 4.2714   8.36237
 4.2679   8.49903
 4.2644   8.59522
 4.2609   8.76025
 4.2574   8.89278
 4.2539   8.93033
 4.2504   8.94003
 4.2469   8.79603
 4.2434   8.62012
 4.2400   8.67282
 4.2365   8.77203
 4.2330   8.76303
 4.2296   8.85836
 4.2261   9.01336
 4.2227   9.11568
 4.2193   9.18110
 4.2158   9.30174
 4.2124   9.46845
 4.2090   9.56931
 4.2056   9.77800
 4.2022   9.92878
 4.1988   9.96682
 4.1954   9.91579
 4.1920   9.85533
 4.1886   9.78857
 4.1852   9.78428
 4.1818   9.91183
 4.1785   9.91266
 4.1751   9.88002
 4.1717   9.84664
 4.1684   9.68440
 4.1650   9.58987
 4.1617   9.67476
 4.1584   9.63387
 4.1550   9.42719
 4.1517   9.32778
 4.1484   9.32938
 4.1451   9.34334
 4.1418   9.35505
 4.1384   9.33302
 4.1351   9.26335
 4.1319   9.13270
 4.1286   9.08488
 4.1253   9.07852
 4.1220   9.03322
 4.1187   8.97837
 4.1155   8.89411
 4.1122   8.76982
 4.1089   8.74731
 4.1057   8.77498
 4.1024   8.64184
 4.0992   8.48775
 4.0959   8.38863
 4.0927   8.42286
 4.0895   8.34988
 4.0863   8.22527
 4.0830   8.19313
 4.0798   8.01133
 4.0766   7.89018
 4.0734   7.80590
 4.0702   7.76254
 4.0670   7.74853
 4.0639   7.61892
 4.0607   7.47188
 4.0575   7.38631
 4.0543   7.19486
 4.0511   6.99156
 4.0480   6.78771
 4.0448   6.53768
 4.0417   6.34588
 4.0385   6.33375
 4.0354   6.20869
 4.0323   6.08202
 4.0291   5.90086
 4.0260   5.58683
 4.0229   5.45609
 4.0197   5.34123
 4.0166   5.25195
 4.0135   5.07926
 4.0104   4.85556
 4.0073   4.79265
 4.0042   4.75608
 4.0011   4.66047
 3.9981   4.49289
 3.9950   4.26018
 3.9919   4.25094
 3.9888   4.14191
 3.9857   4.00431
 3.9827   4.00248
 3.9796   3.95845
 3.9766   3.86466
 3.9735   3.75255
 3.9705   3.74004
 3.9675   3.85093
 3.9644   3.76051
 3.9614   3.64683
 3.9584   3.70066
 3.9554   3.81672
 3.9523   3.80540
 3.9493   3.80560
 3.9463   3.84019
 3.9433   3.88585
 3.9403   4.05544
 3.9373   4.03516
 3.9343   3.98059
 3.9314   3.97015
 3.9284   3.95578
 3.9254   4.03443
 3.9224   4.16898
 3.9195   4.25379
 3.9165   4.30031
 3.9136   4.25707
 3.9106   4.31189
 3.9077   4.40641
 3.9047   4.44878
 3.9018   4.46545
 3.8988   4.35692
 3.8959   4.35954
 3.8930   4.47661
 3.8901   4.60141
 3.8872   4.65076
 3.8842   4.68683
 3.8813   4.68914
 3.8784   4.65185
 3.8755   4.51525
 3.8726   4.51294
 3.8697   4.48487
 3.8669   4.54891
 3.8640   4.69933
 3.8611   4.73914
