Name: Pyrolusite MnO_2
Type: Mineral
Class: Oxides
Subclass: 
Particle Size: 125-500um
Sample No.: O-6A
Owner: JPL
Wavelength range: IR
Origin: Mexico, Chihuahua
Collected by Grieger's Inc.
Description: 





Measurement: Hemispherical reflectance
First Column: X
Second Column: Y
X Units:  Wavelength (micrometers)
Y Units:  Reflectance (percent)
First X Value: 15.3853
Last X Value: 2.00032
Number of X Values: 2256
Additional information: o06aa.txt
 
15.3853	32.8267
15.3397	32.7483
15.2945	32.5676
15.2495	32.3038
15.2048	32.1289
15.1603	31.9423
15.1161	31.6572
15.0722	31.2741
15.0285	31.0492
14.9851	30.7813
14.9419	30.2883
14.8989	29.8959
14.8563	29.6097
14.8138	29.4707
14.7716	29.3837
14.7296	28.9508
14.6879	28.502
14.6464	28.2396
14.6052	27.8793
14.5641	27.1145
14.5233	26.4377
14.4828	25.9063
14.4424	25.3615
14.4023	24.7721
14.3624	23.9154
14.3227	22.8155
14.2833	21.6827
14.244	20.4975
14.205	19.2184
14.1662	17.9216
14.1276	16.5267
14.0892	15.084
14.051	13.9082
14.0131	13.1558
13.9753	12.3766
13.9377	11.5419
13.9004	10.9368
13.8632	10.4786
13.8262	10.2196
13.7895	9.90555
13.7529	9.4794
13.7165	9.23764
13.6803	8.97224
13.6443	8.75302
13.6085	8.71607
13.5729	8.38285
13.5374	7.97484
13.5022	7.63233
13.4671	7.23464
13.4322	6.81253
13.3975	6.39817
13.363	5.73979
13.3286	5.06033
13.2944	4.55602
13.2604	3.92657
13.2266	3.37237
13.193	2.96854
13.1595	2.71573
13.1262	2.61498
13.093	2.54462
13.06	2.50325
13.0272	2.49486
12.9946	2.524
12.9621	2.63262
12.9298	2.68047
12.8976	2.68601
12.8656	2.78833
12.8337	2.83112
12.8021	2.88929
12.7705	2.87902
12.7391	2.80713
12.7079	3.01319
12.6769	3.428
12.6459	3.62739
12.6152	3.57781
12.5845	3.46522
12.5541	3.59218
12.5238	3.88485
12.4936	3.83374
12.4635	3.78157
12.4337	3.95634
12.4039	4.04278
12.3743	4.27183
12.3448	4.61746
12.3155	4.72906
12.2863	4.74056
12.2573	4.75911
12.2284	4.87837
12.1996	4.99107
12.171	5.00989
12.1425	5.0861
12.1141	5.1499
12.0859	5.17342
12.0578	5.22343
12.0298	5.28432
12.0019	5.42756
11.9742	5.47649
11.9466	5.49072
11.9192	5.65441
11.8918	5.73119
11.8646	5.8026
11.8375	5.7982
11.8106	5.8955
11.7837	5.89334
11.757	5.87929
11.7304	6.03592
11.7039	6.09055
11.6776	6.14103
11.6513	6.20848
11.6252	6.22147
11.5992	6.29306
11.5733	6.36358
11.5475	6.62042
11.5219	6.75563
11.4963	6.70367
11.4709	6.66447
11.4455	6.76496
11.4203	6.81916
11.3952	6.79278
11.3702	6.89899
11.3454	7.01826
11.3206	7.00649
11.2959	6.95321
11.2714	6.89444
11.2469	6.99745
11.2226	7.16513
11.1983	7.31977
11.1742	7.27903
11.1502	7.25048
11.1263	7.28936
11.1024	7.38693
11.0787	7.45239
11.0551	7.49928
11.0316	7.60056
11.0081	7.65495
10.9848	7.72366
10.9616	7.76012
10.9385	7.80668
10.9154	7.79327
10.8925	7.75475
10.8697	7.88055
10.8469	8.03004
10.8243	8.09246
10.8017	8.08591
10.7793	8.17261
10.7569	8.11211
10.7346	8.09896
10.7125	8.24769
10.6904	8.19786
10.6684	8.22212
10.6465	8.38673
10.6247	8.38732
10.6029	8.33093
10.5813	8.38371
10.5597	8.27559
10.5383	8.19725
10.5169	8.44193
10.4956	8.68715
10.4744	8.64102
10.4533	8.5241
10.4323	8.62173
10.4113	8.69054
10.3904	8.68982
10.3697	8.733
10.349	8.7932
10.3284	8.75678
10.3078	8.69
10.2874	8.71404
10.267	8.87419
10.2467	9.00781
10.2265	8.99132
10.2064	8.81331
10.1863	8.91598
10.1663	9.0097
10.1464	9.04186
10.1266	9.12958
10.1069	9.1074
10.0872	8.9885
10.0676	9.02299
10.0481	9.17683
10.0287	9.12057
10.0093	9.13964
9.99005	9.18901
9.97084	9.32963
9.95169	9.38673
9.93263	9.29538
9.91364	9.27862
9.89472	9.44431
9.87587	9.63982
9.8571	9.59989
9.83839	9.55299
9.81976	9.51456
9.80119	9.55746
9.78271	9.66161
9.76428	9.69341
9.74592	9.6485
9.72764	9.60568
9.70943	9.61382
9.69128	9.78312
9.6732	9.93252
9.65518	9.97653
9.63724	9.96744
9.61935	9.83521
9.60155	9.77965
9.5838	9.80869
9.56611	9.79563
9.5485	9.92243
9.53094	10.0544
9.51345	9.99179
9.49604	9.92258
9.47867	9.98124
9.46137	9.94946
9.44414	10.0109
9.42697	10.063
9.40986	10.0145
9.39281	9.96416
9.37583	10.0332
9.35891	10.1458
9.34204	10.1878
9.32524	10.1174
9.3085	10.0344
9.29182	9.89256
9.27519	9.85818
9.25863	9.87156
9.24213	9.82887
9.22568	9.78104
9.2093	9.77191
9.19297	9.81081
9.17669	9.81919
9.16048	9.90803
9.14433	9.97469
9.12823	10.0235
9.11218	9.95823
9.0962	9.80364
9.08027	9.65132
9.06439	9.62654
9.04858	9.61944
9.03281	9.69936
9.0171	9.80221
9.00145	9.79297
8.98585	9.71286
8.9703	9.70089
8.9548	9.70061
8.93937	9.70072
8.92398	9.87284
8.90865	9.88351
8.89337	9.76449
8.87814	9.80409
8.86296	9.97364
8.84784	10.0587
8.83277	10.102
8.81774	10.1202
8.80277	10.0896
8.78786	10.1905
8.77298	10.3073
8.75816	10.3154
8.7434	10.2441
8.72868	10.1706
8.714	10.1561
8.69938	10.1903
8.68481	10.2258
8.67029	10.3101
8.65581	10.4316
8.64139	10.358
8.62701	10.305
8.61268	10.3681
8.5984	10.3957
8.58416	10.4392
8.56997	10.5509
8.55583	10.5901
8.54174	10.5026
8.52769	10.6208
8.51368	10.7625
8.49973	10.6877
8.48582	10.7107
8.47195	10.7817
8.45813	10.8689
8.44436	10.8951
8.43062	10.929
8.41693	10.8799
8.4033	10.8622
8.3897	10.9584
8.37614	11.0379
8.36264	11.133
8.34917	11.1221
8.33574	11.0379
8.32236	11.1041
8.30903	11.1593
8.29573	11.0644
8.28248	11.0841
8.26927	11.1975
8.2561	11.3293
8.24298	11.4928
8.2299	11.5149
8.21685	11.4671
8.20385	11.3867
8.19089	11.3821
8.17797	11.3684
8.16509	11.4354
8.15225	11.4879
8.13946	11.5448
8.1267	11.5422
8.11398	11.5747
8.10131	11.6778
8.08867	11.6174
8.07606	11.6331
8.0635	11.6737
8.05099	11.6628
8.0385	11.7548
8.02606	11.6958
8.01366	11.6165
8.00129	11.7028
7.98896	11.7508
7.97667	11.7171
7.96442	11.7608
7.9522	11.8414
7.94002	11.8018
7.92788	11.757
7.91578	11.7409
7.90371	11.7898
7.89168	11.8881
7.87969	11.91
7.86773	11.8774
7.85581	11.8543
7.84392	11.8595
7.83207	11.8386
7.82026	11.7441
7.80849	11.7483
7.79674	11.7712
7.78503	11.8473
7.77337	11.9279
7.76173	11.8691
7.75012	11.7705
7.73856	11.8145
7.72703	11.8423
7.71553	11.886
7.70406	11.926
7.69263	11.9014
7.68123	11.8796
7.66987	11.8627
7.65855	11.8963
7.64725	11.9332
7.63598	12.0089
7.62475	12.0028
7.61356	11.9838
7.60239	12.0235
7.59126	12.0765
7.58017	12.1398
7.5691	12.1737
7.55806	12.1235
7.54707	12.1114
7.5361	12.1352
7.52516	12.1931
7.51425	12.2346
7.50338	12.2811
7.49253	12.3719
7.48172	12.4728
7.47094	12.4269
7.46019	12.4888
7.44947	12.5693
7.43879	12.4819
7.42813	12.4647
7.4175	12.5194
7.4069	12.5758
7.39634	12.6
7.3858	12.6746
7.37529	12.7205
7.36482	12.7186
7.35437	12.8452
7.34396	12.8899
7.33357	12.7686
7.32321	12.7147
7.31288	12.8285
7.30258	12.9094
7.29231	12.8766
7.28207	12.9408
7.27185	13.0284
7.26167	13.0084
7.25152	12.9781
7.24139	12.9721
7.23129	12.979
7.22122	12.9768
7.21117	13.1309
7.20116	13.1328
7.19117	13.0361
7.18121	13.071
7.17128	13.1714
7.16137	13.2075
7.1515	13.2948
7.14164	13.2921
7.13182	13.2146
7.12203	13.2636
7.11225	13.2326
7.10251	13.1631
7.0928	13.2431
7.08311	13.3196
7.07344	13.2865
7.06381	13.2946
7.0542	13.436
7.04461	13.5324
7.03506	13.3778
7.02552	13.3291
7.01601	13.3968
7.00653	13.4676
6.99708	13.4062
6.98765	13.2919
6.97824	13.2438
6.96886	13.382
6.95951	13.5393
6.95018	13.4232
6.94087	13.3876
6.9316	13.4092
6.92234	13.4864
6.91311	13.4843
6.90391	13.3556
6.89473	13.3106
6.88557	13.3825
6.87644	13.4414
6.86733	13.6781
6.85824	13.7346
6.84918	13.5484
6.84015	13.493
6.83114	13.6094
6.82215	13.6421
6.81319	13.4655
6.80424	13.5138
6.79532	13.7757
6.78643	13.8069
6.77756	13.6708
6.76871	13.6513
6.75989	13.6126
6.75109	13.5678
6.74231	13.4896
6.73355	13.478
6.72482	13.5898
6.71611	13.6662
6.70742	13.6792
6.69875	13.6221
6.69011	13.7971
6.68149	13.9324
6.67289	13.8279
6.66431	13.6899
6.65576	13.5945
6.64722	13.7771
6.63871	14.1564
6.63022	14.1604
6.62175	13.9431
6.61331	13.863
6.60488	13.7963
6.59648	13.7798
6.5881	13.8006
6.57974	14.025
6.5714	14.2068
6.56308	13.9868
6.55478	13.9009
6.54651	13.8716
6.53825	13.8894
6.53001	13.9688
6.5218	14.0838
6.51361	14.012
6.50544	13.9871
6.49729	14.2822
6.48915	14.3593
6.48104	14.2318
6.47295	14.1119
6.46488	13.9614
6.45683	13.9457
6.4488	13.9607
6.44079	13.9425
6.4328	13.9967
6.42482	14.1559
6.41687	14.5356
6.40894	14.4002
6.40103	14.0005
6.39314	13.9534
6.38526	13.9985
6.37741	14.0901
6.36957	14.1185
6.36176	13.9999
6.35396	14.0974
6.34618	14.2301
6.33843	14.0334
6.33069	13.8603
6.32297	13.8728
6.31527	13.8285
6.30758	13.903
6.29992	13.9685
6.29227	13.8669
6.28465	13.7865
6.27704	13.8547
6.26945	13.9258
6.26188	13.9076
6.25432	13.8733
6.24679	13.8772
6.23927	13.862
6.23177	13.8664
6.22429	13.9296
6.21683	13.9272
6.20938	13.8882
6.20195	13.8866
6.19454	13.9059
6.18715	14.0868
6.17978	14.0114
6.17242	13.9991
6.16508	14.1266
6.15776	14.1879
6.15045	14.1243
6.14317	14.0823
6.1359	14.0288
6.12864	14.0284
6.12141	14.19
6.11419	14.448
6.10699	14.3545
6.0998	14.1536
6.09263	14.1468
6.08549	14.1418
6.07835	14.3093
6.07123	14.4566
6.06413	14.3647
6.05705	14.5895
6.04998	15.0036
6.04293	14.5989
6.0359	14.211
6.02888	14.1949
6.02187	14.2518
6.01489	14.4088
6.00792	14.3524
6.00096	14.246
5.99403	14.3285
5.98711	14.4528
5.9802	14.4412
5.97331	14.5077
5.96644	14.5559
5.95958	14.4059
5.95274	14.3492
5.94591	14.3613
5.9391	14.7099
5.9323	14.7608
5.92552	14.5397
5.91876	14.4721
5.91201	14.411
5.90528	14.3934
5.89856	14.6192
5.89186	14.6684
5.88517	14.7419
5.8785	14.8239
5.87184	14.5659
5.8652	14.4267
5.85857	14.3554
5.85196	14.449
5.84536	14.5138
5.83878	14.5356
5.83221	14.694
5.82566	14.8189
5.81912	14.754
5.81259	14.5738
5.80608	14.5338
5.79959	14.5497
5.79311	14.5203
5.78665	14.5116
5.78019	14.5542
5.77376	14.6553
5.76734	14.8689
5.76093	14.7384
5.75453	14.6363
5.74815	14.6997
5.74179	14.6162
5.73543	14.59
5.7291	14.6028
5.72277	14.5958
5.71646	14.6716
5.71017	14.7692
5.70389	14.6802
5.69762	14.6302
5.69136	14.7196
5.68513	14.6735
5.6789	14.6647
5.67268	14.6912
5.66648	14.5787
5.6603	14.5372
5.65413	14.5938
5.64797	14.709
5.64182	14.7814
5.63569	14.6493
5.62957	14.6223
5.62347	14.625
5.61737	14.6066
5.61129	14.5953
5.60522	14.5871
5.59917	14.6125
5.59313	14.5972
5.5871	14.6855
5.58109	14.8442
5.57509	14.7262
5.5691	14.5541
5.56312	14.5692
5.55716	14.6568
5.55121	14.7046
5.54528	14.6692
5.53935	14.6033
5.53344	14.5886
5.52754	14.6982
5.52166	14.7569
5.51578	14.7077
5.50992	14.6046
5.50407	14.5751
5.49823	14.5849
5.49241	14.686
5.4866	14.731
5.4808	14.7831
5.47501	14.753
5.46923	14.7342
5.46347	14.768
5.45772	14.7551
5.45198	14.777
5.44625	14.7836
5.44054	14.7445
5.43484	14.6592
5.42914	14.7144
5.42347	14.8253
5.4178	14.7582
5.41214	14.7377
5.4065	14.7817
5.40087	14.811
5.39525	14.8277
5.38964	14.7209
5.38404	14.6498
5.37846	14.6666
5.37288	14.6989
5.36732	14.7682
5.36177	14.8089
5.35623	14.8479
5.35071	14.9255
5.34519	14.8003
5.33968	14.7123
5.33419	14.7665
5.32871	14.8527
5.32324	14.9018
5.31778	14.8447
5.31233	14.7942
5.30689	14.7279
5.30147	14.7578
5.29605	14.7956
5.29065	14.7661
5.28525	14.7912
5.27987	14.838
5.2745	14.848
5.26914	14.8519
5.26379	14.8659
5.25845	14.8966
5.25312	14.8837
5.24781	14.8766
5.2425	14.8684
5.23721	14.8147
5.23192	14.7724
5.22665	14.7538
5.22138	14.8102
5.21613	14.8679
5.21089	14.8203
5.20566	14.8186
5.20044	14.8906
5.19522	14.9176
5.19002	14.8568
5.18483	14.8345
5.17965	14.8731
5.17448	14.9072
5.16933	14.9305
5.16418	14.9652
5.15904	14.9492
5.15391	14.9236
5.14879	14.953
5.14368	14.963
5.13859	14.9845
5.1335	14.9414
5.12842	14.8761
5.12335	14.873
5.1183	14.8908
5.11325	14.9263
5.10821	14.9676
5.10318	14.9908
5.09817	15.0296
5.09316	15.0726
5.08816	15.0789
5.08317	15.0655
5.07819	14.9442
5.07322	14.9353
5.06826	14.9732
5.06331	14.9928
5.05837	15.0076
5.05344	15.0398
5.04852	15.0882
5.04361	15.0194
5.03871	14.9318
5.03382	14.9439
5.02894	14.9815
5.02406	15.0231
5.0192	14.972
5.01435	14.8735
5.0095	14.868
5.00467	15.0413
4.99984	15.1412
4.99502	15.0773
4.99021	15.0719
4.98542	15.1106
4.98063	15.0397
4.97585	14.9793
4.97108	15.0166
4.96632	15.0684
4.96156	15.0997
4.95682	15.0574
4.95209	15.0262
4.94736	15.0143
4.94264	15.0134
4.93794	15.0224
4.93324	15.0125
4.92855	15.0216
4.92387	15.0936
4.9192	15.1233
4.91453	15.0429
4.90988	15.0044
4.90524	15.0631
4.9006	15.1265
4.89597	15.1297
4.89135	15.1259
4.88674	15.0848
4.88214	15.0679
4.87755	15.1264
4.87296	15.1249
4.86839	15.0317
4.86382	15.0078
4.85926	15.0396
4.85471	15.0862
4.85017	15.1397
4.84564	15.1385
4.84111	15.093
4.8366	15.0998
4.83209	15.1527
4.82759	15.121
4.8231	15.1027
4.81862	15.1827
4.81415	15.2128
4.80968	15.1995
4.80522	15.1675
4.80077	15.1387
4.79633	15.1432
4.7919	15.0962
4.78747	15.0294
4.78306	15.1295
4.77865	15.2543
4.77425	15.2422
4.76986	15.2631
4.76547	15.3145
4.7611	15.2483
4.75673	15.188
4.75237	15.1858
4.74802	15.1761
4.74367	15.18
4.73934	15.2269
4.73501	15.2506
4.73069	15.2233
4.72638	15.1841
4.72207	15.1444
4.71777	15.1245
4.71348	15.1258
4.7092	15.1941
4.70493	15.2384
4.70066	15.2205
4.69641	15.2256
4.69216	15.2209
4.68791	15.2209
4.68368	15.2209
4.67945	15.243
4.67523	15.277
4.67102	15.2471
4.66682	15.2661
4.66262	15.2688
4.65843	15.2857
4.65425	15.2822
4.65007	15.2662
4.64591	15.2676
4.64175	15.2394
4.6376	15.2588
4.63345	15.2946
4.62932	15.2849
4.62519	15.3487
4.62106	15.3969
4.61695	15.3126
4.61284	15.3192
4.60874	15.3727
4.60465	15.3079
4.60056	15.2515
4.59648	15.2637
4.59241	15.312
4.58835	15.2948
4.58429	15.3022
4.58024	15.3212
4.5762	15.3454
4.57216	15.3235
4.56814	15.2596
4.56411	15.2856
4.5601	15.3041
4.55609	15.3023
4.55209	15.3426
4.5481	15.3394
4.54411	15.346
4.54013	15.3608
4.53616	15.361
4.5322	15.408
4.52824	15.4295
4.52429	15.3333
4.52034	15.304
4.51641	15.288
4.51247	15.3144
4.50855	15.4164
4.50463	15.4316
4.50072	15.4231
4.49682	15.4027
4.49292	15.4297
4.48903	15.4524
4.48515	15.3206
4.48127	15.3118
4.4774	15.3861
4.47354	15.3961
4.46968	15.39
4.46584	15.4179
4.46199	15.4346
4.45815	15.4334
4.45432	15.4474
4.4505	15.4029
4.44668	15.3702
4.44287	15.4084
4.43907	15.4558
4.43527	15.4374
4.43148	15.3826
4.4277	15.3659
4.42392	15.3968
4.42015	15.4218
4.41638	15.4246
4.41262	15.4195
4.40887	15.5055
4.40513	15.5251
4.40139	15.4401
4.39765	15.3791
4.39393	15.425
4.39021	15.4591
4.38649	15.4934
4.38278	15.534
4.37908	15.4799
4.37539	15.4489
4.3717	15.4758
4.36801	15.5323
4.36434	15.561
4.36067	15.5119
4.357	15.498
4.35335	15.4744
4.34969	15.4342
4.34605	15.3909
4.34241	15.3999
4.33877	15.4774
4.33514	15.5295
4.33152	15.5113
4.32791	15.4493
4.3243	15.492
4.32069	15.5582
4.3171	15.5029
4.31351	15.4501
4.30992	15.4863
4.30634	15.4984
4.30277	15.5033
4.2992	15.4989
4.29564	15.4156
4.29208	15.43
4.28853	15.4667
4.28499	15.5009
4.28145	15.4938
4.27792	15.4615
4.27439	15.4774
4.27087	15.4803
4.26735	15.4375
4.26384	15.403
4.26034	15.4332
4.25684	15.423
4.25335	15.4712
4.24986	15.5353
4.24638	15.5522
4.24291	15.4983
4.23944	15.4281
4.23598	15.4719
4.23252	15.4825
4.22906	15.4734
4.22562	15.4603
4.22218	15.4329
4.21874	15.494
4.21531	15.5993
4.21189	15.5631
4.20847	15.528
4.20506	15.525
4.20165	15.5596
4.19825	15.5983
4.19485	15.6367
4.19146	15.675
4.18807	15.5479
4.18469	15.4481
4.18132	15.5195
4.17795	15.5883
4.17458	15.6315
4.17123	15.6265
4.16787	15.6739
4.16453	15.666
4.16118	15.5968
4.15785	15.5942
4.15451	15.6018
4.15119	15.5985
4.14787	15.6112
4.14455	15.5385
4.14124	15.5162
4.13794	15.5954
4.13464	15.6612
4.13134	15.6533
4.12805	15.6932
4.12477	15.7061
4.12149	15.6859
4.11822	15.6751
4.11495	15.5787
4.11168	15.5026
4.10843	15.5983
4.10517	15.588
4.10192	15.5696
4.09868	15.6247
4.09545	15.6425
4.09221	15.6646
4.08899	15.6664
4.08576	15.6685
4.08255	15.6801
4.07933	15.6763
4.07613	15.6598
4.07292	15.6875
4.06973	15.6555
4.06654	15.5932
4.06335	15.6126
4.06017	15.6001
4.05699	15.6704
4.05382	15.7807
4.05065	15.806
4.04749	15.7313
4.04433	15.6553
4.04118	15.6466
4.03803	15.6747
4.03489	15.673
4.03175	15.6896
4.02862	15.6985
4.02549	15.699
4.02237	15.7139
4.01925	15.7411
4.01614	15.8058
4.01303	15.832
4.00993	15.7856
4.00683	15.7923
4.00373	15.8444
4.00064	15.8128
3.99756	15.8413
3.99448	15.8464
3.9914	15.7198
3.98833	15.6996
3.98527	15.7649
3.98221	15.8068
3.97915	15.765
3.9761	15.7276
3.97305	15.7382
3.97001	15.7787
3.96697	15.7939
3.96394	15.805
3.96091	15.7921
3.95789	15.737
3.95487	15.7302
3.95186	15.7838
3.94885	15.8553
3.94584	15.8891
3.94284	15.8186
3.93984	15.683
3.93685	15.6571
3.93386	15.7575
3.93088	15.7875
3.9279	15.7353
3.92493	15.7913
3.92196	15.867
3.919	15.8315
3.91604	15.8035
3.91308	15.8115
3.91013	15.7519
3.90718	15.7503
3.90424	15.8176
3.9013	15.8251
3.89837	15.8768
3.89544	15.8844
3.89252	15.8297
3.8896	15.8189
3.88668	15.8202
3.88377	15.7938
3.88086	15.8825
3.87796	15.8452
3.87506	15.7644
3.87217	15.715
3.86928	15.7417
3.86639	15.7686
3.86351	15.8331
3.86064	15.8815
3.85776	15.8793
3.8549	15.8877
3.85203	15.8664
3.84917	15.8446
3.84631	15.8641
3.84346	15.9493
3.84062	15.9757
3.83777	15.9769
3.83494	15.9107
3.8321	15.8125
3.82927	15.7755
3.82644	15.8193
3.82362	15.8222
3.82081	15.8045
3.81799	15.8267
3.81518	15.8251
3.81238	15.8546
3.80958	15.9298
3.80678	15.871
3.80399	15.8859
3.8012	15.8431
3.79841	15.8468
3.79563	15.869
3.79286	15.7985
3.79008	15.8701
3.78731	15.9017
3.78455	15.8783
3.78179	15.8749
3.77903	15.7685
3.77628	15.7248
3.77353	15.7879
3.77079	15.8241
3.76805	15.8386
3.76531	15.907
3.76258	15.9842
3.75985	15.9401
3.75713	15.8457
3.7544	15.8678
3.75169	15.9254
3.74898	15.8783
3.74627	15.8275
3.74356	15.8557
3.74086	15.8821
3.73816	15.8687
3.73547	15.8327
3.73278	15.8464
3.7301	15.9057
3.72741	15.9128
3.72474	15.8767
3.72206	15.9007
3.71939	15.9537
3.71673	15.9404
3.71406	15.8341
3.71141	15.842
3.70875	15.8363
3.7061	15.8085
3.70345	15.87
3.70081	15.942
3.69817	15.8839
3.69553	15.8673
3.6929	15.9035
3.69027	15.9471
3.68765	15.8686
3.68503	15.7656
3.68241	15.8701
3.6798	16.0123
3.67719	15.9108
3.67458	15.8218
3.67198	15.8411
3.66938	15.8921
3.66678	16.0122
3.66419	15.9554
3.66161	15.8599
3.65902	15.8126
3.65644	15.9144
3.65387	15.9833
3.65129	15.8827
3.64872	15.858
3.64616	15.9058
3.64359	15.925
3.64103	15.9038
3.63848	15.8881
3.63593	15.8099
3.63338	15.8171
3.63084	15.9033
3.6283	15.8873
3.62576	15.8862
3.62322	15.929
3.62069	15.9642
3.61817	15.9602
3.61564	15.9226
3.61312	15.9175
3.61061	15.8692
3.6081	15.8387
3.60559	15.9683
3.60308	15.9613
3.60058	15.8845
3.59808	15.9142
3.59558	15.9188
3.59309	15.9789
3.59061	15.9072
3.58812	15.8752
3.58564	15.8543
3.58316	15.8238
3.58069	15.8093
3.57822	15.8316
3.57575	15.8413
3.57328	15.8742
3.57082	15.8967
3.56836	15.9464
3.56591	15.9453
3.56346	15.9775
3.56101	16.015
3.55857	15.9166
3.55613	15.8756
3.55369	15.9158
3.55126	15.9043
3.54883	15.8291
3.5464	15.8333
3.54397	15.9041
3.54155	15.9112
3.53914	15.9608
3.53672	15.8994
3.53431	15.8574
3.5319	15.9382
3.5295	16.0118
3.5271	15.9599
3.5247	15.9239
3.52231	15.9397
3.51991	16.0119
3.51753	16.0028
3.51514	15.8489
3.51276	15.85
3.51038	15.919
3.50801	15.967
3.50563	15.9732
3.50327	15.9928
3.5009	16.0975
3.49854	16.0935
3.49618	16.0801
3.49382	15.9454
3.49147	15.8839
3.48912	16.0587
3.48677	16.0625
3.48443	16.0314
3.48209	16.0531
3.47975	15.9456
3.47742	15.8945
3.47509	15.9555
3.47276	15.9095
3.47044	15.8356
3.46812	15.8495
3.4658	15.8822
3.46348	15.9144
3.46117	15.8729
