Name: Strontianite SrCO_3
Type: Mineral
Class: Carbonates
Subclass: 
Particle Size: 45-125um
Sample No.: C-1A
Owner: JPL
Wavelength range: IR
Origin: Germany, Westphalia, Hamm
Collected by Ward's
Description: 





Measurement: Hemispherical reflectance
First Column: X
Second Column: Y
X Units:  Wavelength (micrometers)
Y Units:  Reflectance (percent)
First X Value: 15.3853
Last X Value: 2.00032
Number of X Values: 2256
Additional information: c01aa.txt
 
15.3853	45.0309
15.3397	45.2116
15.2945	45.5139
15.2495	45.6363
15.2048	45.2886
15.1603	45.1674
15.1161	45.1938
15.0722	45.0171
15.0285	44.59
14.9851	44.3034
14.9419	44.056
14.8989	43.3071
14.8563	42.7144
14.8138	42.0583
14.7716	40.816
14.7296	39.2076
14.6879	36.9805
14.6464	33.2881
14.6052	28.7177
14.5641	24.0397
14.5233	19.9758
14.4828	15.9457
14.4424	10.3635
14.4023	6.22358
14.3624	4.61643
14.3227	3.98432
14.2833	3.39916
14.244	3.04981
14.205	3.44359
14.1662	3.86343
14.1276	3.40187
14.0892	3.21869
14.051	4.3268
14.0131	6.36653
13.9753	11.9852
13.9377	20.4155
13.9004	26.4844
13.8632	30.6043
13.8262	33.6929
13.7895	36.2935
13.7529	38.6147
13.7165	40.4172
13.6803	41.8484
13.6443	43.0388
13.6085	43.9392
13.5729	44.6417
13.5374	45.2241
13.5022	45.9185
13.4671	46.4505
13.4322	46.8143
13.3975	47.1266
13.363	47.475
13.3286	47.6849
13.2944	47.8471
13.2604	48.0203
13.2266	48.0561
13.193	47.9601
13.1595	47.8992
13.1262	47.5877
13.093	47.1007
13.06	46.6489
13.0272	46.0184
12.9946	45.0276
12.9621	43.9334
12.9298	42.9242
12.8976	41.978
12.8656	40.824
12.8337	39.8378
12.8021	39.1838
12.7705	38.3946
12.7391	37.4307
12.7079	36.3692
12.6769	35.3194
12.6459	34.3785
12.6152	33.3325
12.5845	32.4969
12.5541	31.758
12.5238	30.8786
12.4936	30.1057
12.4635	29.689
12.4337	29.5369
12.4039	29.578
12.3743	29.6312
12.3448	29.5518
12.3155	29.376
12.2863	29.3168
12.2573	29.3739
12.2284	29.2304
12.1996	28.8608
12.171	28.4842
12.1425	27.9546
12.1141	27.0061
12.0859	25.6896
12.0578	24.3653
12.0298	23.0088
12.0019	21.2155
11.9742	18.4958
11.9466	15.3091
11.9192	12.7096
11.8918	10.3076
11.8646	8.74743
11.8375	8.80558
11.8106	9.77001
11.7837	10.3875
11.757	11.1657
11.7304	12.9333
11.7039	15.9245
11.6776	18.748
11.6513	20.5573
11.6252	22.1132
11.5992	23.6134
11.5733	25.0409
11.5475	26.3125
11.5219	26.6538
11.4963	24.6733
11.4709	20.0168
11.4455	15.3049
11.4203	12.623
11.3952	11.5864
11.3702	11.1058
11.3454	10.9304
11.3206	11.1285
11.2959	11.3816
11.2714	11.5455
11.2469	11.7053
11.2226	11.8743
11.1983	11.7359
11.1742	10.8442
11.1502	8.72884
11.1263	7.1197
11.1024	9.29254
11.0787	13.3972
11.0551	15.9996
11.0316	17.1266
11.0081	17.7051
10.9848	18.0095
10.9616	18.3308
10.9385	18.841
10.9154	19.218
10.8925	19.5788
10.8697	19.9799
10.8469	20.3995
10.8243	20.5701
10.8017	20.5917
10.7793	20.5868
10.7569	20.4717
10.7346	20.2844
10.7125	20.1885
10.6904	20.041
10.6684	20.0025
10.6465	20.1496
10.6247	20.392
10.6029	20.6732
10.5813	21.0656
10.5597	21.4888
10.5383	21.956
10.5169	22.3847
10.4956	22.7048
10.4744	22.9836
10.4533	23.1058
10.4323	23.0787
10.4113	23.0278
10.3904	22.9965
10.3697	23.1007
10.349	23.408
10.3284	23.9017
10.3078	24.4884
10.2874	25.2084
10.267	25.8768
10.2467	26.622
10.2265	27.4063
10.2064	28.0695
10.1863	28.7338
10.1663	29.3737
10.1464	29.8946
10.1266	30.31
10.1069	30.6346
10.0872	30.5841
10.0676	30.4847
10.0481	30.2818
10.0287	29.8801
10.0093	29.3487
9.99005	28.8742
9.97084	28.4163
9.95169	27.9316
9.93263	27.6934
9.91364	27.7855
9.89472	27.915
9.87587	27.8075
9.8571	27.6825
9.83839	27.488
9.81976	27.1164
9.80119	26.7845
9.78271	26.4533
9.76428	26.0904
9.74592	25.6935
9.72764	25.3682
9.70943	25.0684
9.69128	24.6814
9.6732	24.3013
9.65518	23.8606
9.63724	23.4015
9.61935	23.2076
9.60155	22.9939
9.5838	22.6456
9.56611	22.0621
9.5485	20.9939
9.53094	19.762
9.51345	19.7669
9.49604	20.569
9.47867	20.6489
9.46137	20.1132
9.44414	19.1577
9.42697	18.1952
9.40986	16.7773
9.39281	14.1248
9.37583	10.2183
9.35891	6.69462
9.34204	4.58327
9.32524	4.0639
9.3085	5.56773
9.29182	9.83376
9.27519	14.5862
9.25863	17.3485
9.24213	18.8348
9.22568	19.9002
9.2093	20.7657
9.19297	21.3995
9.17669	21.8976
9.16048	22.2334
9.14433	22.3594
9.12823	22.3295
9.11218	22.2218
9.0962	22.0664
9.08027	21.8894
9.06439	21.5996
9.04858	21.2752
9.03281	20.9505
9.0171	20.5589
9.00145	20.0796
8.98585	19.537
8.9703	19.0786
8.9548	18.6665
8.93937	18.0591
8.92398	17.3984
8.90865	16.8852
8.89337	16.3521
8.87814	15.6421
8.86296	14.952
8.84784	14.2471
8.83277	13.591
8.81774	13.0554
8.80277	12.5161
8.78786	11.9337
8.77298	11.295
8.75816	10.7097
8.7434	10.2492
8.72868	9.96703
8.714	9.68563
8.69938	9.3238
8.68481	9.01061
8.67029	8.91492
8.65581	8.79776
8.64139	8.63612
8.62701	8.51306
8.61268	8.50916
8.5984	8.66179
8.58416	8.85683
8.56997	9.1612
8.55583	9.52862
8.54174	9.79811
8.52769	9.90585
8.51368	9.95009
8.49973	10.061
8.48582	10.2666
8.47195	10.3817
8.45813	10.2942
8.44436	10.124
8.43062	9.95549
8.41693	9.75187
8.4033	9.60863
8.3897	9.44137
8.37614	9.33569
8.36264	9.28652
8.34917	9.37634
8.33574	9.54382
8.32236	9.84533
8.30903	10.3729
8.29573	10.9199
8.28248	11.35
8.26927	11.5411
8.2561	11.525
8.24298	11.4465
8.2299	11.294
8.21685	11.0647
8.20385	10.8385
8.19089	10.5772
8.17797	10.3608
8.16509	10.3634
8.15225	10.4594
8.13946	10.3994
8.1267	10.1338
8.11398	9.94497
8.10131	9.84681
8.08867	9.63723
8.07606	9.41502
8.0635	9.16609
8.05099	8.93283
8.0385	8.53191
8.02606	8.17582
8.01366	7.93291
8.00129	7.78359
7.98896	7.70694
7.97667	7.57894
7.96442	7.52563
7.9522	7.62091
7.94002	7.70737
7.92788	7.61109
7.91578	7.52822
7.90371	7.53127
7.89168	7.40796
7.87969	7.258
7.86773	7.13949
7.85581	7.06151
7.84392	7.01467
7.83207	6.91731
7.82026	6.80092
7.80849	6.75425
7.79674	6.68882
7.78503	6.5824
7.77337	6.53061
7.76173	6.51685
7.75012	6.37781
7.73856	6.30329
7.72703	6.3265
7.71553	6.30618
7.70406	6.30044
7.69263	6.29855
7.68123	6.20551
7.66987	6.14448
7.65855	6.2328
7.64725	6.23967
7.63598	6.17052
7.62475	6.14498
7.61356	6.15747
7.60239	6.16158
7.59126	6.13477
7.58017	6.03461
7.5691	5.92903
7.55806	5.89566
7.54707	5.89547
7.5361	5.94029
7.52516	6.01592
7.51425	6.10017
7.50338	6.20967
7.49253	6.16018
7.48172	6.17492
7.47094	6.23979
7.46019	6.32845
7.44947	6.40994
7.43879	6.45555
7.42813	6.53309
7.4175	6.62955
7.4069	6.70309
7.39634	6.70412
7.3858	6.73167
7.37529	6.81067
7.36482	6.85292
7.35437	6.86411
7.34396	6.95525
7.33357	7.11195
7.32321	7.19634
7.31288	7.12726
7.30258	7.16186
7.29231	7.31141
7.28207	7.30603
7.27185	7.21679
7.26167	7.26493
7.25152	7.33074
7.24139	7.30491
7.23129	7.32065
7.22122	7.38372
7.21117	7.50332
7.20116	7.60374
7.19117	7.7574
7.18121	7.86518
7.17128	7.94124
7.16137	8.05446
7.1515	8.06331
7.14164	8.1884
7.13182	8.41563
7.12203	8.58104
7.11225	8.7228
7.10251	8.84005
7.0928	9.01533
7.08311	9.29632
7.07344	9.56357
7.06381	9.84429
7.0542	10.1646
7.04461	10.5558
7.03506	10.8959
7.02552	11.3459
7.01601	11.921
7.00653	12.5034
6.99708	13.2097
6.98765	13.9658
6.97824	14.7532
6.96886	15.7577
6.95951	17.088
6.95018	18.574
6.94087	20.2525
6.9316	21.8932
6.92234	23.1533
6.91311	24.0875
6.90391	24.8633
6.89473	25.516
6.88557	26.1102
6.87644	26.6181
6.86733	27.2626
6.85824	27.5806
6.84918	27.5274
6.84015	27.6949
6.83114	28.0752
6.82215	28.3462
6.81319	28.5693
6.80424	28.9831
6.79532	29.5814
6.78643	29.9512
6.77756	29.9819
6.76871	30.1168
6.75989	30.3463
6.75109	30.654
6.74231	30.9368
6.73355	31.1789
6.72482	31.4619
6.71611	31.7999
6.70742	32.052
6.69875	32.0653
6.69011	32.2797
6.68149	32.5638
6.67289	32.553
6.66431	32.4228
6.65576	32.351
6.64722	32.6512
6.63871	33.0978
6.63022	32.7468
6.62175	32.2071
6.61331	32.0218
6.60488	31.862
6.59648	31.7857
6.5881	31.5427
6.57974	31.2819
6.5714	31.0007
6.56308	30.3175
6.55478	29.8118
6.54651	29.1695
6.53825	28.4248
6.53001	27.8066
6.5218	27.2242
6.51361	26.3759
6.50544	25.6833
6.49729	25.1569
6.48915	24.0532
6.48104	22.5322
6.47295	20.9893
6.46488	19.3808
6.45683	17.8689
6.4488	16.5863
6.44079	15.5352
6.4328	14.6068
6.42482	13.7817
6.41687	12.9187
6.40894	11.5603
6.40103	10.0172
6.39314	8.72045
6.38526	7.55987
6.37741	6.54602
6.36957	5.61234
6.36176	4.73892
6.35396	3.95388
6.34618	3.35226
6.33843	2.7602
6.33069	2.27243
6.32297	1.9299
6.31527	1.68306
6.30758	1.48221
6.29992	1.3297
6.29227	1.27852
6.28465	1.20567
6.27704	1.03727
6.26945	0.921863
6.26188	0.768268
6.25432	0.750375
6.24679	0.758751
6.23927	0.664845
6.23177	0.626377
6.22429	0.70333
6.21683	0.726852
6.20938	0.667884
6.20195	0.620042
6.19454	0.650897
6.18715	0.667323
6.17978	0.634567
6.17242	0.624368
6.16508	0.611147
6.15776	0.617665
6.15045	0.631841
6.14317	0.677178
6.1359	0.669072
6.12864	0.614495
6.12141	0.652002
6.11419	0.706507
6.10699	0.783829
6.0998	0.876283
6.09263	0.806336
6.08549	0.72327
6.07835	0.837911
6.07123	0.864503
6.06413	0.907743
6.05705	0.946091
6.04998	1.05273
6.04293	1.12776
6.0359	1.15055
6.02888	1.11929
6.02187	1.15276
6.01489	1.29632
6.00792	1.41062
6.00096	1.41277
5.99403	1.39428
5.98711	1.42306
5.9802	1.46048
5.97331	1.49553
5.96644	1.44499
5.95958	1.46488
5.95274	1.47789
5.94591	1.58946
5.9391	1.74993
5.9323	1.83314
5.92552	1.84062
5.91876	1.90017
5.91201	2.04271
5.90528	2.20187
5.89856	2.44805
5.89186	2.64895
5.88517	2.7147
5.8785	2.82555
5.87184	3.03159
5.8652	3.25957
5.85857	3.50305
5.85196	3.71656
5.84536	3.91034
5.83878	4.21526
5.83221	4.55487
5.82566	4.76828
5.81912	4.90581
5.81259	5.19118
5.80608	5.56135
5.79959	5.88276
5.79311	6.14529
5.78665	6.46519
5.78019	6.7989
5.77376	7.1274
5.76734	7.40437
5.76093	7.47489
5.75453	7.75431
5.74815	8.32814
5.74179	8.70897
5.73543	9.192
5.7291	9.87266
5.72277	10.5708
5.71646	11.0139
5.71017	10.9755
5.70389	10.4524
5.69762	9.45119
5.69136	7.72053
5.68513	5.58465
5.6789	3.81838
5.67268	2.7995
5.66648	2.26418
5.6603	1.86552
5.65413	1.64675
5.64797	1.56849
5.64182	1.47882
5.63569	1.44861
5.62957	1.44193
5.62347	1.48879
5.61737	1.80019
5.61129	2.32153
5.60522	3.44614
5.59917	6.04039
5.59313	10.637
5.5871	16.0052
5.58109	20.4603
5.57509	23.5286
5.5691	25.7205
5.56312	27.5465
5.55716	29.1599
5.55121	30.689
5.54528	31.8984
5.53935	33.0073
5.53344	34.0508
5.52754	35.0851
5.52166	36.0069
5.51578	36.8251
5.50992	37.5378
5.50407	38.2841
5.49823	39.005
5.49241	39.7326
5.4866	40.4551
5.4808	41.2098
5.47501	41.7653
5.46923	42.3041
5.46347	42.846
5.45772	43.2413
5.45198	43.6733
5.44625	44.1622
5.44054	44.5244
5.43484	44.8936
5.42914	45.3782
5.42347	45.9779
5.4178	46.2627
5.41214	46.5082
5.4065	46.7475
5.40087	47.0258
5.39525	47.3191
5.38964	47.6221
5.38404	47.9379
5.37846	48.2365
5.37288	48.4754
5.36732	48.8184
5.36177	49.1223
5.35623	49.4645
5.35071	49.8561
5.34519	50.1071
5.33968	50.3714
5.33419	50.694
5.32871	51.083
5.32324	51.4756
5.31778	51.8167
5.31233	52.2191
5.30689	52.5615
5.30147	52.9345
5.29605	53.3564
5.29065	53.7619
5.28525	53.9861
5.27987	54.2918
5.2745	54.5905
5.26914	54.8899
5.26379	55.1171
5.25845	55.3774
5.25312	55.5605
5.24781	55.8047
5.2425	56.0233
5.23721	56.1792
5.23192	56.2682
5.22665	56.2798
5.22138	56.252
5.21613	56.3507
5.21089	56.404
5.20566	56.3159
5.20044	56.1468
5.19522	56.0365
5.19002	56.0745
5.18483	56.1843
5.17965	56.2678
5.17448	56.4017
5.16933	56.5292
5.16418	56.6433
5.15904	56.762
5.15391	56.9402
5.14879	57.1476
5.14368	57.3251
5.13859	57.5033
5.1335	57.7305
5.12842	57.9742
5.12335	58.2353
5.1183	58.4652
5.11325	58.7438
5.10821	59.1074
5.10318	59.522
5.09817	59.9121
5.09316	60.4077
5.08816	61.0377
5.08317	61.6932
5.07819	62.2819
5.07322	62.8066
5.06826	63.1484
5.06331	63.4561
5.05837	63.7214
5.05344	63.9607
5.04852	64.1616
5.04361	64.3898
5.03871	64.5547
5.03382	64.7272
5.02894	64.8669
5.02406	65.0926
5.0192	65.2843
5.01435	65.3759
5.0095	65.4808
5.00467	65.6725
4.99984	65.8526
4.99502	65.906
4.99021	65.8794
4.98542	65.9594
4.98063	66.1019
4.97585	66.2037
4.97108	66.3673
4.96632	66.5707
4.96156	66.7265
4.95682	66.8524
4.95209	66.8711
4.94736	66.893
4.94264	66.928
4.93794	66.9406
4.93324	66.9366
4.92855	66.9265
4.92387	66.9954
4.9192	67.1694
4.91453	67.409
4.90988	67.6833
4.90524	67.9629
4.9006	68.3188
4.89597	68.6995
4.89135	69.0465
4.88674	69.3708
4.88214	69.6936
4.87755	69.9249
4.87296	70.0969
4.86839	70.2275
4.86382	70.3552
4.85926	70.4776
4.85471	70.4954
4.85017	70.4775
4.84564	70.5074
4.84111	70.4606
4.8366	70.3655
4.83209	70.1461
4.82759	69.8291
4.8231	69.3739
4.81862	68.8135
4.81415	68.1189
4.80968	67.1904
4.80522	66.0343
4.80077	64.6517
4.79633	63.0571
4.7919	61.2473
4.78747	59.2137
4.78306	56.8636
4.77865	54.267
4.77425	51.5566
4.76986	48.8836
4.76547	46.3758
4.7611	43.9565
4.75673	41.6237
4.75237	39.5068
4.74802	37.6541
4.74367	36.1442
4.73934	34.9277
4.73501	33.8601
4.73069	32.9415
4.72638	32.0399
4.72207	31.0031
4.71777	29.7108
4.71348	28.2587
4.7092	26.8044
4.70493	25.6427
4.70066	24.9603
4.69641	24.8223
4.69216	25.164
4.68791	25.946
4.68368	26.9223
4.67945	27.9702
4.67523	29.0905
4.67102	30.2117
4.66682	31.2387
4.66262	32.2273
4.65843	33.3796
4.65425	34.4784
4.65007	35.537
4.64591	36.502
4.64175	37.3615
4.6376	38.3198
4.63345	39.3557
4.62932	40.3397
4.62519	41.2983
4.62106	42.1496
4.61695	43.0155
4.61284	43.9008
4.60874	44.5977
4.60465	45.2771
4.60056	46.0329
4.59648	46.8065
4.59241	47.5695
4.58835	48.1801
4.58429	48.6123
4.58024	49.048
4.5762	49.6533
4.57216	50.3123
4.56814	51.0092
4.56411	51.6786
4.5601	52.1312
4.55609	52.5895
4.55209	53.1102
4.5481	53.5544
4.54411	53.818
4.54013	54.0389
4.53616	54.2269
4.5322	54.2897
4.52824	54.2904
4.52429	54.2509
4.52034	54.1446
4.51641	54.0505
4.51247	53.9253
4.50855	53.8021
4.50463	53.6374
4.50072	53.5486
4.49682	53.5474
4.49292	53.4854
4.48903	53.485
4.48515	53.6948
4.48127	54.0252
4.4774	54.3294
4.47354	54.703
4.46968	55.1494
4.46584	55.5921
4.46199	56.1812
4.45815	56.8854
4.45432	57.6162
4.4505	58.3952
4.44668	59.0848
4.44287	59.602
4.43907	60.034
4.43527	60.4119
4.43148	60.6725
4.4277	60.7834
4.42392	60.9128
4.42015	61.0624
4.41638	61.1379
4.41262	61.2134
4.40887	61.3832
4.40513	61.4298
4.40139	61.4365
4.39765	61.2814
4.39393	60.8945
4.39021	60.3404
4.38649	59.6213
4.38278	58.6884
4.37908	57.5323
4.37539	56.0276
4.3717	54.1262
4.36801	52.1678
4.36434	50.4722
4.36067	49.2444
4.357	48.3731
4.35335	47.5096
4.34969	46.5099
4.34605	45.402
4.34241	44.5494
4.33877	44.0019
4.33514	43.6169
4.33152	43.2262
4.32791	42.752
4.3243	42.3221
4.32069	42.0076
4.3171	41.9607
4.31351	42.2827
4.30992	42.7985
4.30634	43.3161
4.30277	43.8358
4.2992	44.4171
4.29564	45.1522
4.29208	46.0579
4.28853	47.0228
4.28499	47.9673
4.28145	48.6263
4.27792	48.8947
4.27439	48.871
4.27087	48.7251
4.26735	48.6487
4.26384	48.6503
4.26034	48.765
4.25684	49.0456
4.25335	49.3131
4.24986	49.4966
4.24638	49.4221
4.24291	49.1012
4.23944	48.8417
4.23598	48.6923
4.23252	48.6034
4.22906	48.5022
4.22562	48.3454
4.22218	48.012
4.21874	47.6897
4.21531	47.4012
4.21189	46.9721
4.20847	46.5251
4.20506	46.0867
4.20165	45.5104
4.19825	44.8562
4.19485	44.1368
4.19146	43.46
4.18807	42.8167
4.18469	42.2411
4.18132	41.8372
4.17795	41.5834
4.17458	41.464
4.17123	41.4886
4.16787	41.6469
4.16453	41.8229
4.16118	42.1104
4.15785	42.4513
4.15451	42.6743
4.15119	42.8056
4.14787	42.8991
4.14455	42.9525
4.14124	42.9078
4.13794	42.815
4.13464	42.6154
4.13134	42.3481
4.12805	42.1056
4.12477	41.6505
4.12149	41.0861
4.11822	40.4725
4.11495	39.6787
4.11168	38.6829
4.10843	37.5215
4.10517	36.1784
4.10192	34.5334
4.09868	32.456
4.09545	30.1987
4.09221	27.9021
4.08899	25.4111
4.08576	23.0073
4.08255	20.726
4.07933	18.5621
4.07613	16.4533
4.07292	14.2824
4.06973	12.1389
4.06654	10.1314
4.06335	8.40101
4.06017	7.02009
4.05699	6.03756
4.05382	5.34315
4.05065	4.90304
4.04749	4.59021
4.04433	4.39683
4.04118	4.14803
4.03803	3.80771
4.03489	3.54318
4.03175	3.33416
4.02862	3.17503
4.02549	3.10378
4.02237	2.96505
4.01925	2.89905
4.01614	2.92519
4.01303	3.03588
4.00993	3.08784
4.00683	3.10439
4.00373	3.20111
4.00064	3.19633
3.99756	3.1791
3.99448	3.1931
3.9914	3.182
3.98833	3.28807
3.98527	3.54433
3.98221	3.6731
3.97915	3.62133
3.9761	3.65721
3.97305	3.72292
3.97001	3.79944
3.96697	3.96227
3.96394	4.16576
3.96091	4.45353
3.95789	4.78144
3.95487	5.00234
3.95186	5.26688
3.94885	5.54273
3.94584	5.91622
3.94284	6.42265
3.93984	6.83444
3.93685	7.17636
3.93386	7.39987
3.93088	7.40268
3.9279	7.43379
3.92493	7.69726
3.92196	8.02772
3.919	8.36725
3.91604	8.64619
3.91308	8.90278
3.91013	9.18214
3.90718	9.44553
3.90424	9.7558
3.9013	9.89296
3.89837	9.99434
3.89544	10.1404
3.89252	10.1717
3.8896	10.1475
3.88668	10.1481
3.88377	10.0794
3.88086	9.90645
3.87796	9.77339
3.87506	9.70874
3.87217	9.61377
3.86928	9.5726
3.86639	9.54022
3.86351	9.4483
3.86064	9.35657
3.85776	9.29283
3.8549	9.35204
3.85203	9.47492
3.84917	9.57586
3.84631	9.68063
3.84346	9.79395
3.84062	10.1314
3.83777	10.4982
3.83494	10.8416
3.8321	11.4545
3.82927	12.3568
3.82644	13.3758
3.82362	14.6966
3.82081	16.3308
3.81799	18.0615
3.81518	19.9029
3.81238	22.0033
3.80958	24.2589
3.80678	26.6735
3.80399	29.1281
3.8012	31.371
3.79841	33.5595
3.79563	35.7011
3.79286	37.4547
3.79008	38.9972
3.78731	40.3383
3.78455	41.4065
3.78179	42.2808
3.77903	43.0382
3.77628	43.6887
3.77353	44.2163
3.77079	44.7106
3.76805	45.1606
3.76531	45.5136
3.76258	45.9482
3.75985	46.3395
3.75713	46.5877
3.7544	46.694
3.75169	46.8609
3.74898	47.1768
3.74627	47.5851
3.74356	47.8786
3.74086	48.0747
3.73816	48.3408
3.73547	48.7107
3.73278	49.0414
3.7301	49.3179
3.72741	49.6235
3.72474	49.9534
3.72206	50.1723
3.71939	50.4507
3.71673	50.7488
3.71406	50.9774
3.71141	51.1986
3.70875	51.4207
3.7061	51.6118
3.70345	51.8714
3.70081	52.0444
3.69817	52.2403
3.69553	52.5163
3.6929	52.6785
3.69027	52.7945
3.68765	52.9045
3.68503	52.937
3.68241	53.0086
3.6798	53.0652
3.67719	53.0595
3.67458	53.097
3.67198	53.2013
3.66938	53.1994
3.66678	53.1821
3.66419	53.1567
3.66161	53.1882
3.65902	53.1621
3.65644	53.0466
3.65387	53.0327
3.65129	53.0034
3.64872	52.7872
3.64616	52.6797
3.64359	52.6248
3.64103	52.447
3.63848	52.2487
3.63593	52.092
3.63338	51.7865
3.63084	51.5655
3.6283	51.3852
3.62576	51.1886
3.62322	50.9553
3.62069	50.7135
3.61817	50.4666
3.61564	50.3378
3.61312	50.3954
3.61061	50.4218
3.6081	50.2427
3.60559	49.9683
3.60308	49.581
3.60058	48.9992
3.59808	48.2003
3.59558	47.2697
3.59309	46.3124
3.59061	45.404
3.58812	44.4837
3.58564	43.877
3.58316	43.4468
3.58069	42.9716
3.57822	42.3213
3.57575	41.5073
3.57328	40.706
3.57082	39.9886
3.56836	39.1811
3.56591	38.2902
3.56346	37.2212
3.56101	35.8694
3.55857	34.4031
3.55613	32.8422
3.55369	31.1124
3.55126	29.1338
3.54883	27.0135
3.5464	24.7331
3.54397	22.4759
3.54155	20.2894
3.53914	18.1861
3.53672	16.2603
3.53431	14.5737
3.5319	12.996
3.5295	11.6055
3.5271	10.7172
3.5247	10.2909
3.52231	10.2147
3.51991	10.4538
3.51753	10.7911
3.51514	11.1964
3.51276	11.5727
3.51038	11.7692
3.50801	11.6855
3.50563	11.3976
3.50327	10.9988
3.5009	10.3824
3.49854	9.54977
3.49618	8.58727
3.49382	7.5838
3.49147	6.78466
3.48912	6.12512
3.48677	5.64054
3.48443	5.23112
3.48209	4.92408
3.47975	4.76148
3.47742	4.60399
3.47509	4.36196
3.47276	4.2244
3.47044	4.20259
3.46812	4.3518
3.4658	4.58129
