Name: Gray Limestone (Birdseye Limestone)
Type: Rock
Class: Sedimentary
Subclass:  Limestone 
Particle Size: Solid surface
Sample No.: Ward70.txt
Owner: JPL
Wavelength range:  IR 
Origin: Ward's Collection of American Rocks.  Sample locality - Chaumont, Jefferson County, New York.
Collected by:  Ward's Natural Science
Description: A dark gray, compact limestone with conchoidal fractur
containing small round and irregular spots of crystalline calcite.
Geologic age - Ordovician.



Measurement: Hemispherical reflectance
First Column: X
Second Column: Y
X Units: Wavelength (micrometers)
Y Units: Reflectance (percent)
First X Value: 15.3871
Last X Value: 1.9998
Number of X Values: 2257
Additional information: None

15.3871   4.05366
15.3416   4.13515
15.2964   4.21183
15.2514   4.37364
15.2066   4.67452
15.1622   4.54528
15.1180   4.77284
15.0740   5.20705
15.0303   4.98498
14.9869   5.02971
14.9437   5.45085
14.9008   5.41667
14.8581   5.53796
14.8156   5.65183
14.7734   5.54105
14.7314   5.45444
14.6897   5.35869
14.6482   5.44694
14.6069   5.27800
14.5659   5.02160
14.5251   5.13995
14.4845   5.07740
14.4442   4.78869
14.4041   4.66735
14.3642   4.64088
14.3245   4.53580
14.2850   4.43181
14.2458   4.49356
14.2068   4.51798
14.1679   4.64670
14.1293   4.61720
14.0909   4.80206
14.0528   5.24702
14.0148   4.17524
13.9770   2.75194
13.9394   2.79011
13.9021   2.99244
13.8649   3.03746
13.8279   3.29209
13.7911   3.54071
13.7546   3.78530
13.7182   3.90161
13.6820   3.93998
13.6460   3.92308
13.6101   3.97120
13.5745   4.22741
13.5391   4.40013
13.5038   4.44330
13.4687   4.47180
13.4339   4.44933
13.3991   4.58876
13.3646   4.77618
13.3302   4.75222
13.2961   4.81348
13.2621   4.94117
13.2282   4.82576
13.1946   4.87185
13.1611   4.99781
13.1278   4.98524
13.0946   4.89877
13.0616   4.78058
13.0288   4.74393
12.9962   4.67932
12.9637   4.63194
12.9313   4.79427
12.8992   5.05839
12.8672   4.99491
12.8353   4.97623
12.8036   5.00029
12.7721   4.93432
12.7407   4.71492
12.7095   4.54175
12.6784   4.71873
12.6475   4.71455
12.6167   4.94610
12.5861   5.13749
12.5556   4.99762
12.5253   4.87766
12.4951   4.95447
12.4651   4.99096
12.4352   4.95324
12.4054   4.97423
12.3758   4.98427
12.3463   5.06534
12.3170   4.99712
12.2878   4.91339
12.2588   4.98253
12.2299   5.06121
12.2011   5.16307
12.1725   5.21824
12.1439   5.27540
12.1156   5.24237
12.0873   5.25878
12.0592   5.27317
12.0312   5.23496
12.0034   5.29487
11.9757   5.41033
11.9481   5.35728
11.9206   5.32827
11.8933   5.43184
11.8661   5.44986
11.8390   5.48269
11.8120   5.32945
11.7852   5.12182
11.7584   5.25384
11.7318   5.59091
11.7053   5.75268
11.6790   5.83494
11.6527   6.14330
11.6266   6.46544
11.6006   6.75094
11.5747   7.09567
11.5489   7.60253
11.5233   8.36926
11.4977   9.69327
11.4723  11.42440
11.4469  13.10600
11.4217  14.63810
11.3966  16.35420
11.3716  17.81920
11.3468  18.73540
11.3220  19.42130
11.2973  20.00120
11.2728  19.56680
11.2483  17.16990
11.2240  14.32140
11.1997  12.79060
11.1756  11.97340
11.1515  11.24040
11.1276  10.46960
11.1038   9.73418
11.0801   9.04107
11.0564   8.55656
11.0329   8.34960
11.0095   8.21285
10.9862   7.94436
10.9629   7.70369
10.9398   7.56006
10.9168   7.57764
10.8938   7.49408
10.8710   7.36360
10.8483   7.24766
10.8256   7.15693
10.8031   6.99392
10.7806   6.91175
10.7582   6.93824
10.7360   6.81620
10.7138   6.58482
10.6917   6.52464
10.6697   6.45217
10.6478   6.43472
10.6260   6.55096
10.6042   6.66754
10.5826   6.61536
10.5610   6.51069
10.5396   6.39976
10.5182   6.25539
10.4969   6.35869
10.4757   6.60950
10.4546   6.57861
10.4335   6.52570
10.4126   6.48882
10.3917   6.33787
10.3709   6.32773
10.3502   6.39592
10.3296   6.36882
10.3091   6.24355
10.2886   6.27926
10.2683   6.17729
10.2480   6.06129
10.2277   6.02380
10.2076   6.01867
10.1876   5.98133
10.1676   5.85380
10.1477   5.87093
10.1279   5.99106
10.1081   5.85491
10.0885   5.79591
10.0689   5.88255
10.0494   5.72930
10.0299   5.71163
10.0106   5.82288
 9.9913   5.90981
 9.9720   5.97167
 9.9529   6.02691
 9.9338   5.95137
 9.9148   5.74967
 9.8959   5.73210
 9.8771   5.76494
 9.8583   5.75842
 9.8396   5.88230
 9.8210   6.02616
 9.8024   6.02017
 9.7839   5.91697
 9.7655   5.88740
 9.7471   5.99535
 9.7288   6.17576
 9.7106   6.22925
 9.6925   6.37741
 9.6744   6.34038
 9.6564   6.26355
 9.6384   6.19917
 9.6205   6.31429
 9.6027   6.42703
 9.5850   6.37240
 9.5673   6.31984
 9.5497   6.32684
 9.5321   6.46397
 9.5146   6.58490
 9.4972   6.56781
 9.4798   6.66225
 9.4625   6.79366
 9.4453   6.69736
 9.4281   6.71881
 9.4110   6.84002
 9.3940   6.89268
 9.3770   7.00997
 9.3600   6.94694
 9.3432   6.96944
 9.3264   7.09481
 9.3096   7.13648
 9.2930   7.25032
 9.2763   7.18670
 9.2598   7.15133
 9.2432   7.10274
 9.2268   7.13232
 9.2104   7.20388
 9.1941   7.30902
 9.1778   7.47777
 9.1616   7.66078
 9.1454   7.68252
 9.1293   7.65858
 9.1133   7.80764
 9.0973   7.83944
 9.0814   7.79914
 9.0655   7.92479
 9.0497   8.10933
 9.0339   8.16947
 9.0182   8.03446
 9.0025   8.27768
 8.9870   8.52599
 8.9714   8.66927
 8.9559   8.84505
 8.9405   9.05224
 8.9251   9.23313
 8.9097   9.49118
 8.8945   9.64717
 8.8792   9.59066
 8.8641   9.63313
 8.8489   9.81425
 8.8338   9.99051
 8.8188   9.93679
 8.8039   9.94574
 8.7889  10.10040
 8.7741  10.23140
 8.7592  10.44030
 8.7445  10.48440
 8.7297  10.44170
 8.7151  10.57400
 8.7005  10.65680
 8.6859  10.57250
 8.6714  10.44960
 8.6569  10.30090
 8.6425  10.21220
 8.6281  10.06210
 8.6137   9.80937
 8.5994   9.62960
 8.5852   9.50752
 8.5710   9.62007
 8.5569   9.76949
 8.5428   9.97730
 8.5287   9.99055
 8.5147   9.72864
 8.5008   9.50805
 8.4869   9.43027
 8.4730   9.27646
 8.4592   9.25171
 8.4454   9.27494
 8.4316   9.27785
 8.4180   9.22898
 8.4043   9.05483
 8.3907   8.97297
 8.3772   9.06731
 8.3637   9.09120
 8.3502   9.07937
 8.3368   9.23901
 8.3234   9.36760
 8.3100   9.36932
 8.2967   9.29869
 8.2835   9.17934
 8.2703   9.14859
 8.2571   9.19740
 8.2440   9.21191
 8.2309   9.15713
 8.2179   9.11891
 8.2049   9.06674
 8.1919   8.91355
 8.1790   8.87535
 8.1661   8.85067
 8.1532   8.79013
 8.1404   8.76960
 8.1277   8.83598
 8.1150   8.79292
 8.1023   8.77513
 8.0897   8.72267
 8.0770   8.55822
 8.0645   8.50498
 8.0520   8.67975
 8.0395   8.77850
 8.0270   8.81465
 8.0146   8.82440
 8.0023   8.95265
 7.9899   8.95436
 7.9776   8.90907
 7.9654   8.94023
 7.9532   8.96604
 7.9410   8.88202
 7.9288   8.79824
 7.9167   8.79912
 7.9047   8.86154
 7.8926   8.84937
 7.8807   8.89548
 7.8687   9.05036
 7.8568   9.06571
 7.8449   9.09056
 7.8330   9.13460
 7.8212   9.07901
 7.8094   9.04382
 7.7977   8.98524
 7.7860   8.97547
 7.7743   9.01422
 7.7627   8.98238
 7.7511   9.02008
 7.7395   9.06696
 7.7280   9.22890
 7.7165   9.22892
 7.7050   9.15810
 7.6936   9.16719
 7.6822   9.23096
 7.6708   9.27463
 7.6595   9.19853
 7.6482   9.18260
 7.6369   9.19928
 7.6257   9.15391
 7.6145   9.09628
 7.6033   9.17977
 7.5922   9.21646
 7.5811   9.24785
 7.5700   9.27197
 7.5590   9.43305
 7.5480   9.52904
 7.5370   9.54020
 7.5261   9.55093
 7.5152   9.58637
 7.5043   9.66514
 7.4935   9.76599
 7.4826   9.84308
 7.4718   9.87662
 7.4611   9.98883
 7.4504  10.09030
 7.4397  10.21320
 7.4290  10.26180
 7.4184  10.27120
 7.4078  10.48520
 7.3972  10.65030
 7.3867  10.82990
 7.3762  10.93850
 7.3657  10.99780
 7.3553  11.04950
 7.3449  11.21990
 7.3345  11.37220
 7.3241  11.47250
 7.3138  11.63910
 7.3035  11.78800
 7.2932  11.83590
 7.2830  12.11080
 7.2727  12.44990
 7.2626  12.73940
 7.2524  13.01510
 7.2423  13.22930
 7.2322  13.51920
 7.2221  14.10440
 7.2120  14.62900
 7.2020  15.01240
 7.1921  15.55380
 7.1821  16.32360
 7.1722  17.06040
 7.1623  17.72170
 7.1524  18.34100
 7.1425  18.79710
 7.1327  19.35680
 7.1229  20.28230
 7.1131  21.46680
 7.1034  22.65090
 7.0937  23.57020
 7.0840  24.29780
 7.0743  24.81390
 7.0647  25.10590
 7.0551  25.35810
 7.0455  25.56990
 7.0359  25.69370
 7.0264  25.84960
 7.0169  26.02770
 7.0074  26.22490
 6.9979  26.36980
 6.9885  26.45150
 6.9791  26.59900
 6.9697  26.67990
 6.9604  26.69800
 6.9510  26.68510
 6.9417  26.75750
 6.9324  26.84300
 6.9232  27.08580
 6.9140  27.34220
 6.9047  27.45520
 6.8956  27.61650
 6.8864  27.90000
 6.8773  28.13560
 6.8682  28.40510
 6.8591  28.54520
 6.8500  28.67150
 6.8410  28.83160
 6.8320  29.12890
 6.8230  29.39740
 6.8140  29.56630
 6.8051  29.76870
 6.7962  30.04040
 6.7873  30.26980
 6.7784  30.49360
 6.7695  30.66530
 6.7607  30.83620
 6.7519  31.09760
 6.7431  31.41990
 6.7344  31.76510
 6.7256  32.14530
 6.7169  32.53480
 6.7082  32.79410
 6.6996  32.97380
 6.6909  33.35890
 6.6823  33.82580
 6.6737  34.12360
 6.6651  34.35740
 6.6566  34.66820
 6.6480  35.03700
 6.6395  35.36910
 6.6310  35.63300
 6.6226  35.98910
 6.6141  36.40100
 6.6057  36.73260
 6.5973  37.00550
 6.5889  37.30360
 6.5805  37.55040
 6.5722  37.70810
 6.5639  37.77530
 6.5556  37.86360
 6.5473  37.85110
 6.5390  37.75940
 6.5308  37.64080
 6.5226  37.51820
 6.5144  37.26770
 6.5062  37.01900
 6.4981  36.81080
 6.4900  36.51880
 6.4818  36.03410
 6.4737  35.35630
 6.4657  34.42890
 6.4576  33.25860
 6.4496  31.76670
 6.4416  29.89350
 6.4336  27.81020
 6.4256  25.91880
 6.4177  24.13890
 6.4097  22.35470
 6.4018  20.79010
 6.3939  19.47580
 6.3860  18.18410
 6.3782  16.97230
 6.3704  15.79700
 6.3625  14.67840
 6.3547  13.47560
 6.3470  12.17700
 6.3392  10.83430
 6.3315   9.66057
 6.3237   8.80773
 6.3160   8.18260
 6.3083   7.50337
 6.3007   6.84590
 6.2930   6.50832
 6.2854   6.30515
 6.2778   6.08269
 6.2702   5.89037
 6.2626   5.59736
 6.2551   5.23389
 6.2476   4.79751
 6.2400   4.50860
 6.2325   4.31919
 6.2251   4.08744
 6.2176   3.83028
 6.2101   3.65080
 6.2027   3.63371
 6.1953   3.50041
 6.1879   3.33309
 6.1805   3.24307
 6.1732   3.17443
 6.1658   3.20615
 6.1585   3.11373
 6.1512   3.00811
 6.1439   2.82746
 6.1367   2.60546
 6.1294   2.51000
 6.1222   2.57809
 6.1149   2.66832
 6.1077   2.66155
 6.1006   2.60089
 6.0934   2.56911
 6.0862   2.57334
 6.0791   2.57549
 6.0720   2.47796
 6.0649   2.40360
 6.0578   2.35232
 6.0507   2.31875
 6.0437   2.36355
 6.0366   2.37433
 6.0296   2.41814
 6.0226   2.46103
 6.0156   2.43478
 6.0087   2.40537
 6.0017   2.34029
 5.9948   2.33668
 5.9878   2.38519
 5.9809   2.35932
 5.9740   2.35163
 5.9672   2.31919
 5.9603   2.30190
 5.9535   2.31976
 5.9466   2.26644
 5.9398   2.28237
 5.9330   2.29373
 5.9262   2.30423
 5.9195   2.20968
 5.9127   2.14475
 5.9060   2.17357
 5.8993   2.27197
 5.8926   2.24635
 5.8859   2.18057
 5.8792   2.16827
 5.8726   2.18026
 5.8659   2.23295
 5.8593   2.23190
 5.8527   2.19935
 5.8461   2.14899
 5.8395   2.13053
 5.8329   2.09320
 5.8264   2.14462
 5.8198   2.13865
 5.8133   2.04947
 5.8068   2.08242
 5.8003   2.10706
 5.7938   2.08478
 5.7874   2.07175
 5.7809   2.10848
 5.7745   2.07029
 5.7680   2.01978
 5.7616   2.06828
 5.7552   2.02521
 5.7489   2.00112
 5.7425   2.00185
 5.7361   1.93471
 5.7298   1.95534
 5.7235   2.09462
 5.7172   2.17993
 5.7109   2.11944
 5.7046   2.04662
 5.6983   2.04949
 5.6921   2.13338
 5.6858   2.16614
 5.6796   2.14109
 5.6734   2.21253
 5.6672   2.25790
 5.6610   2.27731
 5.6548   2.34673
 5.6487   2.36384
 5.6425   2.36259
 5.6364   2.35824
 5.6303   2.32100
 5.6242   2.31253
 5.6181   2.32039
 5.6120   2.17290
 5.6059   2.03934
 5.5999   2.05259
 5.5938   2.04911
 5.5878   2.00187
 5.5818   1.87133
 5.5758   1.66684
 5.5698   1.67477
 5.5638   1.75543
 5.5578   1.71524
 5.5519   1.69683
 5.5460   1.80350
 5.5400   1.94412
 5.5341   2.04265
 5.5282   2.16530
 5.5223   2.30575
 5.5164   2.37972
 5.5106   2.44528
 5.5047   2.49515
 5.4989   2.64251
 5.4931   2.76348
 5.4873   2.71054
 5.4815   2.71024
 5.4757   2.82749
 5.4699   2.96759
 5.4641   3.13159
 5.4584   3.18445
 5.4527   3.17634
 5.4469   3.25125
 5.4412   3.41835
 5.4355   3.52778
 5.4298   3.59625
 5.4241   3.66735
 5.4185   3.71211
 5.4128   3.80683
 5.4072   3.88877
 5.4015   3.90049
 5.3959   3.92327
 5.3903   4.00138
 5.3847   4.02159
 5.3791   3.98559
 5.3735   4.00054
 5.3680   4.05867
 5.3624   4.16509
 5.3569   4.26443
 5.3514   4.22537
 5.3458   4.29144
 5.3403   4.36825
 5.3348   4.42522
 5.3294   4.50136
 5.3239   4.57272
 5.3184   4.57992
 5.3130   4.64101
 5.3075   4.71575
 5.3021   4.63927
 5.2967   4.61780
 5.2913   4.69840
 5.2859   4.83090
 5.2805   4.90811
 5.2751   4.93224
 5.2698   4.96579
 5.2644   5.04925
 5.2591   5.19459
 5.2538   5.21045
 5.2485   5.15335
 5.2431   5.22149
 5.2378   5.35526
 5.2326   5.44739
 5.2273   5.45691
 5.2220   5.44964
 5.2168   5.44693
 5.2115   5.54371
 5.2063   5.63368
 5.2011   5.63831
 5.1959   5.69381
 5.1907   5.79221
 5.1855   5.80249
 5.1803   5.85912
 5.1751   5.87820
 5.1700   5.85634
 5.1648   5.89877
 5.1597   5.86400
 5.1545   5.91901
 5.1494   5.99574
 5.1443   6.00259
 5.1392   5.96055
 5.1341   5.96026
 5.1291   5.95588
 5.1240   5.93066
 5.1189   5.92266
 5.1139   5.72824
 5.1088   5.37143
 5.1038   5.06349
 5.0988   5.00933
 5.0938   5.24403
 5.0888   5.56329
 5.0838   5.83611
 5.0788   6.00938
 5.0738   6.01768
 5.0689   6.04996
 5.0639   6.11512
 5.0590   6.16769
 5.0541   6.15314
 5.0491   6.07983
 5.0442   6.15199
 5.0393   6.22209
 5.0344   6.29356
 5.0296   6.28793
 5.0247   6.27700
 5.0198   6.30106
 5.0150   6.35660
 5.0101   6.39571
 5.0053   6.31715
 5.0004   6.29378
 4.9956   6.37362
 4.9908   6.38366
 4.9860   6.37772
 4.9812   6.39857
 4.9765   6.48435
 4.9717   6.52536
 4.9669   6.54296
 4.9622   6.40512
 4.9574   6.31370
 4.9527   6.35840
 4.9480   6.51310
 4.9432   6.68559
 4.9385   6.67736
 4.9338   6.58090
 4.9291   6.49328
 4.9245   6.48152
 4.9198   6.53651
 4.9151   6.62232
 4.9105   6.71576
 4.9058   6.71081
 4.9012   6.73498
 4.8966   6.80505
 4.8919   6.88539
 4.8873   6.96744
 4.8827   6.99005
 4.8781   6.94798
 4.8736   6.99713
 4.8690   7.04829
 4.8644   7.00484
 4.8599   6.98166
 4.8553   6.97422
 4.8508   6.96918
 4.8462   7.00181
 4.8417   7.00430
 4.8372   7.09415
 4.8327   7.17754
 4.8282   7.20902
 4.8237   7.16439
 4.8192   7.10464
 4.8147   7.14292
 4.8103   7.12691
 4.8058   7.05674
 4.8014   7.08121
 4.7969   7.15155
 4.7925   7.30715
 4.7881   7.30269
 4.7836   7.14055
 4.7792   7.05006
 4.7748   6.99104
 4.7704   7.03641
 4.7660   7.04306
 4.7617   6.96075
 4.7573   6.87305
 4.7530   6.75421
 4.7486   6.66651
 4.7443   6.67134
 4.7399   6.60848
 4.7356   6.47052
 4.7313   6.31561
 4.7270   6.15818
 4.7226   6.02477
 4.7184   5.85402
 4.7141   5.63977
 4.7098   5.32663
 4.7055   5.10670
 4.7012   5.01921
 4.6970   4.95213
 4.6927   4.86533
 4.6885   4.75781
 4.6842   4.67956
 4.6800   4.72536
 4.6758   4.69841
 4.6716   4.57066
 4.6674   4.58862
 4.6632   4.65242
 4.6590   4.62987
 4.6548   4.71970
 4.6506   4.80014
 4.6465   4.82614
 4.6423   4.91203
 4.6382   5.08508
 4.6340   5.25795
 4.6299   5.34535
 4.6258   5.52874
 4.6216   5.62777
 4.6175   5.67509
 4.6134   5.74407
 4.6093   5.84892
 4.6052   5.91933
 4.6011   5.98374
 4.5971   6.07695
 4.5930   6.05509
 4.5889   6.05833
 4.5849   6.16767
 4.5808   6.17774
 4.5768   6.21626
 4.5727   6.23815
 4.5687   6.19740
 4.5647   6.15331
 4.5607   6.14420
 4.5567   6.26483
 4.5526   6.33448
 4.5487   6.25640
 4.5447   6.17328
 4.5407   6.18607
 4.5367   6.36680
 4.5328   6.43414
 4.5288   6.37510
 4.5248   6.42335
 4.5209   6.53602
 4.5170   6.52766
 4.5130   6.53861
 4.5091   6.56549
 4.5052   6.55579
 4.5013   6.51003
 4.4974   6.50669
 4.4935   6.57686
 4.4896   6.67581
 4.4857   6.75212
 4.4818   6.88780
 4.4779   7.00111
 4.4741   6.97105
 4.4702   7.02071
 4.4664   7.15477
 4.4625   7.15471
 4.4587   7.19867
 4.4549   7.27267
 4.4510   7.31801
 4.4472   7.32468
 4.4434   7.34736
 4.4396   7.45757
 4.4358   7.57326
 4.4320   7.65417
 4.4282   7.76550
 4.4245   7.76542
 4.4207   7.84062
 4.4169   7.96363
 4.4132   8.05826
 4.4094   8.14955
 4.4057   8.23706
 4.4019   8.32977
 4.3982   8.40264
 4.3945   8.35064
 4.3907   8.41090
 4.3870   8.52859
 4.3833   8.49641
 4.3796   8.44535
 4.3759   8.42648
 4.3722   8.43124
 4.3685   8.48692
 4.3649   8.47261
 4.3612   8.40762
 4.3575   8.32737
 4.3539   8.24663
 4.3502   8.26996
 4.3466   8.32787
 4.3429   8.30468
 4.3393   8.25889
 4.3357   8.28079
 4.3320   8.29474
 4.3284   8.20672
 4.3248   8.08860
 4.3212   7.97307
 4.3176   8.03866
 4.3140   8.17378
 4.3105   8.27427
 4.3069   8.29868
 4.3033   8.25949
 4.2997   8.25803
 4.2962   8.36067
 4.2926   8.37202
 4.2890   8.36704
 4.2855   8.39869
 4.2820   8.44245
 4.2784   8.31855
 4.2749   8.17750
 4.2714   8.23073
 4.2679   8.31541
 4.2644   8.31443
 4.2609   8.40025
 4.2574   8.52822
 4.2539   8.44054
 4.2504   8.23161
 4.2469   8.24105
 4.2434   8.38454
 4.2400   8.41948
 4.2365   8.28196
 4.2330   8.21567
 4.2296   8.32773
 4.2261   8.41865
 4.2227   8.43144
 4.2193   8.46490
 4.2158   8.43935
 4.2124   8.41745
 4.2090   8.42944
 4.2056   8.43855
 4.2022   8.46141
 4.1988   8.36179
 4.1954   8.26654
 4.1920   8.34231
 4.1886   8.34014
 4.1852   8.24821
 4.1818   8.17366
 4.1785   8.13896
 4.1751   8.05849
 4.1717   7.99805
 4.1684   7.93818
 4.1650   7.89462
 4.1617   7.93260
 4.1584   7.91054
 4.1550   7.91134
 4.1517   7.82557
 4.1484   7.78538
 4.1451   7.74086
 4.1418   7.66875
 4.1384   7.56186
 4.1351   7.46497
 4.1319   7.42153
 4.1286   7.22017
 4.1253   7.05152
 4.1220   7.02117
 4.1187   6.95549
 4.1155   6.86275
 4.1122   6.86809
 4.1089   6.78397
 4.1057   6.66787
 4.1024   6.59155
 4.0992   6.46494
 4.0959   6.33597
 4.0927   6.26225
 4.0895   6.22300
 4.0863   6.23170
 4.0830   6.24866
 4.0798   6.11745
 4.0766   5.98798
 4.0734   5.99737
 4.0702   5.90929
 4.0670   5.70604
 4.0639   5.50060
 4.0607   5.38892
 4.0575   5.39726
 4.0543   5.27137
 4.0511   5.11057
 4.0480   4.99769
 4.0448   4.88348
 4.0417   4.70710
 4.0385   4.58445
 4.0354   4.48791
 4.0323   4.29759
 4.0291   4.20642
 4.0260   4.03335
 4.0229   3.93887
 4.0197   3.90144
 4.0166   3.71565
 4.0135   3.62518
 4.0104   3.52002
 4.0073   3.53418
 4.0042   3.55404
 4.0011   3.51136
 3.9981   3.47169
 3.9950   3.34168
 3.9919   3.23168
 3.9888   3.05250
 3.9857   2.90637
 3.9827   2.93013
 3.9796   3.11640
 3.9766   3.21115
 3.9735   3.21617
 3.9705   3.20601
 3.9675   3.19290
 3.9644   3.13645
 3.9614   3.01909
 3.9584   3.13026
 3.9554   3.21116
 3.9523   3.12808
 3.9493   3.14622
 3.9463   3.19514
 3.9433   3.14426
 3.9403   3.39328
 3.9373   3.63546
 3.9343   3.62999
 3.9314   3.55175
 3.9284   3.57190
 3.9254   3.57451
 3.9224   3.53605
 3.9195   3.54294
 3.9165   3.61582
 3.9136   3.65684
 3.9106   3.61295
 3.9077   3.63299
 3.9047   3.69998
 3.9018   3.69047
 3.8988   3.64516
 3.8959   3.77416
 3.8930   3.73044
 3.8901   3.63338
 3.8872   3.66266
 3.8842   3.74107
 3.8813   3.79643
 3.8784   3.73228
 3.8755   3.58781
 3.8726   3.62304
 3.8697   3.84232
 3.8669   3.78765
 3.8640   3.65250
 3.8611   3.71880
 3.8582   3.85386
 3.8554   3.85552
 3.8525   3.88310
 3.8496   3.95918
 3.8468   3.93727
 3.8439   3.91803
