Name: Vermiculite (Mg,Fe^2+,Al)_3(Al,Si)_4O_10(OH)_2.4H_2O
Type: Mineral
Class: Silicates
Subclass: Phyllosilicates
Particle Size: 0-45um
Sample No.: PS-18A
Owner: JPL
Wavelength range: VNIR-SWIR
Origin: USA, Texas, Llano County, Llano.
Collected by :  Clay Mineral Society
Description: 





Measurement: Hemispherical reflectance
First Column: X
Second Column: Y
X Units: Wavelength (micrometers)
Y Units: Reflectance (percent)
First X Value: 2.500
Last X Value: 0.400
Number of X Values: 2101
Additional information: ps18aa.txt

2.500  52.259601
2.499  52.416282
2.498  52.438376
2.497  52.498951
2.496  52.452074
2.495  52.594289
2.494  52.844942
2.493  52.820875
2.492  53.205243
2.491  52.950141
2.490  53.297964
2.489  53.187045
2.488  53.506846
2.487  53.684375
2.486  53.788623
2.485  53.735118
2.484  53.958220
2.483  54.024120
2.482  54.180766
2.481  54.266441
2.480  54.388862
2.479  54.553871
2.478  54.689579
2.477  54.625074
2.476  54.849634
2.475  54.940577
2.474  55.156006
2.473  55.120350
2.472  55.352555
2.471  55.310120
2.470  55.525610
2.469  55.499435
2.468  55.802596
2.467  55.804148
2.466  56.156415
2.465  56.073593
2.464  56.152296
2.463  56.306044
2.462  56.376156
2.461  56.436878
2.460  56.591044
2.459  56.704660
2.458  56.734308
2.457  56.725416
2.456  56.893496
2.455  57.001138
2.454  56.981997
2.453  57.097542
2.452  57.187679
2.451  57.183019
2.450  57.158035
2.449  57.184814
2.448  57.218951
2.447  57.258624
2.446  57.432371
2.445  57.361970
2.444  57.403275
2.443  57.400083
2.442  57.513641
2.441  57.515500
2.440  57.719395
2.439  57.592700
2.438  57.668764
2.437  57.548611
2.436  57.807553
2.435  57.808511
2.434  57.828216
2.433  57.787304
2.432  58.073725
2.431  57.988742
2.430  58.107244
2.429  58.161848
2.428  58.285950
2.427  58.318969
2.426  58.462276
2.425  58.375313
2.424  58.590601
2.423  58.587747
2.422  58.728929
2.421  58.842297
2.420  58.926699
2.419  59.077692
2.418  59.227734
2.417  59.191788
2.416  59.337466
2.415  59.338856
2.414  59.434537
2.413  59.587813
2.412  59.676443
2.411  59.692448
2.410  59.749278
2.409  59.772330
2.408  59.783184
2.407  59.908389
2.406  59.959134
2.405  59.938696
2.404  59.971663
2.403  60.024914
2.402  60.087186
2.401  60.054538
2.400  60.080269
2.399  60.080355
2.398  60.178019
2.397  60.162403
2.396  60.255213
2.395  60.318170
2.394  60.385193
2.393  60.343892
2.392  60.477186
2.391  60.512058
2.390  60.579593
2.389  60.646981
2.388  60.701894
2.387  60.750599
2.386  60.888878
2.385  60.925460
2.384  60.935733
2.383  61.077027
2.382  61.148028
2.381  61.221227
2.380  61.364471
2.379  61.476447
2.378  61.519891
2.377  61.627849
2.376  61.820327
2.375  61.916706
2.374  62.050084
2.373  62.149774
2.372  62.240602
2.371  62.391352
2.370  62.556874
2.369  62.688663
2.368  62.826027
2.367  62.922126
2.366  63.020503
2.365  63.186287
2.364  63.256568
2.363  63.313636
2.362  63.415683
2.361  63.483404
2.360  63.543594
2.359  63.614023
2.358  63.635567
2.357  63.627918
2.356  63.561452
2.355  63.461138
2.354  63.368768
2.353  63.311498
2.352  63.198443
2.351  62.996489
2.350  62.816970
2.349  62.641600
2.348  62.437705
2.347  62.235039
2.346  61.972941
2.345  61.675369
2.344  61.398462
2.343  61.087421
2.342  60.801583
2.341  60.535439
2.340  60.190579
2.339  59.916013
2.338  59.675014
2.337  59.382850
2.336  59.165704
2.335  58.935575
2.334  58.709408
2.333  58.514270
2.332  58.293303
2.331  58.142620
2.330  58.024326
2.329  57.872620
2.328  57.712361
2.327  57.636265
2.326  57.598030
2.325  57.585545
2.324  57.528910
2.323  57.520594
2.322  57.528630
2.321  57.562669
2.320  57.529656
2.319  57.580374
2.318  57.651323
2.317  57.775447
2.316  57.860759
2.315  57.993226
2.314  58.069010
2.313  58.268183
2.312  58.474120
2.311  58.660990
2.310  58.879400
2.309  59.191633
2.308  59.361440
2.307  59.588537
2.306  59.844992
2.305  60.118117
2.304  60.361667
2.303  60.655671
2.302  60.818498
2.301  61.098534
2.300  61.287329
2.299  61.564275
2.298  61.674108
2.297  61.943486
2.296  62.169069
2.295  62.310612
2.294  62.481275
2.293  62.634908
2.292  62.834838
2.291  62.984000
2.290  63.129658
2.289  63.325453
2.288  63.379633
2.287  63.512318
2.286  63.650027
2.285  63.846712
2.284  63.879145
2.283  64.080296
2.282  64.239094
2.281  64.351385
2.280  64.471989
2.279  64.573147
2.278  64.675150
2.277  64.812918
2.276  64.887480
2.275  64.966311
2.274  65.121023
2.273  65.269072
2.272  65.310176
2.271  65.436697
2.270  65.541222
2.269  65.588508
2.268  65.771787
2.267  65.881828
2.266  65.970767
2.265  66.230000
2.264  66.391048
2.263  66.638712
2.262  66.790955
2.261  66.914638
2.260  67.158926
2.259  67.345479
2.258  67.356793
2.257  67.546639
2.256  67.616016
2.255  67.718808
2.254  67.794427
2.253  67.894192
2.252  67.907358
2.251  67.941406
2.250  67.977880
2.249  68.033081
2.248  68.037947
2.247  68.011799
2.246  68.107984
2.245  68.229385
2.244  68.291472
2.243  68.433934
2.242  68.549717
2.241  68.617625
2.240  68.704351
2.239  68.862086
2.238  68.973467
2.237  69.222885
2.236  69.377665
2.235  69.554527
2.234  69.702027
2.233  69.914083
2.232  70.065224
2.231  70.211202
2.230  70.335451
2.229  70.591508
2.228  70.659289
2.227  70.915994
2.226  70.974496
2.225  71.082432
2.224  71.258660
2.223  71.425067
2.222  71.372555
2.221  71.536639
2.220  71.588547
2.219  71.682578
2.218  71.841149
2.217  71.879594
2.216  71.949856
2.215  71.984480
2.214  72.017030
2.213  72.124982
2.212  72.256293
2.211  72.175804
2.210  72.358126
2.209  72.370555
2.208  72.428985
2.207  72.500769
2.206  72.417160
2.205  72.599175
2.204  72.694414
2.203  72.742731
2.202  72.759958
2.201  72.813493
2.200  72.882471
2.199  72.928589
2.198  72.926811
2.197  72.943846
2.196  73.015068
2.195  73.038989
2.194  73.080294
2.193  73.132150
2.192  73.196720
2.191  73.172044
2.190  73.177623
2.189  73.271165
2.188  73.324349
2.187  73.304619
2.186  73.243724
2.185  73.319145
2.184  73.418811
2.183  73.387653
2.182  73.420464
2.181  73.500129
2.180  73.457233
2.179  73.508051
2.178  73.498670
2.177  73.585688
2.176  73.557039
2.175  73.579850
2.174  73.599913
2.173  73.624907
2.172  73.617645
2.171  73.604292
2.170  73.651721
2.169  73.675739
2.168  73.630887
2.167  73.731905
2.166  73.764176
2.165  73.784534
2.164  73.743005
2.163  73.875954
2.162  73.832600
2.161  73.771141
2.160  73.760701
2.159  73.793564
2.158  73.788569
2.157  73.764241
2.156  73.781802
2.155  73.814992
2.154  73.822242
2.153  73.797434
2.152  73.678899
2.151  73.715311
2.150  73.725127
2.149  73.658148
2.148  73.628842
2.147  73.546819
2.146  73.473053
2.145  73.485643
2.144  73.385213
2.143  73.360675
2.142  73.312824
2.141  73.253931
2.140  73.147480
2.139  73.083829
2.138  73.048317
2.137  73.019588
2.136  72.961450
2.135  72.852890
2.134  72.750795
2.133  72.656368
2.132  72.616330
2.131  72.633654
2.130  72.580601
2.129  72.526830
2.128  72.519298
2.127  72.501841
2.126  72.476804
2.125  72.517761
2.124  72.503573
2.123  72.394964
2.122  72.353707
2.121  72.431907
2.120  72.308893
2.119  72.250521
2.118  72.194078
2.117  72.153065
2.116  72.051619
2.115  71.936308
2.114  71.900013
2.113  71.863117
2.112  71.842226
2.111  71.811918
2.110  71.729662
2.109  71.675291
2.108  71.609495
2.107  71.571408
2.106  71.563054
2.105  71.548943
2.104  71.519769
2.103  71.458666
2.102  71.398578
2.101  71.362240
2.100  71.325357
2.099  71.362248
2.098  71.354115
2.097  71.390640
2.096  71.380784
2.095  71.333364
2.094  71.335390
2.093  71.363195
2.092  71.385810
2.091  71.404645
2.090  71.402742
2.089  71.461699
2.088  71.494974
2.087  71.522132
2.086  71.538767
2.085  71.572981
2.084  71.595382
2.083  71.680647
2.082  71.742451
2.081  71.774424
2.080  71.809349
2.079  71.835919
2.078  71.843254
2.077  71.878626
2.076  71.888032
2.075  71.893066
2.074  71.938059
2.073  71.992524
2.072  71.979181
2.071  71.922238
2.070  71.950929
2.069  71.973827
2.068  71.988055
2.067  71.924326
2.066  71.875786
2.065  71.940875
2.064  71.961901
2.063  71.896129
2.062  71.858061
2.061  71.838316
2.060  71.874627
2.059  71.821041
2.058  71.765717
2.057  71.721628
2.056  71.710641
2.055  71.656155
2.054  71.594381
2.053  71.596897
2.052  71.564212
2.051  71.505362
2.050  71.471289
2.049  71.418956
2.048  71.403713
2.047  71.321148
2.046  71.213988
2.045  71.233824
2.044  71.230251
2.043  71.151881
2.042  71.164355
2.041  71.149374
2.040  71.091331
2.039  70.984477
2.038  71.013448
2.037  70.959381
2.036  70.909278
2.035  70.869835
2.034  70.815616
2.033  70.724858
2.032  70.660123
2.031  70.636974
2.030  70.664545
2.029  70.602328
2.028  70.518591
2.027  70.526111
2.026  70.490403
2.025  70.385982
2.024  70.312382
2.023  70.269666
2.022  70.253674
2.021  70.181717
2.020  70.158681
2.019  70.122722
2.018  70.096513
2.017  70.016838
2.016  69.966254
2.015  69.888999
2.014  69.884536
2.013  69.796318
2.012  69.737191
2.011  69.670697
2.010  69.655613
2.009  69.587491
2.008  69.510057
2.007  69.420136
2.006  69.366469
2.005  69.290053
2.004  69.300072
2.003  69.194060
2.002  69.094587
2.001  69.033650
2.000  69.041377
1.999  68.874534
1.998  68.818578
1.997  68.720532
1.996  68.634918
1.995  68.617546
1.994  68.580032
1.993  68.422765
1.992  68.438108
1.991  68.344055
1.990  68.266813
1.989  68.147360
1.988  68.104239
1.987  68.024344
1.986  67.960024
1.985  67.887840
1.984  67.863784
1.983  67.746341
1.982  67.718843
1.981  67.662613
1.980  67.674136
1.979  67.541322
1.978  67.506742
1.977  67.480897
1.976  67.441059
1.975  67.353241
1.974  67.392688
1.973  67.346267
1.972  67.255794
1.971  67.188387
1.970  67.134654
1.969  67.091609
1.968  67.129548
1.967  67.116688
1.966  67.079116
1.965  66.953717
1.964  66.876448
1.963  66.873944
1.962  66.891110
1.961  66.859352
1.960  66.823020
1.959  66.742633
1.958  66.748339
1.957  66.638929
1.956  66.642650
1.955  66.485917
1.954  66.620789
1.953  66.540600
1.952  66.576030
1.951  66.370433
1.950  66.392665
1.949  66.365200
1.948  66.365076
1.947  66.274881
1.946  66.312404
1.945  66.115867
1.944  66.188961
1.943  66.084742
1.942  66.110581
1.941  66.035768
1.940  65.938166
1.939  65.873928
1.938  65.873142
1.937  65.830224
1.936  65.828646
1.935  65.680686
1.934  65.712865
1.933  65.620977
1.932  65.660337
1.931  65.440621
1.930  65.631853
1.929  65.520995
1.928  65.476186
1.927  65.513862
1.926  65.414468
1.925  65.382345
1.924  65.502906
1.923  65.373715
1.922  65.396238
1.921  65.357051
1.920  65.520563
1.919  65.500184
1.918  65.545916
1.917  65.534879
1.916  65.650917
1.915  65.661966
1.914  65.855532
1.913  65.964444
1.912  66.151980
1.911  66.279615
1.910  66.376022
1.909  66.633767
1.908  66.811331
1.907  66.966640
1.906  67.318567
1.905  67.524386
1.904  67.881526
1.903  68.217871
1.902  68.575431
1.901  68.866244
1.900  69.240934
1.899  69.507668
1.898  69.898010
1.897  70.209158
1.896  70.600201
1.895  70.867843
1.894  71.265826
1.893  71.483684
1.892  71.818643
1.891  72.062457
1.890  72.431181
1.889  72.801355
1.888  73.008781
1.887  73.295381
1.886  73.447265
1.885  73.675793
1.884  73.940316
1.883  74.094711
1.882  74.363033
1.881  74.532761
1.880  74.712952
1.879  74.831003
1.878  75.100705
1.877  75.262706
1.876  75.434049
1.875  75.585147
1.874  75.787803
1.873  75.906893
1.872  76.128603
1.871  76.211602
1.870  76.383100
1.869  76.446499
1.868  76.647942
1.867  76.754413
1.866  76.811736
1.865  76.855616
1.864  76.883100
1.863  76.975121
1.862  77.034164
1.861  77.134979
1.860  77.157336
1.859  77.212489
1.858  77.294980
1.857  77.265346
1.856  77.332755
1.855  77.361172
1.854  77.425509
1.853  77.396753
1.852  77.454512
1.851  77.526401
1.850  77.519150
1.849  77.525382
1.848  77.603096
1.847  77.664551
1.846  77.603847
1.845  77.649970
1.844  77.741820
1.843  77.664341
1.842  77.702327
1.841  77.777206
1.840  77.805538
1.839  77.827300
1.838  77.787485
1.837  77.796240
1.836  77.816962
1.835  77.816292
1.834  77.807050
1.833  77.905926
1.832  77.944940
1.831  77.871003
1.830  77.906732
1.829  77.874493
1.828  77.919215
1.827  77.918570
1.826  77.876218
1.825  77.924072
1.824  77.942235
1.823  77.902470
1.822  77.971211
1.821  77.965302
1.820  77.929258
1.819  77.925955
1.818  77.988460
1.817  78.002551
1.816  77.989178
1.815  77.935648
1.814  77.970732
1.813  77.972580
1.812  77.949221
1.811  77.955531
1.810  78.017501
1.809  78.034394
1.808  78.031146
1.807  78.033856
1.806  78.107726
1.805  78.125407
1.804  78.043645
1.803  78.049725
1.802  78.028133
1.801  78.075356
1.800  78.174591
1.799  78.218258
1.798  78.216523
1.797  78.134381
1.796  78.093936
1.795  78.102899
1.794  78.087123
1.793  78.105987
1.792  78.138873
1.791  78.119708
1.790  78.115009
1.789  78.104913
1.788  78.103871
1.787  78.142488
1.786  78.161500
1.785  78.102113
1.784  78.054721
1.783  78.125872
1.782  78.221490
1.781  78.202802
1.780  78.178988
1.779  78.132516
1.778  78.084632
1.777  78.115905
1.776  78.164717
1.775  78.214857
1.774  78.177685
1.773  78.181653
1.772  78.192604
1.771  78.160556
1.770  78.165384
1.769  78.190891
1.768  78.184838
1.767  78.154834
1.766  78.144799
1.765  78.149138
1.764  78.154671
1.763  78.256433
1.762  78.205244
1.761  78.193645
1.760  78.234346
1.759  78.274438
1.758  78.275860
1.757  78.321058
1.756  78.309353
1.755  78.320554
1.754  78.312669
1.753  78.308174
1.752  78.310876
1.751  78.341285
1.750  78.357778
1.749  78.375948
1.748  78.392961
1.747  78.348091
1.746  78.391944
1.745  78.417262
1.744  78.405306
1.743  78.418655
1.742  78.383880
1.741  78.334850
1.740  78.429450
1.739  78.503502
1.738  78.518584
1.737  78.512251
1.736  78.490129
1.735  78.484822
1.734  78.457962
1.733  78.514471
1.732  78.550357
1.731  78.539671
1.730  78.528435
1.729  78.628116
1.728  78.584932
1.727  78.618680
1.726  78.569919
1.725  78.626811
1.724  78.691670
1.723  78.660541
1.722  78.630282
1.721  78.633363
1.720  78.615476
1.719  78.639250
1.718  78.592285
1.717  78.615420
1.716  78.698546
1.715  78.680813
1.714  78.689289
1.713  78.724997
1.712  78.758733
1.711  78.777729
1.710  78.711494
1.709  78.742141
1.708  78.595711
1.707  78.762017
1.706  78.719562
1.705  78.769266
1.704  78.738952
1.703  78.667261
1.702  78.716512
1.701  78.706222
1.700  78.668050
1.699  78.692722
1.698  78.724872
1.697  78.768424
1.696  78.806229
1.695  78.749939
1.694  78.763288
1.693  78.764375
1.692  78.765558
1.691  78.779856
1.690  78.777307
1.689  78.810048
1.688  78.759017
1.687  78.864300
1.686  78.733662
1.685  78.807387
1.684  78.778745
1.683  78.835382
1.682  78.779662
1.681  78.845221
1.680  78.806455
1.679  78.835701
1.678  78.778270
1.677  78.813150
1.676  78.820838
1.675  78.853591
1.674  78.869696
1.673  78.817035
1.672  78.854825
1.671  78.902775
1.670  78.920889
1.669  78.883715
1.668  78.834106
1.667  78.967105
1.666  78.954407
1.665  79.022592
1.664  78.947805
1.663  78.970449
1.662  78.910558
1.661  78.922115
1.660  78.935597
1.659  78.898579
1.658  78.924963
1.657  78.956199
1.656  78.778126
1.655  78.955010
1.654  78.981276
1.653  78.948864
1.652  78.948779
1.651  78.902207
1.650  78.935079
1.649  79.004078
1.648  78.935782
1.647  79.002015
1.646  78.915657
1.645  79.019370
1.644  78.967793
1.643  79.054285
1.642  78.957146
1.641  78.975907
1.640  79.019785
1.639  78.961464
1.638  78.913371
1.637  79.084873
1.636  79.032080
1.635  79.049590
1.634  79.050386
1.633  78.954296
1.632  78.834879
1.631  79.019957
1.630  79.054100
1.629  78.989213
1.628  79.039172
1.627  79.002950
1.626  78.991371
1.625  79.023265
1.624  78.985599
1.623  78.972899
1.622  78.913596
1.621  79.090983
1.620  79.054486
1.619  79.035670
1.618  78.927919
1.617  79.019668
1.616  79.080732
1.615  79.068146
1.614  79.038184
1.613  79.048384
1.612  79.033084
1.611  79.015209
1.610  78.966916
1.609  79.036373
1.608  79.062436
1.607  79.063812
1.606  79.077460
1.605  79.101690
1.604  79.066918
1.603  79.071774
1.602  79.088740
1.601  79.062985
1.600  79.069597
1.599  79.021098
1.598  79.059156
1.597  79.008107
1.596  78.965787
1.595  79.028548
1.594  79.090351
1.593  78.954984
1.592  78.973621
1.591  78.984597
1.590  78.923691
1.589  78.927166
1.588  78.900798
1.587  78.966882
1.586  78.914174
1.585  78.982947
1.584  78.992629
1.583  78.870015
1.582  78.876997
1.581  78.951952
1.580  78.869874
1.579  78.922702
1.578  78.927480
1.577  78.939892
1.576  78.887056
1.575  78.864381
1.574  78.849134
1.573  78.882978
1.572  78.905129
1.571  78.893486
1.570  78.907996
1.569  78.825100
1.568  78.840180
1.567  78.836439
1.566  78.808519
1.565  78.776223
1.564  78.828316
1.563  78.764658
1.562  78.718865
1.561  78.724729
1.560  78.725342
1.559  78.723823
1.558  78.685394
1.557  78.704908
1.556  78.686303
1.555  78.722990
1.554  78.668745
1.553  78.731134
1.552  78.682880
1.551  78.652172
1.550  78.612092
1.549  78.632720
1.548  78.586149
1.547  78.539185
1.546  78.582856
1.545  78.554111
1.544  78.563395
1.543  78.504992
1.542  78.520655
1.541  78.565835
1.540  78.514023
1.539  78.519794
1.538  78.429996
1.537  78.464183
1.536  78.499523
1.535  78.433667
1.534  78.368267
1.533  78.343903
1.532  78.292881
1.531  78.300522
1.530  78.272253
1.529  78.296472
1.528  78.341449
1.527  78.299141
1.526  78.220615
1.525  78.171978
1.524  78.199568
1.523  78.157132
1.522  78.132694
1.521  78.117558
1.520  78.080630
1.519  78.065994
1.518  78.046688
1.517  78.037078
1.516  78.009528
1.515  78.001251
1.514  77.986611
1.513  77.943162
1.512  77.938590
1.511  78.002168
1.510  77.942354
1.509  77.860382
1.508  77.843543
1.507  77.828731
1.506  77.785112
1.505  77.732396
1.504  77.767131
1.503  77.786854
1.502  77.716934
1.501  77.669351
1.500  77.704449
1.499  77.677448
1.498  77.638043
1.497  77.625505
1.496  77.566709
1.495  77.559165
1.494  77.532916
1.493  77.485839
1.492  77.469018
1.491  77.459594
1.490  77.415110
1.489  77.383746
1.488  77.337845
1.487  77.283615
1.486  77.288733
1.485  77.285720
1.484  77.257587
1.483  77.217109
1.482  77.164695
1.481  77.132609
1.480  77.169588
1.479  77.161565
1.478  77.111673
1.477  77.075412
1.476  77.062184
1.475  76.991199
1.474  77.004115
1.473  77.008843
1.472  76.930934
1.471  76.840636
1.470  76.844352
1.469  76.856419
1.468  76.851403
1.467  76.805606
1.466  76.789107
1.465  76.775358
1.464  76.837337
1.463  76.814083
1.462  76.766943
1.461  76.720347
1.460  76.668489
1.459  76.675758
1.458  76.659732
1.457  76.724884
1.456  76.667957
1.455  76.625340
1.454  76.616376
1.453  76.599147
1.452  76.566421
1.451  76.540427
1.450  76.585848
1.449  76.540178
1.448  76.538732
1.447  76.442939
1.446  76.391655
1.445  76.348311
1.444  76.326698
1.443  76.352824
1.442  76.386230
1.441  76.329522
1.440  76.372575
1.439  76.395399
1.438  76.328197
1.437  76.288731
1.436  76.290519
1.435  76.247701
1.434  76.176917
1.433  76.162317
1.432  76.182550
1.431  76.192573
1.430  76.140766
1.429  76.070156
1.428  76.093485
1.427  76.070390
1.426  76.040207
1.425  76.028378
1.424  76.011085
1.423  76.123448
1.422  76.126460
1.421  76.041459
