Name: Argillaceous Limestone
Type: Rock
Class: Sedimentary
Subclass:  Limestone 
Particle Size: Solid surface
Sample No.: Ward69.txt
Owner: JPL
Wavelength range:  IR
Origin: Ward's Collection of American Rocks.  Sample locality - Trenton Falls, Oneida County, New York.
Collected by:  Ward's Natural Science
Description: A black compact rock containing a few brachiopod shells and
other fossils.
Geologic age - Ordovician.



Measurement: Hemispherical reflectance
First Column: X
Second Column: Y
X Units: Wavelength (micrometers)
Y Units: Reflectance (percent)
First X Value: 15.3871
Last X Value: 1.9998
Number of X Values: 2257
Additional information: None

15.3871   3.71534
15.3416   3.42139
15.2964   3.47205
15.2514   3.49294
15.2066   3.67105
15.1622   3.71096
15.1180   3.57578
15.0740   3.50075
15.0303   3.63575
14.9869   3.74348
14.9437   3.95414
14.9008   4.01887
14.8581   3.84013
14.8156   3.84794
14.7734   3.85822
14.7314   3.98438
14.6897   4.24574
14.6482   4.06761
14.6069   4.08473
14.5659   3.94591
14.5251   3.74237
14.4845   3.69467
14.4442   3.74342
14.4041   3.87317
14.3642   3.83639
14.3245   3.65727
14.2850   3.70229
14.2458   4.00711
14.2068   4.03019
14.1679   3.70391
14.1293   3.61898
14.0909   3.68452
14.0528   3.81754
14.0148   3.11058
13.9770   2.06157
13.9394   2.08238
13.9021   2.46315
13.8649   2.59036
13.8279   2.91293
13.7911   3.19755
13.7546   3.38132
13.7182   3.50347
13.6820   3.59434
13.6460   3.48584
13.6101   3.55338
13.5745   3.65900
13.5391   3.75233
13.5038   3.94010
13.4687   4.17538
13.4339   4.18983
13.3991   4.15294
13.3646   4.18220
13.3302   4.09739
13.2961   4.02491
13.2621   4.16168
13.2282   4.33638
13.1946   4.32084
13.1611   4.22051
13.1278   4.18677
13.0946   4.17413
13.0616   4.10907
13.0288   4.18255
12.9962   4.22166
12.9637   4.17384
12.9313   4.24965
12.8992   4.07497
12.8672   4.04308
12.8353   4.14276
12.8036   4.23806
12.7721   4.33330
12.7407   4.25582
12.7095   4.12315
12.6784   4.04513
12.6475   4.06513
12.6167   4.25875
12.5861   4.26611
12.5556   4.21581
12.5253   4.49914
12.4951   4.54728
12.4651   4.39484
12.4352   4.47022
12.4054   4.58098
12.3758   4.53132
12.3463   4.38124
12.3170   4.26278
12.2878   4.28623
12.2588   4.43077
12.2299   4.49177
12.2011   4.47403
12.1725   4.51655
12.1439   4.65064
12.1156   4.56535
12.0873   4.61459
12.0592   4.69919
12.0312   4.75302
12.0034   4.74314
11.9757   4.68579
11.9481   4.76354
11.9206   5.01587
11.8933   5.11457
11.8661   5.07538
11.8390   4.78204
11.8120   4.47465
11.7852   4.36189
11.7584   4.58998
11.7318   4.89124
11.7053   5.13122
11.6790   5.15085
11.6527   5.10201
11.6266   5.34157
11.6006   5.67096
11.5747   5.93339
11.5489   6.36936
11.5233   7.20305
11.4977   8.75735
11.4723  10.75430
11.4469  12.12650
11.4217  12.96130
11.3966  13.77110
11.3716  14.83040
11.3468  15.89010
11.3220  17.06130
11.2973  18.45060
11.2728  18.78840
11.2483  16.27400
11.2240  12.56610
11.1997  10.23520
11.1756   9.11866
11.1515   8.63893
11.1276   8.34895
11.1038   7.96709
11.0801   7.61582
11.0564   7.28661
11.0329   7.00778
11.0095   6.77083
10.9862   6.62319
10.9629   6.54214
10.9398   6.38324
10.9168   6.23813
10.8938   6.17652
10.8710   6.18604
10.8483   6.09459
10.8256   5.92490
10.8031   5.85166
10.7806   5.68078
10.7582   5.43132
10.7360   5.43779
10.7138   5.57868
10.6917   5.58471
10.6697   5.49318
10.6478   5.38282
10.6260   5.46286
10.6042   5.52483
10.5826   5.53195
10.5610   5.53645
10.5396   5.44770
10.5182   5.48600
10.4969   5.61471
10.4757   5.77769
10.4546   5.87924
10.4335   5.94824
10.4126   5.90155
10.3917   5.85564
10.3709   5.92497
10.3502   5.93000
10.3296   5.88669
10.3091   5.90213
10.2886   5.82642
10.2683   5.79762
10.2480   5.95057
10.2277   6.07023
10.2076   5.95374
10.1876   5.87708
10.1676   6.04515
10.1477   6.13798
10.1279   6.00446
10.1081   6.02574
10.0885   6.00245
10.0689   5.95194
10.0494   6.04712
10.0299   6.17749
10.0106   6.26147
 9.9913   6.05667
 9.9720   6.06385
 9.9529   6.25212
 9.9338   6.21455
 9.9148   6.23665
 9.8959   6.28715
 9.8771   6.22206
 9.8583   6.15087
 9.8396   6.08310
 9.8210   6.17645
 9.8024   6.37397
 9.7839   6.41387
 9.7655   6.41575
 9.7471   6.47470
 9.7288   6.44979
 9.7106   6.42984
 9.6925   6.47973
 9.6744   6.54177
 9.6564   6.52896
 9.6384   6.45696
 9.6205   6.55189
 9.6027   6.56694
 9.5850   6.42278
 9.5673   6.05141
 9.5497   6.06060
 9.5321   6.29012
 9.5146   6.21922
 9.4972   6.20231
 9.4798   6.11198
 9.4625   6.03545
 9.4453   5.96861
 9.4281   5.84276
 9.4110   5.83314
 9.3940   5.88121
 9.3770   5.98385
 9.3600   6.00659
 9.3432   6.06068
 9.3264   6.15760
 9.3096   6.22212
 9.2930   6.13933
 9.2763   6.06982
 9.2598   6.05924
 9.2432   5.78758
 9.2268   5.76913
 9.2104   5.88894
 9.1941   6.02199
 9.1778   6.12709
 9.1616   6.14805
 9.1454   6.21723
 9.1293   6.37070
 9.1133   6.28613
 9.0973   6.23055
 9.0814   6.23522
 9.0655   6.30678
 9.0497   6.46890
 9.0339   6.38207
 9.0182   6.22017
 9.0025   6.20237
 8.9870   6.27947
 8.9714   6.37932
 8.9559   6.42690
 8.9405   6.47067
 8.9251   6.39743
 8.9097   6.52990
 8.8945   6.50680
 8.8792   6.45053
 8.8641   6.54582
 8.8489   6.51046
 8.8338   6.53052
 8.8188   6.55697
 8.8039   6.52050
 8.7889   6.48967
 8.7741   6.38945
 8.7592   6.29434
 8.7445   6.29562
 8.7297   6.25610
 8.7151   6.09452
 8.7005   6.00145
 8.6859   6.06635
 8.6714   6.08133
 8.6569   6.04965
 8.6425   5.77552
 8.6281   5.57775
 8.6137   5.58518
 8.5994   5.66855
 8.5852   5.68512
 8.5710   5.74344
 8.5569   5.78204
 8.5428   5.89520
 8.5287   5.79329
 8.5147   5.60154
 8.5008   5.59941
 8.4869   5.64200
 8.4730   5.64243
 8.4592   5.66436
 8.4454   5.74460
 8.4316   5.78392
 8.4180   5.85878
 8.4043   6.02929
 8.3907   6.22041
 8.3772   6.24270
 8.3637   6.18481
 8.3502   6.21715
 8.3368   6.28941
 8.3234   6.38107
 8.3100   6.37596
 8.2967   6.44058
 8.2835   6.57512
 8.2703   6.65330
 8.2571   6.66148
 8.2440   6.77842
 8.2309   6.82561
 8.2179   6.68462
 8.2049   6.58200
 8.1919   6.65307
 8.1790   6.78440
 8.1661   6.77993
 8.1532   6.68897
 8.1404   6.60946
 8.1277   6.59494
 8.1150   6.76608
 8.1023   6.67491
 8.0897   6.65517
 8.0770   6.58539
 8.0645   6.47707
 8.0520   6.53171
 8.0395   6.48908
 8.0270   6.52956
 8.0146   6.72361
 8.0023   6.75540
 7.9899   6.66718
 7.9776   6.60155
 7.9654   6.69529
 7.9532   6.78111
 7.9410   6.70169
 7.9288   6.53370
 7.9167   6.44922
 7.9047   6.52926
 7.8926   6.60691
 7.8807   6.61614
 7.8687   6.66859
 7.8568   6.69070
 7.8449   6.77056
 7.8330   6.84473
 7.8212   6.79022
 7.8094   6.75236
 7.7977   6.81133
 7.7860   6.74262
 7.7743   6.68110
 7.7627   6.76116
 7.7511   6.84630
 7.7395   6.85696
 7.7280   6.84206
 7.7165   6.81363
 7.7050   6.82704
 7.6936   6.87175
 7.6822   6.82936
 7.6708   6.72183
 7.6595   6.70174
 7.6482   6.64216
 7.6369   6.71494
 7.6257   6.77297
 7.6145   6.70863
 7.6033   6.75752
 7.5922   6.82372
 7.5811   6.84272
 7.5700   6.84768
 7.5590   6.82181
 7.5480   6.86546
 7.5370   6.89350
 7.5261   6.94150
 7.5152   6.97403
 7.5043   6.94427
 7.4935   7.05085
 7.4826   7.17673
 7.4718   7.22681
 7.4611   7.20603
 7.4504   7.31877
 7.4397   7.45228
 7.4290   7.48043
 7.4184   7.55819
 7.4078   7.68078
 7.3972   7.76188
 7.3867   7.74900
 7.3762   7.84922
 7.3657   8.05318
 7.3553   8.13888
 7.3449   8.22861
 7.3345   8.35259
 7.3241   8.30937
 7.3138   8.28424
 7.3035   8.42860
 7.2932   8.57959
 7.2830   8.66939
 7.2727   8.79425
 7.2626   8.98492
 7.2524   9.14857
 7.2423   9.34557
 7.2322   9.56797
 7.2221   9.77711
 7.2120  10.09740
 7.2020  10.35680
 7.1921  10.66350
 7.1821  11.13640
 7.1722  11.58720
 7.1623  11.88640
 7.1524  12.06590
 7.1425  12.21990
 7.1327  12.57090
 7.1229  13.14660
 7.1131  13.85450
 7.1034  14.41110
 7.0937  14.84630
 7.0840  15.05200
 7.0743  15.13090
 7.0647  15.16200
 7.0551  15.05070
 7.0455  14.94580
 7.0359  14.86260
 7.0264  14.74670
 7.0169  14.66790
 7.0074  14.71620
 6.9979  14.71990
 6.9885  14.68410
 6.9791  14.62940
 6.9697  14.66430
 6.9604  14.75990
 6.9510  14.70110
 6.9417  14.67950
 6.9324  14.66380
 6.9232  14.67530
 6.9140  14.84300
 6.9047  15.02790
 6.8956  15.03920
 6.8864  15.18860
 6.8773  15.37520
 6.8682  15.46350
 6.8591  15.47740
 6.8500  15.52660
 6.8410  15.67470
 6.8320  15.87150
 6.8230  16.04830
 6.8140  16.17170
 6.8051  16.31520
 6.7962  16.53400
 6.7873  16.80810
 6.7784  17.03930
 6.7695  17.32980
 6.7607  17.50290
 6.7519  17.65420
 6.7431  17.93010
 6.7344  18.26850
 6.7256  18.57500
 6.7169  18.84750
 6.7082  19.18580
 6.6996  19.53540
 6.6909  19.86930
 6.6823  20.24330
 6.6737  20.53100
 6.6651  20.85500
 6.6566  21.30720
 6.6480  21.87970
 6.6395  22.47970
 6.6310  22.80130
 6.6226  23.12570
 6.6141  23.60410
 6.6057  24.00750
 6.5973  24.48580
 6.5889  25.07680
 6.5805  25.63590
 6.5722  26.20180
 6.5639  26.52870
 6.5556  26.83220
 6.5473  27.04430
 6.5390  27.17240
 6.5308  27.29170
 6.5226  27.45170
 6.5144  27.41530
 6.5062  27.45710
 6.4981  27.57550
 6.4900  27.59810
 6.4818  27.49810
 6.4737  27.37740
 6.4657  27.06500
 6.4576  26.48080
 6.4496  25.37860
 6.4416  23.81430
 6.4336  21.88390
 6.4256  19.88720
 6.4177  18.13310
 6.4097  16.29130
 6.4018  14.64810
 6.3939  13.30630
 6.3860  12.04500
 6.3782  10.98260
 6.3704  10.01760
 6.3625   9.03443
 6.3547   8.21223
 6.3470   7.38499
 6.3392   6.58062
 6.3315   5.91003
 6.3237   5.43124
 6.3160   5.09686
 6.3083   4.76946
 6.3007   4.44545
 6.2930   4.19997
 6.2854   4.04736
 6.2778   3.94413
 6.2702   3.82666
 6.2626   3.67004
 6.2551   3.41198
 6.2476   3.13339
 6.2400   3.01370
 6.2325   2.95071
 6.2251   2.84102
 6.2176   2.75011
 6.2101   2.69928
 6.2027   2.61480
 6.1953   2.57349
 6.1879   2.51073
 6.1805   2.40636
 6.1732   2.27962
 6.1658   2.22696
 6.1585   2.22170
 6.1512   2.13804
 6.1439   2.08430
 6.1367   2.08615
 6.1294   2.11267
 6.1222   2.10113
 6.1149   2.01259
 6.1077   1.96252
 6.1006   1.98583
 6.0934   1.94810
 6.0862   1.89319
 6.0791   1.91759
 6.0720   1.95278
 6.0649   1.88350
 6.0578   1.89913
 6.0507   1.97265
 6.0437   1.96237
 6.0366   1.99100
 6.0296   1.92253
 6.0226   1.87340
 6.0156   1.93223
 6.0087   1.93442
 6.0017   1.90715
 5.9948   1.90956
 5.9878   1.89217
 5.9809   1.88648
 5.9740   1.94887
 5.9672   1.96996
 5.9603   1.94043
 5.9535   1.94295
 5.9466   2.06387
 5.9398   2.08113
 5.9330   1.92744
 5.9262   1.91871
 5.9195   2.02133
 5.9127   1.98794
 5.9060   1.98262
 5.8993   2.14532
 5.8926   2.28003
 5.8859   2.24946
 5.8792   2.21874
 5.8726   2.10020
 5.8659   2.02354
 5.8593   2.08708
 5.8527   2.11659
 5.8461   2.15732
 5.8395   2.16475
 5.8329   2.16691
 5.8264   2.17699
 5.8198   2.09737
 5.8133   2.08384
 5.8068   2.18723
 5.8003   2.23025
 5.7938   2.30453
 5.7874   2.30988
 5.7809   2.22076
 5.7745   2.10373
 5.7680   2.12079
 5.7616   2.19272
 5.7552   2.30040
 5.7489   2.29039
 5.7425   2.26825
 5.7361   2.37278
 5.7298   2.32809
 5.7235   2.32138
 5.7172   2.42070
 5.7109   2.44689
 5.7046   2.36745
 5.6983   2.36750
 5.6921   2.45661
 5.6858   2.53511
 5.6796   2.62608
 5.6734   2.64815
 5.6672   2.65697
 5.6610   2.68452
 5.6548   2.75622
 5.6487   2.84038
 5.6425   2.82058
 5.6364   2.74554
 5.6303   2.73520
 5.6242   2.76992
 5.6181   2.76681
 5.6120   2.67225
 5.6059   2.55589
 5.5999   2.40181
 5.5938   2.27664
 5.5878   2.24190
 5.5818   2.19145
 5.5758   1.99458
 5.5698   1.90909
 5.5638   1.93093
 5.5578   1.89059
 5.5519   1.85966
 5.5460   2.05144
 5.5400   2.22641
 5.5341   2.40501
 5.5282   2.61041
 5.5223   2.85367
 5.5164   3.04645
 5.5106   3.17788
 5.5047   3.30686
 5.4989   3.39889
 5.4931   3.44494
 5.4873   3.47277
 5.4815   3.53109
 5.4757   3.68791
 5.4699   3.88220
 5.4641   3.96984
 5.4584   4.08044
 5.4527   4.16216
 5.4469   4.22254
 5.4412   4.29897
 5.4355   4.37889
 5.4298   4.52499
 5.4241   4.66258
 5.4185   4.67014
 5.4128   4.69924
 5.4072   4.75863
 5.4015   4.76395
 5.3959   4.80390
 5.3903   5.02105
 5.3847   5.13470
 5.3791   5.13965
 5.3735   5.15338
 5.3680   5.13830
 5.3624   5.13608
 5.3569   5.25947
 5.3514   5.42178
 5.3458   5.41383
 5.3403   5.40355
 5.3348   5.44246
 5.3294   5.48303
 5.3239   5.53800
 5.3184   5.70519
 5.3130   5.81720
 5.3075   5.76396
 5.3021   5.80534
 5.2967   5.89573
 5.2913   5.94864
 5.2859   6.01201
 5.2805   6.05964
 5.2751   6.09150
 5.2698   6.12982
 5.2644   6.13267
 5.2591   6.23169
 5.2538   6.35102
 5.2485   6.42515
 5.2431   6.45623
 5.2378   6.41099
 5.2326   6.47246
 5.2273   6.51399
 5.2220   6.62286
 5.2168   6.72290
 5.2115   6.68897
 5.2063   6.70892
 5.2011   6.75486
 5.1959   6.83938
 5.1907   6.92365
 5.1855   6.85705
 5.1803   6.81463
 5.1751   6.91930
 5.1700   7.04607
 5.1648   7.08597
 5.1597   7.10616
 5.1545   7.13188
 5.1494   7.15883
 5.1443   7.13857
 5.1392   7.11806
 5.1341   7.14371
 5.1291   7.12221
 5.1240   7.09520
 5.1189   7.07609
 5.1139   7.00752
 5.1088   6.75641
 5.1038   6.37538
 5.0988   6.28087
 5.0938   6.53579
 5.0888   6.81075
 5.0838   6.99934
 5.0788   7.21584
 5.0738   7.35503
 5.0689   7.39307
 5.0639   7.47959
 5.0590   7.46919
 5.0541   7.35904
 5.0491   7.35478
 5.0442   7.38194
 5.0393   7.47223
 5.0344   7.56578
 5.0296   7.56509
 5.0247   7.47435
 5.0198   7.39392
 5.0150   7.40295
 5.0101   7.40522
 5.0053   7.46734
 5.0004   7.61226
 4.9956   7.67107
 4.9908   7.63052
 4.9860   7.63967
 4.9812   7.68240
 4.9765   7.65917
 4.9717   7.62068
 4.9669   7.70170
 4.9622   7.77740
 4.9574   7.75615
 4.9527   7.71763
 4.9480   7.74551
 4.9432   7.81950
 4.9385   7.88038
 4.9338   7.87398
 4.9291   7.83205
 4.9245   7.80090
 4.9198   7.84025
 4.9151   7.94968
 4.9105   7.92841
 4.9058   7.92844
 4.9012   7.99221
 4.8966   7.99913
 4.8919   8.02755
 4.8873   8.08456
 4.8827   8.09693
 4.8781   8.13813
 4.8736   8.18672
 4.8690   8.15663
 4.8644   8.21536
 4.8599   8.30636
 4.8553   8.31177
 4.8508   8.28222
 4.8462   8.29470
 4.8417   8.34068
 4.8372   8.33729
 4.8327   8.35527
 4.8282   8.41338
 4.8237   8.46497
 4.8192   8.50430
 4.8147   8.41773
 4.8103   8.39661
 4.8058   8.44733
 4.8014   8.42498
 4.7969   8.41062
 4.7925   8.40045
 4.7881   8.29408
 4.7836   8.37623
 4.7792   8.41772
 4.7748   8.33894
 4.7704   8.35959
 4.7660   8.40701
 4.7617   8.34746
 4.7573   8.32742
 4.7530   8.38039
 4.7486   8.26488
 4.7443   8.06799
 4.7399   7.98508
 4.7356   7.95207
 4.7313   7.81100
 4.7270   7.72094
 4.7226   7.53883
 4.7184   7.27209
 4.7141   7.11454
 4.7098   7.03062
 4.7055   6.83285
 4.7012   6.57751
 4.6970   6.41024
 4.6927   6.28938
 4.6885   6.15243
 4.6842   6.17711
 4.6800   6.21989
 4.6758   6.18129
 4.6716   6.10978
 4.6674   6.13384
 4.6632   6.09949
 4.6590   6.09390
 4.6548   6.24713
 4.6506   6.39738
 4.6465   6.47576
 4.6423   6.59910
 4.6382   6.79403
 4.6340   6.97386
 4.6299   7.07726
 4.6258   7.19707
 4.6216   7.40283
 4.6175   7.51094
 4.6134   7.60818
 4.6093   7.71684
 4.6052   7.79205
 4.6011   7.84555
 4.5971   7.81898
 4.5930   7.86172
 4.5889   7.98833
 4.5849   8.04948
 4.5808   8.07752
 4.5768   8.01064
 4.5727   8.01792
 4.5687   8.07739
 4.5647   8.12840
 4.5607   8.13911
 4.5567   8.08842
 4.5526   8.17158
 4.5487   8.29241
 4.5447   8.27396
 4.5407   8.22487
 4.5367   8.20084
 4.5328   8.22471
 4.5288   8.24409
 4.5248   8.26269
 4.5209   8.30069
 4.5170   8.26824
 4.5130   8.21887
 4.5091   8.25831
 4.5052   8.33895
 4.5013   8.39142
 4.4974   8.42142
 4.4935   8.46770
 4.4896   8.61338
 4.4857   8.70285
 4.4818   8.77277
 4.4779   8.88788
 4.4741   9.01099
 4.4702   9.04281
 4.4664   9.07808
 4.4625   9.16558
 4.4587   9.14961
 4.4549   9.14190
 4.4510   9.21505
 4.4472   9.25225
 4.4434   9.34333
 4.4396   9.48355
 4.4358   9.54911
 4.4320   9.62902
 4.4282   9.67672
 4.4245   9.69674
 4.4207   9.74012
 4.4169   9.91795
 4.4132   9.98216
 4.4094   9.91652
 4.4057   9.90347
 4.4019   9.95590
 4.3982  10.05170
 4.3945  10.21230
 4.3907  10.21530
 4.3870  10.08840
 4.3833  10.06160
 4.3796  10.11500
 4.3759  10.16610
 4.3722  10.18270
 4.3685  10.15370
 4.3649  10.09770
 4.3612  10.07850
 4.3575  10.11460
 4.3539  10.08090
 4.3502   9.95321
 4.3466   9.96457
 4.3429  10.01120
 4.3393   9.92754
 4.3357   9.89961
 4.3320   9.95336
 4.3284   9.98805
 4.3248  10.03370
 4.3212  10.06720
 4.3176  10.00630
 4.3140   9.97495
 4.3105   9.92206
 4.3069  10.05380
 4.3033  10.23700
 4.2997  10.18720
 4.2962  10.18560
 4.2926  10.15960
 4.2890  10.15010
 4.2855  10.21400
 4.2820  10.25750
 4.2784  10.32780
 4.2749  10.31030
 4.2714  10.27210
 4.2679  10.22840
 4.2644  10.21090
 4.2609  10.29730
 4.2574  10.28990
 4.2539  10.20790
 4.2504  10.14370
 4.2469  10.13230
 4.2434  10.18010
 4.2400  10.27560
 4.2365  10.31240
 4.2330  10.17040
 4.2296  10.13750
 4.2261  10.22260
 4.2227  10.10750
 4.2193  10.09080
 4.2158  10.10580
 4.2124  10.13270
 4.2090  10.22190
 4.2056  10.14330
 4.2022  10.03040
 4.1988   9.92016
 4.1954   9.84875
 4.1920   9.83768
 4.1886   9.88031
 4.1852   9.91461
 4.1818   9.83192
 4.1785   9.73647
 4.1751   9.77207
 4.1717   9.80619
 4.1684   9.73583
 4.1650   9.63928
 4.1617   9.57409
 4.1584   9.64120
 4.1550   9.62092
 4.1517   9.45610
 4.1484   9.34312
 4.1451   9.31776
 4.1418   9.30330
 4.1384   9.31016
 4.1351   9.19650
 4.1319   9.06486
 4.1286   9.06248
 4.1253   9.02026
 4.1220   8.92242
 4.1187   8.85268
 4.1155   8.79355
 4.1122   8.67583
 4.1089   8.58169
 4.1057   8.48079
 4.1024   8.40586
 4.0992   8.26385
 4.0959   8.19792
 4.0927   8.23317
 4.0895   8.24734
 4.0863   8.04811
 4.0830   7.79934
 4.0798   7.70028
 4.0766   7.63981
 4.0734   7.50879
 4.0702   7.29832
 4.0670   7.24726
 4.0639   7.20040
 4.0607   7.04510
 4.0575   7.10383
 4.0543   6.94962
 4.0511   6.62904
 4.0480   6.40400
 4.0448   6.24762
 4.0417   6.00696
 4.0385   5.68711
 4.0354   5.51830
 4.0323   5.41442
 4.0291   5.20454
 4.0260   5.01557
 4.0229   4.80056
 4.0197   4.80880
 4.0166   4.74679
 4.0135   4.59586
 4.0104   4.44140
 4.0073   4.43271
 4.0042   4.35792
 4.0011   4.19780
 3.9981   4.02199
 3.9950   3.85354
 3.9919   3.75641
 3.9888   3.71050
 3.9857   3.70561
 3.9827   3.70985
 3.9796   3.67792
 3.9766   3.72183
 3.9735   3.79112
 3.9705   3.72651
 3.9675   3.75240
 3.9644   3.69612
 3.9614   3.64747
 3.9584   3.70562
 3.9554   3.73315
 3.9523   3.79698
 3.9493   3.83872
 3.9463   4.02032
 3.9433   4.17839
 3.9403   4.36049
 3.9373   4.51251
 3.9343   4.61920
 3.9314   4.62793
 3.9284   4.68911
 3.9254   4.72552
 3.9224   4.69514
 3.9195   4.78227
 3.9165   4.76015
 3.9136   4.60630
 3.9106   4.54395
 3.9077   4.57900
 3.9047   4.75867
 3.9018   4.70887
 3.8988   4.61286
 3.8959   4.78015
 3.8930   4.86826
 3.8901   4.76146
 3.8872   4.75127
 3.8842   4.82992
 3.8813   4.84371
 3.8784   4.81838
 3.8755   4.78742
 3.8726   4.88310
 3.8697   4.95413
 3.8669   4.98316
 3.8640   4.97084
 3.8611   4.93075
 3.8582   4.83575
 3.8554   4.92153
 3.8525   5.14006
 3.8496   5.14555
 3.8468   5.01456
 3.8439   5.05243
 3.8411   5.13200
 3.8382   5.12029
 3.8354   5.32611
