Name: Calcite CaCO_3
Type: Mineral
Class: Carbonates
Subclass: 
Particle Size: 125-500um
Sample No.: C-3A
Owner: JPL
Wavelength range: IR
Origin: Italy
Collected by Ward's
Description:  Travertine 





Measurement: Hemispherical reflectance
First Column: X
Second Column: Y
X Units:  Wavelength (micrometers)
Y Units:  Reflectance (percent)
First X Value: 15.3853
Last X Value: 2.00032
Number of X Values: 2256
Additional information: c03aa.txt
 
15.3853	5.47939
15.3397	5.63583
15.2945	5.52999
15.2495	5.34705
15.2048	5.55829
15.1603	5.5132
15.1161	5.34434
15.0722	5.19218
15.0285	5.02686
14.9851	4.96314
14.9419	5.2272
14.8989	5.30241
14.8563	5.31202
14.8138	5.53166
14.7716	5.76024
14.7296	6.04683
14.6879	6.40773
14.6464	6.57898
14.6052	6.52445
14.5641	6.61548
14.5233	6.69588
14.4828	6.33542
14.4424	5.74033
14.4023	5.35299
14.3624	5.02431
14.3227	4.21257
14.2833	3.58121
14.244	3.18386
14.205	2.79072
14.1662	2.62384
14.1276	2.54305
14.0892	2.41976
14.051	2.41861
14.0131	1.9099
13.9753	1.15895
13.9377	1.05491
13.9004	1.43631
13.8632	1.72743
13.8262	2.2738
13.7895	3.24183
13.7529	4.04123
13.7165	4.97857
13.6803	5.78485
13.6443	6.37403
13.6085	7.10711
13.5729	7.78937
13.5374	8.43689
13.5022	8.99574
13.4671	9.50336
13.4322	9.87635
13.3975	10.0689
13.363	10.125
13.3286	9.99836
13.2944	9.8846
13.2604	9.79869
13.2266	9.79174
13.193	9.66831
13.1595	9.38707
13.1262	9.1125
13.093	8.64289
13.06	8.15973
13.0272	8.00519
12.9946	7.65862
12.9621	7.24425
12.9298	7.05879
12.8976	6.86555
12.8656	6.71325
12.8337	6.7085
12.8021	6.75317
12.7705	6.73058
12.7391	6.69134
12.7079	6.98252
12.6769	7.29709
12.6459	7.43956
12.6152	7.52815
12.5845	7.67713
12.5541	7.74018
12.5238	7.83666
12.4936	7.89899
12.4635	7.93719
12.4337	8.11846
12.4039	8.13956
12.3743	8.05926
12.3448	8.26817
12.3155	8.3151
12.2863	8.31556
12.2573	8.41296
12.2284	8.46223
12.1996	8.57461
12.171	8.64384
12.1425	8.65822
12.1141	8.50238
12.0859	8.48396
12.0578	8.4211
12.0298	8.18025
12.0019	8.087
11.9742	7.8102
11.9466	7.46423
11.9192	6.94936
11.8918	6.32444
11.8646	5.58512
11.8375	4.52451
11.8106	3.55866
11.7837	3.00948
11.757	3.25858
11.7304	3.93109
11.7039	4.13107
11.6776	3.94668
11.6513	3.79952
11.6252	3.85347
11.5992	4.08375
11.5733	4.19641
11.5475	4.23606
11.5219	4.66839
11.4963	5.80245
11.4709	7.64517
11.4455	9.20922
11.4203	10.4135
11.3952	11.5853
11.3702	12.674
11.3454	13.2392
11.3206	13.7712
11.2959	15.2547
11.2714	17.1843
11.2469	17.575
11.2226	16.4002
11.1983	15.5009
11.1742	15.2218
11.1502	15.2786
11.1263	15.4172
11.1024	15.4317
11.0787	15.3525
11.0551	15.183
11.0316	15.1234
11.0081	15.0938
10.9848	14.9373
10.9616	14.9216
10.9385	14.884
10.9154	14.7543
10.8925	14.4019
10.8697	13.9183
10.8469	13.3829
10.8243	12.7768
10.8017	12.2274
10.7793	11.6982
10.7569	11.1377
10.7346	10.6196
10.7125	10.2062
10.6904	9.8441
10.6684	9.64544
10.6465	9.64792
10.6247	9.69181
10.6029	9.60009
10.5813	9.65223
10.5597	9.73326
10.5383	9.66963
10.5169	9.73775
10.4956	9.94659
10.4744	10.2634
10.4533	10.6376
10.4323	10.977
10.4113	11.1872
10.3904	11.287
10.3697	11.4191
10.349	11.5646
10.3284	11.4293
10.3078	11.2016
10.2874	11.0323
10.267	10.6775
10.2467	10.1392
10.2265	9.67874
10.2064	9.39692
10.1863	9.38135
10.1663	9.42571
10.1464	9.36467
10.1266	9.23892
10.1069	9.0175
10.0872	8.73243
10.0676	8.39426
10.0481	8.1454
10.0287	7.99884
10.0093	7.89416
9.99005	7.97551
9.97084	7.64936
9.95169	7.33809
9.93263	7.28453
9.91364	7.10575
9.89472	6.97307
9.87587	6.95655
9.8571	7.02318
9.83839	7.00412
9.81976	7.0114
9.80119	7.15594
9.78271	7.32304
9.76428	7.45001
9.74592	7.7181
9.72764	7.89809
9.70943	7.9875
9.69128	8.42894
9.6732	8.94359
9.65518	9.2182
9.63724	9.31764
9.61935	9.23163
9.60155	9.14798
9.5838	9.25898
9.56611	9.31281
9.5485	9.50724
9.53094	9.74691
9.51345	9.70597
9.49604	9.5592
9.47867	9.40232
9.46137	9.18825
9.44414	9.02026
9.42697	8.818
9.40986	8.32978
9.39281	7.81408
9.37583	7.52031
9.35891	7.33707
9.34204	7.12387
9.32524	6.95668
9.3085	7.06586
9.29182	7.25591
9.27519	7.04099
9.25863	6.52434
9.24213	5.99909
9.22568	5.59017
9.2093	5.3856
9.19297	5.52775
9.17669	5.90473
9.16048	6.16038
9.14433	6.38371
9.12823	6.59368
9.11218	6.44427
9.0962	6.28939
9.08027	6.23934
9.06439	6.20917
9.04858	6.14042
9.03281	6.07173
9.0171	5.81415
9.00145	5.61936
8.98585	5.56194
8.9703	5.45612
8.9548	5.34314
8.93937	5.12976
8.92398	4.88732
8.90865	4.70874
8.89337	4.46901
8.87814	4.31446
8.86296	4.20895
8.84784	4.03388
8.83277	3.83895
8.81774	3.80059
8.80277	3.84145
8.78786	3.79545
8.77298	3.72475
8.75816	3.67258
8.7434	3.58548
8.72868	3.45485
8.714	3.50669
8.69938	3.51913
8.68481	3.41797
8.67029	3.50441
8.65581	3.41558
8.64139	3.26634
8.62701	3.27698
8.61268	3.44933
8.5984	3.50519
8.58416	3.41304
8.56997	3.32058
8.55583	3.20455
8.54174	3.26643
8.52769	3.26456
8.51368	3.29257
8.49973	3.42688
8.48582	3.37926
8.47195	3.53524
8.45813	3.73576
8.44436	3.80161
8.43062	3.91125
8.41693	3.96537
8.4033	3.95625
8.3897	4.14048
8.37614	4.30484
8.36264	4.52311
8.34917	4.7902
8.33574	4.87988
8.32236	4.90242
8.30903	5.13223
8.29573	5.28348
8.28248	5.30387
8.26927	5.34976
8.2561	5.47303
8.24298	5.59278
8.2299	5.61361
8.21685	5.75391
8.20385	5.73546
8.19089	5.63614
8.17797	5.6718
8.16509	5.80126
8.15225	5.90713
8.13946	5.85806
8.1267	5.71224
8.11398	5.56185
8.10131	5.58125
8.08867	5.66758
8.07606	5.62564
8.0635	5.53333
8.05099	5.47817
8.0385	5.50338
8.02606	5.57865
8.01366	5.68578
8.00129	5.75183
7.98896	5.79273
7.97667	5.82171
7.96442	5.80188
7.9522	5.72414
7.94002	5.64049
7.92788	5.57501
7.91578	5.50839
7.90371	5.50633
7.89168	5.51034
7.87969	5.48532
7.86773	5.53946
7.85581	5.72363
7.84392	5.74123
7.83207	5.62876
7.82026	5.59072
7.80849	5.59423
7.79674	5.49948
7.78503	5.45182
7.77337	5.4531
7.76173	5.52884
7.75012	5.57834
7.73856	5.556
7.72703	5.52287
7.71553	5.53723
7.70406	5.48411
7.69263	5.36667
7.68123	5.265
7.66987	5.22623
7.65855	5.17447
7.64725	5.21592
7.63598	5.28241
7.62475	5.23797
7.61356	5.17554
7.60239	5.14466
7.59126	5.16322
7.58017	5.20655
7.5691	5.29486
7.55806	5.34722
7.54707	5.28017
7.5361	5.22682
7.52516	5.30109
7.51425	5.38074
7.50338	5.41768
7.49253	5.43278
7.48172	5.48822
7.47094	5.56733
7.46019	5.61561
7.44947	5.62253
7.43879	5.63585
7.42813	5.73049
7.4175	5.83934
7.4069	5.94495
7.39634	6.01114
7.3858	6.05092
7.37529	6.08466
7.36482	6.17536
7.35437	6.28899
7.34396	6.42196
7.33357	6.47971
7.32321	6.5304
7.31288	6.67176
7.30258	6.83153
7.29231	7.02573
7.28207	7.25545
7.27185	7.38322
7.26167	7.50087
7.25152	7.67977
7.24139	7.89722
7.23129	8.17912
7.22122	8.53586
7.21117	8.8609
7.20116	9.24069
7.19117	9.68456
7.18121	10.2612
7.17128	10.8084
7.16137	11.2393
7.1515	11.6368
7.14164	11.9416
7.13182	12.3365
7.12203	13.0752
7.11225	14.0508
7.10251	15.0738
7.0928	15.8208
7.08311	16.3652
7.07344	16.6643
7.06381	16.7688
7.0542	16.9312
7.04461	17.0443
7.03506	16.9566
7.02552	16.939
7.01601	16.9415
7.00653	16.9484
6.99708	16.9915
6.98765	16.974
6.97824	16.9255
6.96886	16.9193
6.95951	16.8902
6.95018	16.7388
6.94087	16.698
6.9316	16.7081
6.92234	16.8355
6.91311	17.1063
6.90391	17.2293
6.89473	17.3216
6.88557	17.4701
6.87644	17.6903
6.86733	18.1169
6.85824	18.1666
6.84918	17.9817
6.84015	18.0811
6.83114	18.3273
6.82215	18.4998
6.81319	18.5836
6.80424	18.7501
6.79532	19.0926
6.78643	19.286
6.77756	19.304
6.76871	19.3518
6.75989	19.4564
6.75109	19.5987
6.74231	19.754
6.73355	20.0074
6.72482	20.3802
6.71611	20.6954
6.70742	20.8722
6.69875	20.9771
6.69011	21.3142
6.68149	21.6457
6.67289	21.8771
6.66431	22.0417
6.65576	22.2399
6.64722	22.7504
6.63871	23.3905
6.63022	23.481
6.62175	23.4809
6.61331	23.8623
6.60488	24.3091
6.59648	24.7713
6.5881	25.2065
6.57974	25.7055
6.5714	26.1474
6.56308	26.1535
6.55478	26.3538
6.54651	26.5522
6.53825	26.6159
6.53001	26.727
6.5218	26.9181
6.51361	26.8129
6.50544	26.8823
6.49729	27.2429
6.48915	27.1495
6.48104	26.6536
6.47295	26.0751
6.46488	25.2093
6.45683	24.1714
6.4488	22.7524
6.44079	21.1075
6.4328	19.2915
6.42482	17.6321
6.41687	16.2793
6.40894	14.5302
6.40103	12.9078
6.39314	11.7326
6.38526	10.5938
6.37741	9.67941
6.36957	8.91848
6.36176	8.05874
6.35396	7.2295
6.34618	6.48439
6.33843	5.59993
6.33069	4.88185
6.32297	4.3653
6.31527	3.97617
6.30758	3.6931
6.29992	3.47741
6.29227	3.31346
6.28465	3.28306
6.27704	3.20514
6.26945	3.08835
6.26188	3.01017
6.25432	2.9572
6.24679	2.91085
6.23927	2.82068
6.23177	2.69438
6.22429	2.5442
6.21683	2.38369
6.20938	2.25202
6.20195	2.12438
6.19454	2.12884
6.18715	2.13275
6.17978	1.96714
6.17242	1.81342
6.16508	1.85065
6.15776	1.88571
6.15045	1.7954
6.14317	1.70749
6.1359	1.70967
6.12864	1.72751
6.12141	1.6873
6.11419	1.64163
6.10699	1.65902
6.0998	1.64706
6.09263	1.59789
6.08549	1.57585
6.07835	1.58774
6.07123	1.62553
6.06413	1.56393
6.05705	1.56811
6.04998	1.70607
6.04293	1.7214
6.0359	1.67453
6.02888	1.60433
6.02187	1.67258
6.01489	1.76342
6.00792	1.75743
6.00096	1.67866
5.99403	1.70252
5.98711	1.80807
5.9802	1.77898
5.97331	1.73371
5.96644	1.78318
5.95958	1.76246
5.95274	1.70513
5.94591	1.70624
5.9391	1.72123
5.9323	1.67878
5.92552	1.75579
5.91876	1.73186
5.91201	1.76838
5.90528	1.83479
5.89856	1.85578
5.89186	1.83708
5.88517	1.80279
5.8785	1.82264
5.87184	1.84317
5.8652	1.81648
5.85857	1.86133
5.85196	1.71386
5.84536	1.64818
5.83878	1.72614
5.83221	1.65028
5.82566	1.57279
5.81912	1.57138
5.81259	1.53347
5.80608	1.57862
5.79959	1.53258
5.79311	1.43522
5.78665	1.34613
5.78019	1.34515
5.77376	1.44392
5.76734	1.56489
5.76093	1.42531
5.75453	1.39497
5.74815	1.38068
5.74179	1.33881
5.73543	1.35631
5.7291	1.45002
5.72277	1.51353
5.71646	1.48966
5.71017	1.53291
5.70389	1.6429
5.69762	1.65623
5.69136	1.53567
5.68513	1.47978
5.6789	1.58669
5.67268	1.77419
5.66648	1.86376
5.6603	1.90624
5.65413	1.98163
5.64797	2.01949
5.64182	2.07159
5.63569	2.03638
5.62957	1.83514
5.62347	1.66278
5.61737	1.54115
5.61129	1.36384
5.60522	1.24532
5.59917	1.1803
5.59313	1.03191
5.5871	0.869606
5.58109	0.885171
5.57509	0.890017
5.5691	0.829484
5.56312	0.738719
5.55716	0.687506
5.55121	0.687699
5.54528	0.796643
5.53935	0.950639
5.53344	1.26465
5.52754	1.72036
5.52166	2.13862
5.51578	2.51273
5.50992	2.93477
5.50407	3.42334
5.49823	3.78017
5.49241	4.12215
5.4866	4.66365
5.4808	5.23668
5.47501	5.67184
5.46923	6.13498
5.46347	6.64845
5.45772	7.14637
5.45198	7.65584
5.44625	8.19838
5.44054	8.70147
5.43484	9.24106
5.42914	9.92481
5.42347	10.7022
5.4178	11.3179
5.41214	11.8461
5.4065	12.3977
5.40087	13.0046
5.39525	13.6621
5.38964	14.3123
5.38404	14.9333
5.37846	15.464
5.37288	16.0108
5.36732	16.6303
5.36177	17.1877
5.35623	17.7418
5.35071	18.3378
5.34519	18.879
5.33968	19.41
5.33419	19.9668
5.32871	20.5136
5.32324	21.1964
5.31778	21.8602
5.31233	22.3754
5.30689	22.91
5.30147	23.458
5.29605	23.949
5.29065	24.4065
5.28525	24.7909
5.27987	25.2123
5.2745	25.628
5.26914	25.9272
5.26379	26.2822
5.25845	26.6988
5.25312	27.1315
5.24781	27.6017
5.2425	27.9648
5.23721	28.2891
5.23192	28.5841
5.22665	28.9176
5.22138	29.2414
5.21613	29.5954
5.21089	29.8906
5.20566	30.088
5.20044	30.3895
5.19522	30.7792
5.19002	31.0711
5.18483	31.3115
5.17965	31.5796
5.17448	31.6534
5.16933	31.7555
5.16418	32.0432
5.15904	32.3124
5.15391	32.5201
5.14879	32.7513
5.14368	32.9505
5.13859	33.0202
5.1335	33.0702
5.12842	32.9329
5.12335	32.4876
5.1183	31.5542
5.11325	29.4369
5.10821	25.9837
5.10318	22.4921
5.09817	21.4992
5.09316	24.6407
5.08816	28.9938
5.08317	32.0995
5.07819	33.8456
5.07322	34.7668
5.06826	35.2578
5.06331	35.5332
5.05837	35.7836
5.05344	35.9082
5.04852	35.9273
5.04361	35.9337
5.03871	35.8657
5.03382	35.8081
5.02894	35.8625
5.02406	35.9107
5.0192	35.785
5.01435	35.5922
5.0095	35.5441
5.00467	35.5381
4.99984	35.5386
4.99502	35.5022
4.99021	35.3814
4.98542	35.3055
4.98063	35.1888
4.97585	35.014
4.97108	34.8975
4.96632	34.8985
4.96156	34.8172
4.95682	34.6604
4.95209	34.5286
4.94736	34.5205
4.94264	34.4997
4.93794	34.4117
4.93324	34.334
4.92855	34.3631
4.92387	34.414
4.9192	34.4464
4.91453	34.4698
4.90988	34.4598
4.90524	34.4833
4.9006	34.5962
4.89597	34.7107
4.89135	34.7022
4.88674	34.7336
4.88214	34.8353
4.87755	34.8618
4.87296	34.8295
4.86839	34.8226
4.86382	34.8853
4.85926	34.9551
4.85471	34.9443
4.85017	34.8715
4.84564	34.9028
4.84111	34.9679
4.8366	34.9796
4.83209	34.9752
4.82759	34.9665
4.8231	34.9686
4.81862	34.9652
4.81415	34.9182
4.80968	34.8446
4.80522	34.7771
4.80077	34.6901
4.79633	34.5647
4.7919	34.4501
4.78747	34.3309
4.78306	34.1116
4.77865	33.8897
4.77425	33.6112
4.76986	33.1581
4.76547	32.5717
4.7611	31.9592
4.75673	31.3789
4.75237	30.7106
4.74802	29.9477
4.74367	29.1129
4.73934	28.2085
4.73501	27.1758
4.73069	25.9802
4.72638	24.5367
4.72207	22.7607
4.71777	20.7081
4.71348	18.6468
4.7092	16.7965
4.70493	15.1741
4.70066	13.8178
4.69641	12.7475
4.69216	11.9492
4.68791	11.3236
4.68368	10.8242
4.67945	10.5177
4.67523	10.3644
4.67102	10.3682
4.66682	10.4489
4.66262	10.5769
4.65843	10.8725
4.65425	11.4099
4.65007	12.2214
4.64591	13.1892
4.64175	14.3423
4.6376	15.5651
4.63345	16.7575
4.62932	17.7964
4.62519	18.712
4.62106	19.6259
4.61695	20.3903
4.61284	20.9892
4.60874	21.4097
4.60465	21.6692
4.60056	21.8868
4.59648	22.257
4.59241	22.6205
4.58835	22.8403
4.58429	23.002
4.58024	23.2057
4.5762	23.3409
4.57216	23.4363
4.56814	23.5966
4.56411	23.756
4.5601	23.8099
4.55609	23.8412
4.55209	23.8836
4.5481	23.9585
4.54411	24.0319
4.54013	24.1078
4.53616	24.1483
4.5322	24.2207
4.52824	24.3507
4.52429	24.4257
4.52034	24.46
4.51641	24.5273
4.51247	24.5855
4.50855	24.6955
4.50463	24.8723
4.50072	25.0443
4.49682	25.307
4.49292	25.6822
4.48903	26.0699
4.48515	26.5701
4.48127	27.1085
4.4774	27.6869
4.47354	28.2522
4.46968	28.7253
4.46584	29.1195
4.46199	29.5198
4.45815	29.9371
4.45432	30.2475
4.4505	30.5065
4.44668	30.9437
4.44287	31.4204
4.43907	31.9156
4.43527	32.4164
4.43148	32.8223
4.4277	33.1165
4.42392	33.3489
4.42015	33.5328
4.41638	33.7619
4.41262	33.9646
4.40887	34.1639
4.40513	34.3521
4.40139	34.4979
4.39765	34.5773
4.39393	34.7997
4.39021	34.9665
4.38649	34.996
4.38278	35.0382
4.37908	35.0735
4.37539	35.0258
4.3717	34.8848
4.36801	34.6916
4.36434	34.2797
4.36067	33.6985
4.357	33.2146
4.35335	32.8021
4.34969	32.5024
4.34605	32.2935
4.34241	32.1505
4.33877	32.0696
4.33514	32.0163
4.33152	31.996
4.32791	32.0195
4.3243	32.0113
4.32069	31.9782
4.3171	32.0684
4.31351	32.1311
4.30992	32.1203
4.30634	32.2148
4.30277	32.4132
4.2992	32.6309
4.29564	32.7304
4.29208	32.6568
4.28853	32.5058
4.28499	32.267
4.28145	31.7257
4.27792	30.9891
4.27439	30.1332
4.27087	29.342
4.26735	28.9694
4.26384	29.2225
4.26034	30.0284
4.25684	30.8866
4.25335	31.5322
4.24986	31.9201
4.24638	32.0242
4.24291	31.9536
4.23944	31.8661
4.23598	31.7627
4.23252	31.5941
4.22906	31.453
4.22562	31.4048
4.22218	31.3351
4.21874	31.3554
4.21531	31.3128
4.21189	31.172
4.20847	31.037
4.20506	30.9089
4.20165	30.8107
4.19825	30.619
4.19485	30.2153
4.19146	29.8544
4.18807	29.6003
4.18469	29.3716
4.18132	29.0473
4.17795	28.7028
4.17458	28.4702
4.17123	28.1851
4.16787	27.8709
4.16453	27.5965
4.16118	27.2494
4.15785	26.8185
4.15451	26.3816
4.15119	25.8925
4.14787	25.389
4.14455	24.9656
4.14124	24.4593
4.13794	23.8229
4.13464	23.2192
4.13134	22.6832
4.12805	22.1224
4.12477	21.4958
4.12149	20.9431
4.11822	20.3761
4.11495	19.8248
4.11168	19.2508
4.10843	18.662
4.10517	18.1277
4.10192	17.614
4.09868	17.0841
4.09545	16.4936
4.09221	15.9385
4.08899	15.3469
4.08576	14.717
4.08255	14.12
4.07933	13.5086
4.07613	12.9763
4.07292	12.425
4.06973	11.7607
4.06654	11.0827
4.06335	10.4682
4.06017	9.85093
4.05699	9.16663
4.05382	8.39711
4.05065	7.60292
4.04749	6.81417
4.04433	6.02563
4.04118	5.26219
4.03803	4.60554
4.03489	4.05494
4.03175	3.6356
4.02862	3.29317
4.02549	2.97857
4.02237	2.74597
4.01925	2.57189
4.01614	2.40966
4.01303	2.27262
4.00993	2.10586
4.00683	1.94383
4.00373	1.8255
4.00064	1.77621
3.99756	1.79905
3.99448	1.85508
3.9914	1.78179
3.98833	1.65898
3.98527	1.64571
3.98221	1.5797
3.97915	1.59338
3.9761	1.62433
3.97305	1.54812
3.97001	1.56617
3.96697	1.57097
3.96394	1.61145
3.96091	1.65333
3.95789	1.67541
3.95487	1.68567
3.95186	1.74215
3.94885	1.75626
3.94584	1.7768
3.94284	1.84328
3.93984	1.99907
3.93685	2.1475
3.93386	2.21467
3.93088	2.20347
3.9279	2.27087
3.92493	2.28768
3.92196	2.27597
3.919	2.30079
3.91604	2.35385
3.91308	2.36068
3.91013	2.46866
3.90718	2.49677
3.90424	2.52472
3.9013	2.57928
3.89837	2.52048
3.89544	2.52787
3.89252	2.5446
3.8896	2.57724
3.88668	2.68761
3.88377	2.73457
3.88086	2.60729
3.87796	2.5172
3.87506	2.5849
3.87217	2.59862
3.86928	2.64059
3.86639	2.69818
3.86351	2.72
3.86064	2.8009
3.85776	2.82354
3.8549	2.74403
3.85203	2.71111
3.84917	2.73596
3.84631	2.79796
3.84346	2.74841
3.84062	2.84142
3.83777	3.02864
3.83494	3.23901
3.8321	3.53994
3.82927	3.75534
3.82644	3.98237
3.82362	4.2234
3.82081	4.55758
3.81799	5.08347
3.81518	5.67493
3.81238	6.21453
3.80958	6.76757
3.80678	7.48946
3.80399	8.50547
3.8012	9.82949
3.79841	11.3191
3.79563	12.9591
3.79286	14.7176
3.79008	16.4862
3.78731	18.0793
3.78455	19.3367
3.78179	20.4332
3.77903	21.3557
3.77628	22.0639
3.77353	22.7771
3.77079	23.4198
3.76805	23.9529
3.76531	24.4315
3.76258	24.8743
3.75985	25.2851
3.75713	25.5533
3.7544	25.7349
3.75169	25.9576
3.74898	26.226
3.74627	26.4267
3.74356	26.722
3.74086	27.0724
3.73816	27.4163
3.73547	27.8258
3.73278	28.2167
3.7301	28.541
3.72741	28.7164
3.72474	28.8586
3.72206	29.033
3.71939	29.2654
3.71673	29.3899
3.71406	29.4505
3.71141	29.5589
3.70875	29.6161
3.7061	29.6116
3.70345	29.6555
3.70081	29.7475
3.69817	29.7258
3.69553	29.7551
3.6929	29.8467
3.69027	29.8794
3.68765	29.8054
3.68503	29.7785
3.68241	29.8099
3.6798	29.7505
3.67719	29.5466
3.67458	29.4545
3.67198	29.2829
3.66938	29.0782
3.66678	28.9333
3.66419	28.9102
3.66161	28.8943
3.65902	28.8041
3.65644	28.6049
3.65387	28.337
3.65129	28.0748
3.64872	27.8948
3.64616	27.7688
3.64359	27.5526
3.64103	27.3401
3.63848	27.1303
3.63593	26.9186
3.63338	26.7173
3.63084	26.4691
3.6283	26.2387
3.62576	26.0108
3.62322	25.6981
3.62069	25.4386
3.61817	25.2679
3.61564	25.0135
3.61312	24.7024
3.61061	24.3159
3.6081	23.9243
3.60559	23.5824
3.60308	23.1558
3.60058	22.6605
3.59808	22.1233
3.59558	21.6061
3.59309	21.0224
3.59061	20.3417
3.58812	19.6762
3.58564	18.8767
3.58316	17.9247
3.58069	16.9739
3.57822	16.0793
3.57575	15.3122
3.57328	14.7756
3.57082	14.5353
3.56836	14.5742
3.56591	14.7044
3.56346	14.6842
3.56101	14.4879
3.55857	14.2257
3.55613	13.8671
3.55369	13.4486
3.55126	12.905
3.54883	12.2678
3.5464	11.6006
3.54397	10.9439
3.54155	10.3029
3.53914	9.5813
3.53672	8.79156
3.53431	7.96368
3.5319	7.11562
3.5295	6.33831
3.5271	5.58974
3.5247	4.90072
3.52231	4.24428
3.51991	3.7176
3.51753	3.42703
3.51514	3.17429
3.51276	3.00598
3.51038	2.91814
3.50801	2.77027
3.50563	2.58613
3.50327	2.58174
3.5009	2.6599
3.49854	2.59885
3.49618	2.45757
3.49382	2.38846
3.49147	2.28376
3.48912	2.29115
3.48677	2.29439
3.48443	2.21683
3.48209	2.19411
3.47975	2.11584
3.47742	2.10276
3.47509	2.11503
3.47276	2.16768
3.47044	2.38634
3.46812	2.56206
3.4658	2.6124
3.46348	2.73816
