Name: Anorthite (Feldspar) (NaSi,CaAl)AlSi_2O_8
Type: Mineral
Class: Silicates
Subclass: Tectosilicates
Particle Size: 45-125um
Sample No.: TS-5A
Owner: JPL
Wavelength range: IR
Origin: 
Collected by JPL
Description:   





Measurement: Hemispherical reflectance
First Column: X
Second Column: Y
X Units:  Wavelength (micrometers)
Y Units:  Reflectance (percent)
First X Value: 15.3853
Last X Value: 2.00032
Number of X Values: 2256
Additional information: ts05aa.txt
 
15.3853	3.22056
15.3397	2.98839
15.2945	2.57783
15.2495	2.48858
15.2048	2.50115
15.1603	2.48429
15.1161	2.60992
15.0722	2.59625
15.0285	2.59231
14.9851	2.5012
14.9419	2.53277
14.8989	2.57809
14.8563	2.50762
14.8138	2.22318
14.7716	2.29066
14.7296	2.35695
14.6879	2.19354
14.6464	2.13394
14.6052	2.16579
14.5641	2.22734
14.5233	2.18396
14.4828	2.18222
14.4424	2.1011
14.4023	2.02623
14.3624	2.12103
14.3227	2.23775
14.2833	2.11782
14.244	1.91052
14.205	1.82886
14.1662	1.97954
14.1276	2.04345
14.0892	2.08093
14.051	2.0047
14.0131	1.97499
13.9753	2.19598
13.9377	2.48026
13.9004	2.59491
13.8632	2.61036
13.8262	2.59532
13.7895	2.63648
13.7529	2.55765
13.7165	2.40308
13.6803	2.36163
13.6443	2.2174
13.6085	2.11859
13.5729	2.27186
13.5374	2.24476
13.5022	2.08901
13.4671	2.22623
13.4322	2.39324
13.3975	2.39366
13.363	2.44574
13.3286	2.67419
13.2944	2.90904
13.2604	2.98716
13.2266	3.04947
13.193	3.07716
13.1595	2.96559
13.1262	2.75028
13.093	2.55378
13.06	2.45418
13.0272	2.40283
12.9946	2.31638
12.9621	2.34421
12.9298	2.25449
12.8976	2.09352
12.8656	2.16934
12.8337	2.16107
12.8021	1.96887
12.7705	1.91989
12.7391	1.95236
12.7079	2.02998
12.6769	2.20062
12.6459	2.47092
12.6152	2.67221
12.5845	2.78644
12.5541	2.65109
12.5238	2.62582
12.4936	2.75489
12.4635	2.83079
12.4337	2.89401
12.4039	3.02008
12.3743	3.17242
12.3448	3.34825
12.3155	3.52499
12.2863	3.49893
12.2573	3.44599
12.2284	3.43543
12.1996	3.50715
12.171	3.55828
12.1425	3.47187
12.1141	3.58577
12.0859	3.75318
12.0578	3.79902
12.0298	3.88223
12.0019	3.97647
11.9742	4.04685
11.9466	4.21273
11.9192	4.18257
11.8918	4.24038
11.8646	4.3364
11.8375	4.35227
11.8106	4.41003
11.7837	4.36545
11.757	4.41787
11.7304	4.60445
11.7039	4.76506
11.6776	4.89678
11.6513	4.99053
11.6252	5.14578
11.5992	5.24249
11.5733	5.24537
11.5475	5.30808
11.5219	5.39475
11.4963	5.44717
11.4709	5.50809
11.4455	5.69133
11.4203	5.99691
11.3952	6.18987
11.3702	6.34182
11.3454	6.59526
11.3206	6.88886
11.2959	7.1834
11.2714	7.56758
11.2469	7.95306
11.2226	8.25076
11.1983	8.66482
11.1742	9.05882
11.1502	9.31473
11.1263	9.51912
11.1024	9.82019
11.0787	10.0799
11.0551	10.253
11.0316	10.4997
11.0081	10.8074
10.9848	11.0214
10.9616	11.1689
10.9385	11.182
10.9154	11.0918
10.8925	11.1364
10.8697	11.3468
10.8469	11.5459
10.8243	11.7853
10.8017	11.9972
10.7793	12.2201
10.7569	12.4447
10.7346	12.5179
10.7125	12.5876
10.6904	12.6089
10.6684	12.5262
10.6465	12.5364
10.6247	12.5893
10.6029	12.5601
10.5813	12.5142
10.5597	12.6307
10.5383	12.6728
10.5169	12.4256
10.4956	12.2129
10.4744	12.1121
10.4533	11.8852
10.4323	11.5681
10.4113	11.2516
10.3904	10.8747
10.3697	10.3819
10.349	9.99936
10.3284	9.81465
10.3078	9.56246
10.2874	9.20037
10.267	8.82703
10.2467	8.56567
10.2265	8.36965
10.2064	8.17555
10.1863	8.23819
10.1663	8.41116
10.1464	8.44913
10.1266	8.37782
10.1069	8.34333
10.0872	8.20464
10.0676	7.97415
10.0481	7.88644
10.0287	7.7777
10.0093	7.516
9.99005	7.48156
9.97084	7.41899
9.95169	7.26004
9.93263	7.17906
9.91364	7.12082
9.89472	7.19689
9.87587	7.35057
9.8571	7.39767
9.83839	7.4757
9.81976	7.7873
9.80119	7.92973
9.78271	7.93581
9.76428	7.98491
9.74592	7.98815
9.72764	8.00422
9.70943	8.00179
9.69128	7.96343
9.6732	7.95815
9.65518	7.7436
9.63724	7.42102
9.61935	7.16107
9.60155	6.97949
9.5838	6.66593
9.56611	6.21992
9.5485	5.75134
9.53094	5.29228
9.51345	4.98913
9.49604	4.76747
9.47867	4.53893
9.46137	4.32762
9.44414	4.11271
9.42697	3.95575
9.40986	3.83813
9.39281	3.7098
9.37583	3.72141
9.35891	3.68945
9.34204	3.62368
9.32524	3.60638
9.3085	3.68011
9.29182	3.8818
9.27519	3.94025
9.25863	3.91443
9.24213	3.9101
9.22568	4.00139
9.2093	4.1265
9.19297	4.17312
9.17669	4.32957
9.16048	4.6425
9.14433	4.92637
9.12823	5.2318
9.11218	5.45994
9.0962	5.57079
9.08027	5.62509
9.06439	5.85728
9.04858	6.00206
9.03281	6.00244
9.0171	6.01884
9.00145	6.02022
8.98585	6.12219
8.9703	6.29093
8.9548	6.35278
8.93937	6.32831
8.92398	6.26232
8.90865	6.31785
8.89337	6.38793
8.87814	6.31965
8.86296	6.17895
8.84784	6.27669
8.83277	6.52656
8.81774	6.69922
8.80277	6.80657
8.78786	6.91766
8.77298	7.0058
8.75816	7.17068
8.7434	7.21135
8.72868	7.18881
8.714	7.21718
8.69938	7.12372
8.68481	6.9028
8.67029	6.7933
8.65581	6.7554
8.64139	6.63499
8.62701	6.67286
8.61268	6.75658
8.5984	6.47959
8.58416	6.11
8.56997	5.87758
8.55583	5.58667
8.54174	5.42035
8.52769	5.15952
8.51368	4.85124
8.49973	4.66685
8.48582	4.47227
8.47195	4.26418
8.45813	4.04042
8.44436	3.78061
8.43062	3.36625
8.41693	2.89728
8.4033	2.81457
8.3897	2.70738
8.37614	2.37496
8.36264	2.12915
8.34917	2.06874
8.33574	1.8635
8.32236	1.59663
8.30903	1.33339
8.29573	1.02897
8.28248	0.900724
8.26927	0.790251
8.2561	0.650643
8.24298	0.437943
8.2299	0.340613
8.21685	0.360879
8.20385	0.427582
8.19089	0.369635
8.17797	0.280326
8.16509	0.226863
8.15225	0.28671
8.13946	0.308356
8.1267	0.387772
8.11398	0.421028
8.10131	0.255188
8.08867	0.211367
8.07606	0.326001
8.0635	0.370628
8.05099	0.340409
8.0385	0.27801
8.02606	0.338104
8.01366	0.345253
8.00129	0.258783
7.98896	0.250488
7.97667	0.356977
7.96442	0.329613
7.9522	0.325567
7.94002	0.368942
7.92788	0.395792
7.91578	0.457468
7.90371	0.500666
7.89168	0.491253
7.87969	0.474728
7.86773	0.493725
7.85581	0.652982
7.84392	0.700357
7.83207	0.719009
7.82026	0.760693
7.80849	0.814022
7.79674	0.833375
7.78503	0.789
7.77337	0.744653
7.76173	0.768186
7.75012	0.828282
7.73856	0.930419
7.72703	0.997546
7.71553	0.969442
7.70406	1.0418
7.69263	1.18896
7.68123	1.18234
7.66987	1.15676
7.65855	1.2018
7.64725	1.24102
7.63598	1.27716
7.62475	1.42031
7.61356	1.44462
7.60239	1.26512
7.59126	1.2193
7.58017	1.36093
7.5691	1.53594
7.55806	1.62769
7.54707	1.65789
7.5361	1.72959
7.52516	1.7361
7.51425	1.81304
7.50338	1.91817
7.49253	1.9664
7.48172	1.97117
7.47094	2.02241
7.46019	2.06295
7.44947	2.13032
7.43879	2.20682
7.42813	2.26341
7.4175	2.24328
7.4069	2.11561
7.39634	2.1092
7.3858	2.23391
7.37529	2.3079
7.36482	2.4367
7.35437	2.49899
7.34396	2.50842
7.33357	2.61271
7.32321	2.65662
7.31288	2.66463
7.30258	2.69629
7.29231	2.74633
7.28207	2.85307
7.27185	2.93197
7.26167	2.89036
7.25152	2.86001
7.24139	2.85874
7.23129	2.93869
7.22122	3.09847
7.21117	3.2008
7.20116	3.22488
7.19117	3.2202
7.18121	3.2744
7.17128	3.30394
7.16137	3.30718
7.1515	3.3943
7.14164	3.46223
7.13182	3.46854
7.12203	3.53952
7.11225	3.58911
7.10251	3.62756
7.0928	3.59593
7.08311	3.58091
7.07344	3.6325
7.06381	3.72271
7.0542	3.80016
7.04461	3.8643
7.03506	3.84417
7.02552	3.82787
7.01601	3.82105
7.00653	3.85447
6.99708	3.94316
6.98765	4.02059
6.97824	4.06581
6.96886	4.08668
6.95951	4.09566
6.95018	4.15457
6.94087	4.17676
6.9316	4.18309
6.92234	4.19421
6.91311	4.22413
6.90391	4.20085
6.89473	4.12206
6.88557	4.1013
6.87644	4.19166
6.86733	4.31414
6.85824	4.28101
6.84918	4.24642
6.84015	4.34793
6.83114	4.35818
6.82215	4.37411
6.81319	4.38309
6.80424	4.32075
6.79532	4.38425
6.78643	4.51064
6.77756	4.48134
6.76871	4.46728
6.75989	4.48731
6.75109	4.51382
6.74231	4.57485
6.73355	4.58006
6.72482	4.59604
6.71611	4.65779
6.70742	4.67379
6.69875	4.58079
6.69011	4.52954
6.68149	4.52735
6.67289	4.55504
6.66431	4.62023
6.65576	4.6239
6.64722	4.60481
6.63871	4.64728
6.63022	4.64634
6.62175	4.70211
6.61331	4.70437
6.60488	4.68085
6.59648	4.72288
6.5881	4.65387
6.57974	4.66927
6.5714	4.72001
6.56308	4.71071
6.55478	4.72354
6.54651	4.80124
6.53825	4.85915
6.53001	4.84168
6.5218	4.81051
6.51361	4.86998
6.50544	4.92906
6.49729	5.03748
6.48915	5.04473
6.48104	5.00588
6.47295	4.94575
6.46488	4.89697
6.45683	4.92426
6.4488	4.97951
6.44079	4.94752
6.4328	4.92725
6.42482	5.02655
6.41687	5.15746
6.40894	5.21318
6.40103	5.12057
6.39314	4.99082
6.38526	4.94891
6.37741	4.89949
6.36957	4.91832
6.36176	4.95725
6.35396	4.90211
6.34618	4.9483
6.33843	5.01146
6.33069	4.9232
6.32297	4.77997
6.31527	4.73735
6.30758	4.86507
6.29992	4.92375
6.29227	4.90138
6.28465	4.90057
6.27704	4.91131
6.26945	4.89211
6.26188	4.79394
6.25432	4.79994
6.24679	4.9454
6.23927	4.92163
6.23177	4.85035
6.22429	4.84984
6.21683	4.89645
6.20938	4.86492
6.20195	4.77768
6.19454	4.7202
6.18715	4.78293
6.17978	4.86368
6.17242	4.77698
6.16508	4.69828
6.15776	4.70101
6.15045	4.64177
6.14317	4.63014
6.1359	4.68275
6.12864	4.75187
6.12141	4.78308
6.11419	4.79741
6.10699	4.7481
6.0998	4.71584
6.09263	4.73412
6.08549	4.71538
6.07835	4.69506
6.07123	4.70987
6.06413	4.70776
6.05705	4.7739
6.04998	4.85417
6.04293	4.80807
6.0359	4.75326
6.02888	4.75319
6.02187	4.80142
6.01489	4.89557
6.00792	4.95615
6.00096	4.9643
5.99403	5.03534
5.98711	5.16818
5.9802	5.25596
5.97331	5.3133
5.96644	5.39397
5.95958	5.45141
5.95274	5.52495
5.94591	5.7131
5.9391	6.00449
5.9323	6.12689
5.92552	6.09892
5.91876	6.15346
5.91201	6.28336
5.90528	6.38315
5.89856	6.50477
5.89186	6.61418
5.88517	6.82025
5.8785	6.95571
5.87184	7.02386
5.8652	7.2007
5.85857	7.33645
5.85196	7.38972
5.84536	7.50315
5.83878	7.69681
5.83221	7.85916
5.82566	8.03976
5.81912	8.21745
5.81259	8.32845
5.80608	8.34128
5.79959	8.39248
5.79311	8.50939
5.78665	8.67647
5.78019	8.89864
5.77376	9.03487
5.76734	9.13198
5.76093	9.20875
5.75453	9.23865
5.74815	9.33897
5.74179	9.47924
5.73543	9.61319
5.7291	9.60779
5.72277	9.66843
5.71646	9.855
5.71017	9.88023
5.70389	9.85973
5.69762	9.87887
5.69136	9.87072
5.68513	9.84807
5.6789	9.99318
5.67268	10.1172
5.66648	10.1254
5.6603	10.1709
5.65413	10.1809
5.64797	10.2761
5.64182	10.3922
5.63569	10.3844
5.62957	10.4152
5.62347	10.4861
5.61737	10.6005
5.61129	10.6536
5.60522	10.6845
5.59917	10.7017
5.59313	10.7328
5.5871	10.726
5.58109	10.7186
5.57509	10.7619
5.5691	10.7862
5.56312	10.8082
5.55716	10.8069
5.55121	10.8019
5.54528	10.735
5.53935	10.6546
5.53344	10.558
5.52754	10.4737
5.52166	10.4906
5.51578	10.4398
5.50992	10.4155
5.50407	10.3579
5.49823	10.2838
5.49241	10.2478
5.4866	10.2247
5.4808	10.1944
5.47501	10.2322
5.46923	10.2803
5.46347	10.2563
5.45772	10.2713
5.45198	10.311
5.44625	10.3107
5.44054	10.396
5.43484	10.4233
5.42914	10.4195
5.42347	10.4863
5.4178	10.5736
5.41214	10.7391
5.4065	10.9717
5.40087	11.0582
5.39525	11.151
5.38964	11.3991
5.38404	11.5863
5.37846	11.6951
5.37288	11.8873
5.36732	12.06
5.36177	12.1238
5.35623	12.1847
5.35071	12.3511
5.34519	12.5195
5.33968	12.7081
5.33419	12.8259
5.32871	12.8631
5.32324	12.911
5.31778	13.0156
5.31233	13.1379
5.30689	13.2568
5.30147	13.3916
5.29605	13.5451
5.29065	13.6696
5.28525	13.7832
5.27987	13.9429
5.2745	14.0415
5.26914	14.19
5.26379	14.3638
5.25845	14.5439
5.25312	14.7312
5.24781	14.8655
5.2425	14.9424
5.23721	15.0431
5.23192	15.2038
5.22665	15.3218
5.22138	15.4092
5.21613	15.6129
5.21089	15.7379
5.20566	15.7892
5.20044	15.9054
5.19522	16.0319
5.19002	16.0557
5.18483	16.1355
5.17965	16.324
5.17448	16.57
5.16933	16.7721
5.16418	16.9269
5.15904	17.0452
5.15391	17.2088
5.14879	17.3073
5.14368	17.4186
5.13859	17.6499
5.1335	17.933
5.12842	18.1124
5.12335	18.2856
5.1183	18.4022
5.11325	18.5333
5.10821	18.733
5.10318	18.8973
5.09817	18.9539
5.09316	19.0499
5.08816	19.2229
5.08317	19.3848
5.07819	19.438
5.07322	19.4705
5.06826	19.6075
5.06331	19.7759
5.05837	19.9794
5.05344	20.0858
5.04852	20.1214
5.04361	20.1492
5.03871	20.2538
5.03382	20.4528
5.02894	20.6002
5.02406	20.7999
5.0192	21.0056
5.01435	21.2395
5.0095	21.4736
5.00467	21.6468
4.99984	21.8706
4.99502	22.0603
4.99021	22.24
4.98542	22.4156
4.98063	22.5276
4.97585	22.6264
4.97108	22.7275
4.96632	22.8353
4.96156	23.0148
4.95682	23.1948
4.95209	23.2877
4.94736	23.3175
4.94264	23.3871
4.93794	23.4605
4.93324	23.5463
4.92855	23.6263
4.92387	23.648
4.9192	23.7007
4.91453	23.824
4.90988	23.9089
4.90524	23.9451
4.9006	24.0763
4.89597	24.2361
4.89135	24.3596
4.88674	24.4742
4.88214	24.6213
4.87755	24.7716
4.87296	24.9188
4.86839	25.0665
4.86382	25.1698
4.85926	25.2441
4.85471	25.3436
4.85017	25.3736
4.84564	25.3729
4.84111	25.4196
4.8366	25.552
4.83209	25.6055
4.82759	25.636
4.8231	25.7372
4.81862	25.8562
4.81415	25.9732
4.80968	26.1698
4.80522	26.3247
4.80077	26.4186
4.79633	26.513
4.7919	26.5953
4.78747	26.5824
4.78306	26.6432
4.77865	26.7614
4.77425	26.8758
4.76986	26.9301
4.76547	27.0757
4.7611	27.2542
4.75673	27.3542
4.75237	27.4383
4.74802	27.6466
4.74367	27.8398
4.73934	28.041
4.73501	28.2271
4.73069	28.3908
4.72638	28.587
4.72207	28.7061
4.71777	28.8171
4.71348	28.9153
4.7092	28.9353
4.70493	28.9537
4.70066	28.9385
4.69641	28.8944
4.69216	28.8667
4.68791	28.9302
4.68368	28.8948
4.67945	28.7265
4.67523	28.6256
4.67102	28.6092
4.66682	28.4987
4.66262	28.4513
4.65843	28.4305
4.65425	28.4675
4.65007	28.4729
4.64591	28.4654
4.64175	28.5106
4.6376	28.6746
4.63345	28.8652
4.62932	28.9906
4.62519	29.1875
4.62106	29.5007
4.61695	29.7941
4.61284	30.0739
4.60874	30.3991
4.60465	30.8015
4.60056	31.2054
4.59648	31.5894
4.59241	32.0224
4.58835	32.5247
4.58429	33.033
4.58024	33.5402
4.5762	34.0033
4.57216	34.3752
4.56814	34.7449
4.56411	35.2093
4.5601	35.6702
4.55609	36.0149
4.55209	36.2472
4.5481	36.4904
4.54411	36.7016
4.54013	36.9388
4.53616	37.1942
4.5322	37.4124
4.52824	37.6417
4.52429	37.8959
4.52034	38.0956
4.51641	38.2772
4.51247	38.4005
4.50855	38.5229
4.50463	38.6711
4.50072	38.7845
4.49682	38.9297
4.49292	39.118
4.48903	39.2328
4.48515	39.3009
4.48127	39.4387
4.4774	39.6593
4.47354	39.8465
4.46968	39.9072
4.46584	40.0477
4.46199	40.234
4.45815	40.403
4.45432	40.5738
4.4505	40.8097
4.44668	41.0038
4.44287	41.2176
4.43907	41.4113
4.43527	41.562
4.43148	41.7229
4.4277	41.868
4.42392	42.0546
4.42015	42.3148
4.41638	42.5129
4.41262	42.639
4.40887	42.7713
4.40513	42.9472
4.40139	43.2157
4.39765	43.396
4.39393	43.4723
4.39021	43.6084
4.38649	43.8743
4.38278	44.1269
4.37908	44.3321
4.37539	44.5381
4.3717	44.7697
4.36801	44.967
4.36434	45.1453
4.36067	45.351
4.357	45.5837
4.35335	45.8241
4.34969	45.953
4.34605	46.0984
4.34241	46.3235
4.33877	46.515
4.33514	46.643
4.33152	46.7294
4.32791	46.867
4.3243	47.1156
4.32069	47.3067
4.3171	47.4013
4.31351	47.5522
4.30992	47.6969
4.30634	47.81
4.30277	47.9316
4.2992	48.1144
4.29564	48.3254
4.29208	48.4545
4.28853	48.6286
4.28499	48.912
4.28145	49.2461
4.27792	49.4976
4.27439	49.7417
4.27087	50.0438
4.26735	50.3655
4.26384	50.7258
4.26034	51.1569
4.25684	51.5001
4.25335	51.515
4.24986	51.3015
4.24638	51.1481
4.24291	51.101
4.23944	51.1251
4.23598	51.1267
4.23252	51.1958
4.22906	51.4343
4.22562	51.6666
4.22218	51.8134
4.21874	52.0784
4.21531	52.3782
4.21189	52.6816
4.20847	52.9342
4.20506	53.0687
4.20165	53.2713
4.19825	53.4731
4.19485	53.5668
4.19146	53.6796
4.18807	53.7574
4.18469	53.7738
4.18132	53.8299
4.17795	53.9065
4.17458	53.9033
4.17123	53.9538
4.16787	54.0848
4.16453	54.1844
4.16118	54.3214
4.15785	54.4003
4.15451	54.4066
4.15119	54.4132
4.14787	54.4922
4.14455	54.584
4.14124	54.6332
4.13794	54.7246
4.13464	54.767
4.13134	54.8004
4.12805	54.8532
4.12477	54.8747
4.12149	54.9041
4.11822	54.9223
4.11495	54.9767
4.11168	55.0506
4.10843	55.093
4.10517	55.131
4.10192	55.1832
4.09868	55.1216
4.09545	55.1069
4.09221	55.1898
4.08899	55.297
4.08576	55.3328
4.08255	55.2879
4.07933	55.2442
4.07613	55.2389
4.07292	55.2413
4.06973	55.273
4.06654	55.2575
4.06335	55.2137
4.06017	55.2258
4.05699	55.2087
4.05382	55.1975
4.05065	55.1792
4.04749	55.2007
4.04433	55.2318
4.04118	55.2039
4.03803	55.0691
4.03489	55.0303
4.03175	55.1282
4.02862	55.1314
4.02549	55.085
4.02237	55.2131
4.01925	55.2835
4.01614	55.2151
4.01303	55.1966
4.00993	55.2295
4.00683	55.223
4.00373	55.2407
4.00064	55.2103
3.99756	55.1106
3.99448	55.095
3.9914	55.0765
3.98833	55.0718
3.98527	55.0519
3.98221	55.0712
3.97915	55.0996
3.9761	55.0899
3.97305	55.1036
3.97001	55.1564
3.96697	55.1636
3.96394	55.1493
3.96091	55.1104
3.95789	55.1489
3.95487	55.2233
3.95186	55.2635
3.94885	55.2144
3.94584	55.14
3.94284	55.186
3.93984	55.1454
3.93685	55.1207
3.93386	55.1419
3.93088	55.1096
3.9279	55.06
3.92493	55.0484
3.92196	55.0064
3.919	54.9861
3.91604	54.9256
3.91308	54.7958
3.91013	54.7234
3.90718	54.7059
3.90424	54.7164
3.9013	54.7764
3.89837	54.7445
3.89544	54.6018
3.89252	54.4504
3.8896	54.4045
3.88668	54.3646
3.88377	54.3063
3.88086	54.2482
3.87796	54.2449
3.87506	54.2271
3.87217	54.168
3.86928	54.144
3.86639	54.0994
3.86351	54.0058
3.86064	53.9216
3.85776	53.9071
3.8549	53.8558
3.85203	53.8352
3.84917	53.7419
3.84631	53.6288
3.84346	53.5871
3.84062	53.5665
3.83777	53.4637
3.83494	53.3929
3.8321	53.3224
3.82927	53.2302
3.82644	53.2398
3.82362	53.2313
3.82081	53.0896
3.81799	53.0322
3.81518	52.9515
3.81238	52.8165
3.80958	52.7205
3.80678	52.6605
3.80399	52.5751
3.8012	52.5022
3.79841	52.4214
3.79563	52.3772
3.79286	52.278
3.79008	52.1407
3.78731	52.0647
3.78455	51.9942
3.78179	51.9282
3.77903	51.9181
3.77628	51.8727
3.77353	51.7403
3.77079	51.5905
3.76805	51.451
3.76531	51.3518
3.76258	51.321
3.75985	51.2293
3.75713	51.0603
3.7544	50.8714
3.75169	50.8285
3.74898	50.8273
3.74627	50.7303
3.74356	50.5727
3.74086	50.4902
3.73816	50.4555
3.73547	50.3523
3.73278	50.3061
3.7301	50.1893
3.72741	50.0632
3.72474	50.0299
3.72206	49.9836
3.71939	49.9343
3.71673	49.8806
3.71406	49.8106
3.71141	49.6689
3.70875	49.5429
3.7061	49.5263
3.70345	49.4501
3.70081	49.3732
3.69817	49.2994
3.69553	49.1664
3.6929	49.0948
3.69027	49.0335
3.68765	48.9398
3.68503	48.8391
3.68241	48.8216
3.6798	48.7215
3.67719	48.6006
3.67458	48.534
3.67198	48.4728
3.66938	48.3392
3.66678	48.2857
3.66419	48.1608
3.66161	47.9568
3.65902	47.9018
3.65644	47.833
3.65387	47.7586
3.65129	47.7227
3.64872	47.6653
3.64616	47.6118
3.64359	47.5904
3.64103	47.5063
3.63848	47.3726
3.63593	47.2542
3.63338	47.1479
3.63084	47.0628
3.6283	46.9559
3.62576	46.8591
3.62322	46.7293
3.62069	46.6434
3.61817	46.5491
3.61564	46.4304
3.61312	46.3729
3.61061	46.2938
3.6081	46.1962
3.60559	46.1171
3.60308	45.9846
3.60058	45.8839
3.59808	45.7953
3.59558	45.6749
3.59309	45.5612
3.59061	45.4651
3.58812	45.3824
3.58564	45.2829
3.58316	45.2488
3.58069	45.1132
3.57822	44.9357
3.57575	44.8742
3.57328	44.7939
3.57082	44.6665
3.56836	44.4703
3.56591	44.2367
3.56346	44.2038
3.56101	44.0917
3.55857	43.9144
3.55613	43.7746
3.55369	43.6651
3.55126	43.5901
3.54883	43.4552
3.5464	43.234
3.54397	43.0521
3.54155	42.9712
3.53914	42.8446
3.53672	42.6969
3.53431	42.6467
3.5319	42.4862
3.5295	42.3056
3.5271	42.1188
3.5247	41.9796
3.52231	41.8723
3.51991	41.7993
3.51753	41.648
3.51514	41.3733
3.51276	41.1536
3.51038	40.953
3.50801	40.7246
3.50563	40.568
3.50327	40.4155
3.5009	40.3476
3.49854	40.2596
3.49618	40.1361
3.49382	39.9775
3.49147	39.8646
3.48912	39.8165
3.48677	39.7114
3.48443	39.6372
3.48209	39.5919
3.47975	39.5343
3.47742	39.3127
3.47509	39.1566
3.47276	39.0733
3.47044	38.995
3.46812	38.9322
