Name: Epidote Ca_2(Al,Fe^3+)_3O.SiO_4.Si_2O_7.OH
Type: Mineral
Class: Silicates
Subclass: Sorosilicate
Particle Size: 0-45um
Sample No.: SS-1A
Owner: JPL
Wavelength range: IR
Origin: Mexico, Baja California Norte, Valle De La Trinidad
Collected by Burminco
Description: 





Measurement: Hemispherical reflectance
First Column: X
Second Column: Y
X Units:  Wavelength (micrometers)
Y Units:  Reflectance (percent)
First X Value: 15.3853
Last X Value: 2.00032
Number of X Values: 2256
Additional information: ss01aa.txt
 
15.3853	7.0632
15.3397	6.93216
15.2945	6.97427
15.2495	6.95314
15.2048	6.72537
15.1603	6.26797
15.1161	6.00426
15.0722	5.96839
15.0285	5.89592
14.9851	5.78432
14.9419	5.62045
14.8989	5.24321
14.8563	5.07933
14.8138	4.85985
14.7716	4.57884
14.7296	4.66919
14.6879	4.72747
14.6464	4.57266
14.6052	4.61442
14.5641	4.56447
14.5233	4.57213
14.4828	4.76997
14.4424	4.84134
14.4023	4.67099
14.3624	4.37158
14.3227	4.32466
14.2833	4.19564
14.244	3.90916
14.205	3.6561
14.1662	3.67751
14.1276	3.59567
14.0892	3.64692
14.051	3.62311
14.0131	3.47953
13.9753	3.43619
13.9377	3.29092
13.9004	3.21277
13.8632	3.30903
13.8262	3.26338
13.7895	3.02364
13.7529	2.75419
13.7165	2.96476
13.6803	3.26517
13.6443	3.65027
13.6085	4.08559
13.5729	4.38091
13.5374	4.66257
13.5022	4.90715
13.4671	5.2017
13.4322	5.57173
13.3975	5.80228
13.363	6.06238
13.3286	6.444
13.2944	6.7221
13.2604	6.90417
13.2266	6.96643
13.193	7.04603
13.1595	7.27329
13.1262	7.55806
13.093	7.73204
13.06	7.84134
13.0272	7.96907
12.9946	8.04584
12.9621	8.18243
12.9298	8.43588
12.8976	8.47971
12.8656	8.48948
12.8337	8.56111
12.8021	8.65067
12.7705	8.86602
12.7391	8.89872
12.7079	8.80136
12.6769	8.89073
12.6459	9.01224
12.6152	8.92003
12.5845	8.82842
12.5541	8.63978
12.5238	8.29798
12.4936	8.20092
12.4635	8.15934
12.4337	7.90968
12.4039	7.60664
12.3743	7.52068
12.3448	7.42821
12.3155	7.43986
12.2863	7.47215
12.2573	7.38552
12.2284	7.26559
12.1996	7.05553
12.171	6.95378
12.1425	6.8794
12.1141	6.74225
12.0859	6.63314
12.0578	6.46146
12.0298	6.39511
12.0019	6.36902
11.9742	6.26402
11.9466	6.05339
11.9192	5.96105
11.8918	5.92085
11.8646	5.84987
11.8375	5.83674
11.8106	6.00902
11.7837	6.07938
11.757	6.0788
11.7304	6.21493
11.7039	6.26292
11.6776	6.33969
11.6513	6.39774
11.6252	6.4194
11.5992	6.30639
11.5733	6.16551
11.5475	6.05947
11.5219	6.07482
11.4963	6.32502
11.4709	6.73651
11.4455	7.12629
11.4203	7.60561
11.3952	8.15153
11.3702	8.58252
11.3454	8.88306
11.3206	9.00251
11.2959	9.12588
11.2714	9.23455
11.2469	9.12559
11.2226	9.02815
11.1983	8.92424
11.1742	8.67201
11.1502	8.40176
11.1263	8.23313
11.1024	7.94734
11.0787	7.74834
11.0551	7.57139
11.0316	7.26647
11.0081	7.08882
10.9848	6.82528
10.9616	6.61419
10.9385	6.51865
10.9154	6.42667
10.8925	6.2618
10.8697	6.04535
10.8469	5.86854
10.8243	5.86133
10.8017	5.97747
10.7793	6.08072
10.7569	6.3412
10.7346	6.79937
10.7125	7.28047
10.6904	7.67129
10.6684	8.09987
10.6465	8.5242
10.6247	9.01411
10.6029	9.57676
10.5813	10.0954
10.5597	10.6092
10.5383	11.2076
10.5169	11.7643
10.4956	12.2288
10.4744	12.4698
10.4533	12.5637
10.4323	12.5756
10.4113	12.6025
10.3904	12.5533
10.3697	12.4446
10.349	12.3393
10.3284	12.1901
10.3078	11.9339
10.2874	11.6256
10.267	11.4159
10.2467	11.1926
10.2265	10.7946
10.2064	10.4381
10.1863	10.226
10.1663	10.1116
10.1464	10.0696
10.1266	9.86098
10.1069	9.52282
10.0872	9.24535
10.0676	8.84871
10.0481	8.18274
10.0287	7.51937
10.0093	6.80392
9.99005	6.01588
9.97084	5.2294
9.95169	4.52987
9.93263	3.76941
9.91364	3.03865
9.89472	2.63874
9.87587	2.41319
9.8571	2.30735
9.83839	2.19507
9.81976	2.14459
9.80119	2.33264
9.78271	2.52647
9.76428	2.72971
9.74592	2.89676
9.72764	3.12885
9.70943	3.40961
9.69128	3.95333
9.6732	4.60937
9.65518	5.08904
9.63724	5.56077
9.61935	5.90471
9.60155	6.09155
9.5838	6.29029
9.56611	6.56081
9.5485	6.74785
9.53094	6.79276
9.51345	6.97527
9.49604	7.28474
9.47867	7.51736
9.46137	7.58607
9.44414	7.61425
9.42697	7.51122
9.40986	7.23101
9.39281	7.12953
9.37583	7.0274
9.35891	6.74847
9.34204	6.51891
9.32524	6.32145
9.3085	6.24009
9.29182	6.17046
9.27519	6.13186
9.25863	6.15948
9.24213	6.17734
9.22568	6.20056
9.2093	6.16674
9.19297	6.2294
9.17669	6.19221
9.16048	6.0455
9.14433	5.98324
9.12823	6.04725
9.11218	5.92349
9.0962	5.92916
9.08027	5.95971
9.06439	5.86873
9.04858	5.82513
9.03281	5.91786
9.0171	6.02578
9.00145	6.03528
8.98585	6.12719
8.9703	6.28983
8.9548	6.31779
8.93937	6.20024
8.92398	6.03476
8.90865	5.85161
8.89337	5.83223
8.87814	5.80285
8.86296	5.70728
8.84784	5.54706
8.83277	5.45152
8.81774	5.43464
8.80277	5.28419
8.78786	5.18522
8.77298	5.16138
8.75816	5.029
8.7434	4.75917
8.72868	4.40635
8.714	4.04768
8.69938	3.73879
8.68481	3.40368
8.67029	3.23131
8.65581	2.92995
8.64139	2.59648
8.62701	2.43184
8.61268	2.33033
8.5984	2.20501
8.58416	2.15367
8.56997	2.12429
8.55583	2.22684
8.54174	2.16346
8.52769	2.11434
8.51368	2.25925
8.49973	2.40083
8.48582	2.4072
8.47195	2.37228
8.45813	2.3529
8.44436	2.32651
8.43062	2.50469
8.41693	2.67925
8.4033	2.66721
8.3897	2.73212
8.37614	2.8944
8.36264	3.00314
8.34917	3.15235
8.33574	3.38188
8.32236	3.51778
8.30903	3.70299
8.29573	3.88397
8.28248	4.02004
8.26927	4.18494
8.2561	4.29779
8.24298	4.49714
8.2299	4.68866
8.21685	4.93352
8.20385	5.22833
8.19089	5.3845
8.17797	5.55915
8.16509	5.73524
8.15225	5.85593
8.13946	5.99977
8.1267	6.17076
8.11398	6.31774
8.10131	6.46717
8.08867	6.67321
8.07606	6.89577
8.0635	6.92815
8.05099	7.06831
8.0385	7.33057
8.02606	7.51652
8.01366	7.65187
8.00129	7.86309
7.98896	8.05937
7.97667	8.16354
7.96442	8.34972
7.9522	8.57787
7.94002	8.63239
7.92788	8.71216
7.91578	8.96975
7.90371	9.20963
7.89168	9.4269
7.87969	9.6679
7.86773	9.84492
7.85581	9.98791
7.84392	10.2201
7.83207	10.3859
7.82026	10.5226
7.80849	10.8187
7.79674	11.1573
7.78503	11.3093
7.77337	11.4784
7.76173	11.7939
7.75012	12.0479
7.73856	12.2403
7.72703	12.5682
7.71553	12.9257
7.70406	13.1879
7.69263	13.3994
7.68123	13.6096
7.66987	13.8296
7.65855	14.0591
7.64725	14.2913
7.63598	14.5741
7.62475	14.8679
7.61356	15.1735
7.60239	15.4588
7.59126	15.7293
7.58017	16.0098
7.5691	16.2874
7.55806	16.4417
7.54707	16.5432
7.5361	16.7938
7.52516	17.1005
7.51425	17.3331
7.50338	17.541
7.49253	17.7375
7.48172	17.9944
7.47094	18.2247
7.46019	18.2738
7.44947	18.3636
7.43879	18.533
7.42813	18.6916
7.4175	18.9086
7.4069	19.1334
7.39634	19.3249
7.3858	19.4352
7.37529	19.5252
7.36482	19.6943
7.35437	19.899
7.34396	20.1113
7.33357	20.2528
7.32321	20.2529
7.31288	20.3719
7.30258	20.491
7.29231	20.5828
7.28207	20.8112
7.27185	20.9645
7.26167	21.0294
7.25152	21.1671
7.24139	21.2345
7.23129	21.2789
7.22122	21.4445
7.21117	21.7302
7.20116	21.7483
7.19117	21.6348
7.18121	21.7911
7.17128	22.0346
7.16137	21.9326
7.1515	21.9357
7.14164	21.9346
7.13182	21.865
7.12203	21.9414
7.11225	22.0418
7.10251	22.0614
7.0928	22.1101
7.08311	22.223
7.07344	22.336
7.06381	22.5517
7.0542	23.0759
7.04461	23.5176
7.03506	23.2456
7.02552	23.1538
7.01601	23.2601
7.00653	23.3883
6.99708	23.6324
6.98765	23.736
6.97824	23.7681
6.96886	24.191
6.95951	24.5945
6.95018	24.1803
6.94087	24.0439
6.9316	24.0909
6.92234	24.2084
6.91311	24.4832
6.90391	24.6662
6.89473	24.4972
6.88557	24.6345
6.87644	25.1583
6.86733	26.1994
6.85824	26.1473
6.84918	25.3313
6.84015	25.1774
6.83114	25.5605
6.82215	25.6628
6.81319	25.381
6.80424	25.5552
6.79532	26.2801
6.78643	26.5368
6.77756	26.1988
6.76871	25.9632
6.75989	25.8536
6.75109	26.0946
6.74231	26.2384
6.73355	26.3686
6.72482	26.6341
6.71611	26.8826
6.70742	26.8448
6.69875	26.6181
6.69011	26.9905
6.68149	27.4453
6.67289	27.1965
6.66431	26.8074
6.65576	26.7158
6.64722	27.4953
6.63871	28.614
6.63022	28.1698
6.62175	27.3586
6.61331	27.3009
6.60488	27.3377
6.59648	27.5807
6.5881	27.7937
6.57974	28.1853
6.5714	28.6231
6.56308	28.1415
6.55478	28.0171
6.54651	27.91
6.53825	27.7306
6.53001	27.8648
6.5218	28.3262
6.51361	28.128
6.50544	28.4622
6.49729	29.8108
6.48915	29.9809
6.48104	29.2818
6.47295	28.839
6.46488	28.5163
6.45683	28.6057
6.4488	28.8129
6.44079	29.1021
6.4328	29.5885
6.42482	30.1614
6.41687	31.6081
6.40894	31.3672
6.40103	29.8813
6.39314	29.6233
6.38526	29.761
6.37741	30.0851
6.36957	30.4537
6.36176	30.0519
6.35396	30.1555
6.34618	30.9958
6.33843	30.6177
6.33069	29.9306
6.32297	29.9057
6.31527	29.8307
6.30758	29.7254
6.29992	29.6872
6.29227	29.7393
6.28465	29.7436
6.27704	29.778
6.26945	29.7489
6.26188	29.5219
6.25432	29.4043
6.24679	29.4576
6.23927	29.4489
6.23177	29.3846
6.22429	29.3732
6.21683	29.3802
6.20938	29.2579
6.20195	29.1135
6.19454	29.3449
6.18715	30.1089
6.17978	29.731
6.17242	29.0035
6.16508	29.1558
6.15776	29.0908
6.15045	28.6732
6.14317	28.5569
6.1359	28.2642
6.12864	27.9195
6.12141	28.2274
6.11419	28.8529
6.10699	28.2241
6.0998	27.4037
6.09263	27.1883
6.08549	27.0975
6.07835	27.5536
6.07123	27.7318
6.06413	27.0856
6.05705	27.4508
6.04998	28.8117
6.04293	27.5815
6.0359	25.9985
6.02888	25.5566
6.02187	25.501
6.01489	25.513
6.00792	25.0535
6.00096	24.6506
5.99403	24.8194
5.98711	24.6923
5.9802	23.9783
5.97331	23.6638
5.96644	23.3942
5.95958	22.7591
5.95274	22.4948
5.94591	22.5579
5.9391	23.2574
5.9323	22.9366
5.92552	22.0423
5.91876	21.8268
5.91201	21.8262
5.90528	22.119
5.89856	22.8945
5.89186	22.98
5.88517	23.4277
5.8785	23.671
5.87184	22.8974
5.8652	22.9625
5.85857	23.0223
5.85196	23.0244
5.84536	23.0913
5.83878	23.2975
5.83221	23.7141
5.82566	24.3733
5.81912	24.3471
5.81259	23.7205
5.80608	23.6107
5.79959	23.7304
5.79311	23.7772
5.78665	23.8446
5.78019	23.9843
5.77376	24.4578
5.76734	25.1184
5.76093	24.5687
5.75453	24.1373
5.74815	24.3741
5.74179	24.1843
5.73543	24.1061
5.7291	24.1212
5.72277	24.3122
5.71646	24.5975
5.71017	24.824
5.70389	24.5175
5.69762	24.4151
5.69136	24.5973
5.68513	24.5085
5.6789	24.6626
5.67268	24.782
5.66648	24.6376
5.6603	24.8113
5.65413	25.0098
5.64797	25.3073
5.64182	25.7207
5.63569	25.458
5.62957	25.3186
5.62347	25.4635
5.61737	25.6454
5.61129	25.692
5.60522	25.8715
5.59917	26.0659
5.59313	26.1558
5.5871	26.595
5.58109	27.1857
5.57509	27.3244
5.5691	27.3235
5.56312	27.6891
5.55716	28.1024
5.55121	28.458
5.54528	28.7081
5.53935	29.0273
5.53344	29.3553
5.52754	29.7237
5.52166	30.0438
5.51578	30.295
5.50992	30.4881
5.50407	30.7804
5.49823	31.0194
5.49241	31.3119
5.4866	31.654
5.4808	32.0232
5.47501	32.2155
5.46923	32.5643
5.46347	32.9012
5.45772	32.8329
5.45198	32.9039
5.44625	33.1031
5.44054	33.2495
5.43484	33.3694
5.42914	33.6812
5.42347	34.1828
5.4178	34.0434
5.41214	33.8356
5.4065	33.8393
5.40087	33.8643
5.39525	33.9915
5.38964	34.0965
5.38404	34.1008
5.37846	34.0814
5.37288	34.1618
5.36732	34.1755
5.36177	34.1644
5.35623	34.2803
5.35071	34.4725
5.34519	34.2518
5.33968	33.9529
5.33419	33.9358
5.32871	33.9451
5.32324	33.9361
5.31778	33.946
5.31233	33.9053
5.30689	33.8916
5.30147	33.9306
5.29605	34.0457
5.29065	34.1175
5.28525	33.9425
5.27987	33.8003
5.2745	33.7151
5.26914	33.6244
5.26379	33.5455
5.25845	33.3668
5.25312	33.2091
5.24781	33.1417
5.2425	33.0123
5.23721	32.9592
5.23192	32.8191
5.22665	32.725
5.22138	32.7225
5.21613	32.873
5.21089	32.8461
5.20566	32.7773
5.20044	32.8531
5.19522	32.847
5.19002	32.9903
5.18483	33.2706
5.17965	33.5423
5.17448	33.8085
5.16933	34.1201
5.16418	34.4544
5.15904	34.6837
5.15391	34.948
5.14879	35.2949
5.14368	35.4021
5.13859	35.4424
5.1335	35.5253
5.12842	35.5665
5.12335	35.6036
5.1183	35.6003
5.11325	35.5516
5.10821	35.5356
5.10318	35.4939
5.09817	35.3656
5.09316	35.2264
5.08816	35.2113
5.08317	35.2523
5.07819	35.1914
5.07322	35.0836
5.06826	35.1271
5.06331	35.1946
5.05837	35.1026
5.05344	34.9493
5.04852	34.8638
5.04361	34.7819
5.03871	34.7078
5.03382	34.665
5.02894	34.6138
5.02406	34.6022
5.0192	34.5755
5.01435	34.4656
5.0095	34.3404
5.00467	34.1327
4.99984	33.8361
4.99502	33.4879
4.99021	33.0477
4.98542	32.6125
4.98063	32.0955
4.97585	31.4706
4.97108	30.8934
4.96632	30.4553
4.96156	30.0716
4.95682	29.8033
4.95209	29.6129
4.94736	29.4392
4.94264	29.2978
4.93794	29.2447
4.93324	29.2573
4.92855	29.3507
4.92387	29.5108
4.9192	29.659
4.91453	29.7614
4.90988	29.7841
4.90524	29.7812
4.9006	29.8026
4.89597	29.7905
4.89135	29.7726
4.88674	29.7052
4.88214	29.7988
4.87755	30.0458
4.87296	30.2902
4.86839	30.6526
4.86382	31.2091
4.85926	31.8175
4.85471	32.3079
4.85017	32.751
4.84564	33.1996
4.84111	33.5718
4.8366	33.9057
4.83209	34.1588
4.82759	34.3574
4.8231	34.5971
4.81862	34.7865
4.81415	34.9878
4.80968	35.2056
4.80522	35.3599
4.80077	35.6054
4.79633	35.9355
4.7919	36.2923
4.78747	36.7207
4.78306	37.1528
4.77865	37.5654
4.77425	38.1122
4.76986	38.6642
4.76547	39.171
4.7611	39.6193
4.75673	40.1183
4.75237	40.5822
4.74802	41.023
4.74367	41.4224
4.73934	41.8026
4.73501	42.1427
4.73069	42.2987
4.72638	42.4389
4.72207	42.6047
4.71777	42.7153
4.71348	42.8074
4.7092	42.9635
4.70493	43.0098
4.70066	43.0128
4.69641	43.0581
4.69216	43.1592
4.68791	43.2541
4.68368	43.2985
4.67945	43.3457
4.67523	43.4312
4.67102	43.5547
4.66682	43.6671
4.66262	43.7275
4.65843	43.7826
4.65425	43.8263
4.65007	43.8561
4.64591	43.8245
4.64175	43.8062
4.6376	43.753
4.63345	43.6251
4.62932	43.5519
4.62519	43.5351
4.62106	43.5295
4.61695	43.4776
4.61284	43.468
4.60874	43.5404
4.60465	43.6859
4.60056	43.8161
4.59648	43.9163
4.59241	44.0422
4.58835	44.3597
4.58429	44.7335
4.58024	45.0684
4.5762	45.349
4.57216	45.6255
4.56814	45.9483
4.56411	46.3037
4.5601	46.6334
4.55609	46.9246
4.55209	47.1897
4.5481	47.4594
4.54411	47.7368
4.54013	47.9786
4.53616	48.1671
4.5322	48.4066
4.52824	48.6651
4.52429	48.872
4.52034	49.0535
4.51641	49.2876
4.51247	49.4488
4.50855	49.5268
4.50463	49.7172
4.50072	50.0062
4.49682	50.1544
4.49292	50.2378
4.48903	50.3929
4.48515	50.6284
4.48127	50.7596
4.4774	50.8921
4.47354	51.0013
4.46968	51.0845
4.46584	51.2208
4.46199	51.4223
4.45815	51.5226
4.45432	51.5614
4.4505	51.6336
4.44668	51.6922
4.44287	51.7287
4.43907	51.8285
4.43527	51.8781
4.43148	51.9567
4.4277	52.0323
4.42392	52.0661
4.42015	52.0902
4.41638	52.1593
4.41262	52.235
4.40887	52.2816
4.40513	52.3393
4.40139	52.3813
4.39765	52.4714
4.39393	52.5496
4.39021	52.5457
4.38649	52.5971
4.38278	52.6683
4.37908	52.6634
4.37539	52.7058
4.3717	52.7802
4.36801	52.7821
4.36434	52.8022
4.36067	52.8761
4.357	52.9151
4.35335	52.927
4.34969	52.9617
4.34605	53.0137
4.34241	53.0652
4.33877	53.0786
4.33514	53.105
4.33152	53.138
4.32791	53.1557
4.3243	53.2259
4.32069	53.2628
4.3171	53.2506
4.31351	53.3418
4.30992	53.3986
4.30634	53.4447
4.30277	53.4372
4.2992	53.5023
4.29564	53.5646
4.29208	53.6353
4.28853	53.6586
4.28499	53.6866
4.28145	53.7472
4.27792	53.7233
4.27439	53.6983
4.27087	53.7313
4.26735	53.7317
4.26384	53.6512
4.26034	53.6137
4.25684	53.6508
4.25335	53.7577
4.24986	53.8435
4.24638	53.8851
4.24291	53.9315
4.23944	54.089
4.23598	54.1491
4.23252	54.0679
4.22906	54.0553
4.22562	54.0907
4.22218	54.1189
4.21874	54.0676
4.21531	53.9922
4.21189	53.9147
4.20847	53.9019
4.20506	53.8983
4.20165	53.8253
4.19825	53.851
4.19485	53.8871
4.19146	53.8391
4.18807	53.9065
4.18469	53.9456
4.18132	54.0189
4.17795	54.0589
4.17458	54.0378
4.17123	54.0473
4.16787	54.107
4.16453	54.0943
4.16118	54.0766
4.15785	54.0904
4.15451	54.1254
4.15119	54.1425
4.14787	54.1802
4.14455	54.1947
4.14124	54.2126
4.13794	54.2499
4.13464	54.2269
4.13134	54.1599
4.12805	54.2057
4.12477	54.2515
4.12149	54.1984
4.11822	54.1493
4.11495	54.1846
4.11168	54.2224
4.10843	54.2497
4.10517	54.3217
4.10192	54.356
4.09868	54.3223
4.09545	54.3316
4.09221	54.3359
4.08899	54.2987
4.08576	54.2619
4.08255	54.2791
4.07933	54.2769
4.07613	54.2752
4.07292	54.1916
4.06973	54.1893
4.06654	54.2334
4.06335	54.2104
4.06017	54.2251
4.05699	54.2501
4.05382	54.2314
4.05065	54.2166
4.04749	54.175
4.04433	54.1135
4.04118	54.1005
4.03803	54.1843
4.03489	54.201
4.03175	54.0613
4.02862	54.0014
4.02549	54.0365
4.02237	54.0326
4.01925	53.9606
4.01614	53.8597
4.01303	53.7989
4.00993	53.7498
4.00683	53.6927
4.00373	53.5779
4.00064	53.4911
3.99756	53.4332
3.99448	53.4167
3.9914	53.4775
3.98833	53.5373
3.98527	53.5711
3.98221	53.7065
3.97915	53.7845
3.9761	53.7745
3.97305	53.7905
3.97001	53.8245
3.96697	53.8231
3.96394	53.8666
3.96091	53.9698
3.95789	54.0092
3.95487	54.0333
3.95186	54.1073
3.94885	54.1156
3.94584	54.0635
3.94284	54.0845
3.93984	54.1906
3.93685	54.2437
3.93386	54.2075
3.93088	54.1882
3.9279	54.2641
3.92493	54.2888
3.92196	54.2205
3.919	54.2307
3.91604	54.3223
3.91308	54.4083
3.91013	54.4476
3.90718	54.418
3.90424	54.3607
3.9013	54.367
3.89837	54.4126
3.89544	54.3939
3.89252	54.3816
3.8896	54.4261
3.88668	54.4659
3.88377	54.4794
3.88086	54.4296
3.87796	54.3817
3.87506	54.4362
3.87217	54.4963
3.86928	54.4974
3.86639	54.4953
3.86351	54.4504
3.86064	54.4143
3.85776	54.4036
3.8549	54.3896
3.85203	54.4119
3.84917	54.476
3.84631	54.3944
3.84346	54.3601
3.84062	54.4245
3.83777	54.4188
3.83494	54.4094
3.8321	54.4856
3.82927	54.5407
3.82644	54.4631
3.82362	54.3957
3.82081	54.4226
3.81799	54.4622
3.81518	54.4221
3.81238	54.3614
3.80958	54.4052
3.80678	54.46
3.80399	54.4759
3.8012	54.4565
3.79841	54.3788
3.79563	54.3445
3.79286	54.3831
3.79008	54.3729
3.78731	54.3314
3.78455	54.3385
3.78179	54.3599
3.77903	54.3014
3.77628	54.3161
3.77353	54.3589
3.77079	54.2603
3.76805	54.242
3.76531	54.2531
3.76258	54.2324
3.75985	54.2376
3.75713	54.2633
3.7544	54.2488
3.75169	54.1742
3.74898	54.1822
3.74627	54.1784
3.74356	54.1311
3.74086	54.0463
3.73816	54.0046
3.73547	54.0016
3.73278	53.9726
3.7301	53.9733
3.72741	53.9411
3.72474	53.9011
3.72206	53.898
3.71939	53.8978
3.71673	53.8929
3.71406	53.8848
3.71141	53.8399
3.70875	53.723
3.7061	53.6787
3.70345	53.737
3.70081	53.8054
3.69817	53.7496
3.69553	53.6478
3.6929	53.6371
3.69027	53.6526
3.68765	53.687
3.68503	53.654
3.68241	53.503
3.6798	53.4907
3.67719	53.6404
3.67458	53.6942
3.67198	53.7085
3.66938	53.6399
3.66678	53.5531
3.66419	53.578
3.66161	53.6645
3.65902	53.6389
3.65644	53.6069
3.65387	53.6049
3.65129	53.5477
3.64872	53.5722
3.64616	53.6083
3.64359	53.6132
3.64103	53.5792
3.63848	53.5118
3.63593	53.5409
3.63338	53.5769
3.63084	53.5825
3.6283	53.5327
3.62576	53.4826
3.62322	53.4087
3.62069	53.386
3.61817	53.3657
3.61564	53.2994
3.61312	53.2282
3.61061	53.2774
3.6081	53.3312
3.60559	53.3094
3.60308	53.2026
3.60058	53.0928
3.59808	53.0892
3.59558	53.1551
3.59309	53.1629
3.59061	53.0818
3.58812	53.0198
3.58564	52.9528
3.58316	52.9062
3.58069	52.9049
3.57822	52.9135
3.57575	52.8707
3.57328	52.817
3.57082	52.8012
3.56836	52.7909
3.56591	52.7471
3.56346	52.7701
3.56101	52.7363
3.55857	52.6642
3.55613	52.6612
3.55369	52.6284
3.55126	52.5867
3.54883	52.5278
3.5464	52.379
3.54397	52.3017
3.54155	52.3534
3.53914	52.3823
3.53672	52.3341
3.53431	52.2362
3.5319	52.1491
3.5295	52.1013
3.5271	52.0242
3.5247	51.9324
3.52231	51.8429
3.51991	51.7983
3.51753	51.7315
3.51514	51.6225
3.51276	51.4125
3.51038	51.1989
3.50801	51.1318
3.50563	51.0884
3.50327	51.0516
3.5009	50.9605
3.49854	50.8006
3.49618	50.7886
3.49382	50.8159
3.49147	50.8251
3.48912	50.8155
3.48677	50.7083
3.48443	50.6646
3.48209	50.6045
3.47975	50.5257
3.47742	50.4327
3.47509	50.4156
