Name: Cookeite LiAl_4(Si_3Al)O_10(OH)_8
Type: Mineral
Class: Silicates
Subclass: Phyllosilicates
Particle Size: 0-45um
Sample No.: PS-9A
Owner: JPL
Wavelength range: IR
Origin: USA, Arkansas, Pulaski County
Collected by JPL
Description: 





Measurement: Hemispherical reflectance
First Column: X
Second Column: Y
X Units:  Wavelength (micrometers)
Y Units:  Reflectance (percent)
First X Value: 15.3853
Last X Value: 2.00032
Number of X Values: 2256
Additional information: ps09aa.txt
 
15.3853	2.0725
15.3397	2.17764
15.2945	2.19222
15.2495	2.23933
15.2048	2.11094
15.1603	1.901
15.1161	1.86184
15.0722	1.9542
15.0285	2.07013
14.9851	2.08784
14.9419	1.85105
14.8989	1.64087
14.8563	1.65427
14.8138	1.98153
14.7716	2.08222
14.7296	2.01565
14.6879	1.95178
14.6464	2.03429
14.6052	2.03179
14.5641	1.90928
14.5233	1.66213
14.4828	1.6851
14.4424	1.69014
14.4023	1.68322
14.3624	1.66456
14.3227	1.61616
14.2833	1.74499
14.244	1.67814
14.205	1.6926
14.1662	1.68613
14.1276	1.63882
14.0892	1.80576
14.051	1.88831
14.0131	1.88578
13.9753	1.97144
13.9377	2.15945
13.9004	2.14732
13.8632	2.05509
13.8262	1.91974
13.7895	1.85845
13.7529	1.90424
13.7165	2.17946
13.6803	2.42877
13.6443	2.34857
13.6085	2.22058
13.5729	2.17195
13.5374	1.9028
13.5022	1.69188
13.4671	1.83808
13.4322	1.86452
13.3975	1.89809
13.363	1.85008
13.3286	1.91937
13.2944	1.8315
13.2604	1.83588
13.2266	1.83689
13.193	1.69562
13.1595	1.69412
13.1262	1.75299
13.093	1.72174
13.06	1.65594
13.0272	1.63072
12.9946	1.624
12.9621	1.79858
12.9298	1.88143
12.8976	1.82573
12.8656	1.94774
12.8337	2.0699
12.8021	2.02683
12.7705	1.93301
12.7391	2.11569
12.7079	2.24089
12.6769	2.00603
12.6459	1.97691
12.6152	2.11106
12.5845	2.1566
12.5541	2.06042
12.5238	2.03716
12.4936	2.0019
12.4635	1.99533
12.4337	1.8883
12.4039	1.75387
12.3743	1.66995
12.3448	1.65246
12.3155	1.74769
12.2863	1.78982
12.2573	1.78433
12.2284	1.73445
12.1996	1.70875
12.171	1.7381
12.1425	1.85627
12.1141	2.14058
12.0859	2.38464
12.0578	2.45846
12.0298	2.60065
12.0019	2.762
11.9742	2.91652
11.9466	3.01359
11.9192	3.13755
11.8918	3.28418
11.8646	3.4669
11.8375	3.68822
11.8106	3.83893
11.7837	3.98754
11.757	4.24997
11.7304	4.581
11.7039	4.88235
11.6776	5.15644
11.6513	5.44798
11.6252	5.70718
11.5992	6.0508
11.5733	6.17528
11.5475	6.25129
11.5219	6.44209
11.4963	6.54048
11.4709	6.55333
11.4455	6.59789
11.4203	6.72259
11.3952	6.72896
11.3702	6.58394
11.3454	6.47448
11.3206	6.35168
11.2959	6.24953
11.2714	6.12239
11.2469	5.90459
11.2226	5.63395
11.1983	5.62253
11.1742	5.77764
11.1502	5.6937
11.1263	5.52593
11.1024	5.47305
11.0787	5.44646
11.0551	5.29826
11.0316	5.10692
11.0081	4.91482
10.9848	4.64334
10.9616	4.33618
10.9385	4.18947
10.9154	4.14538
10.8925	4.21319
10.8697	4.20941
10.8469	4.16004
10.8243	4.02905
10.8017	3.87146
10.7793	3.90473
10.7569	4.05078
10.7346	4.01489
10.7125	3.95345
10.6904	3.97074
10.6684	4.00052
10.6465	3.91651
10.6247	3.95883
10.6029	4.01388
10.5813	3.89806
10.5597	3.73015
10.5383	3.80732
10.5169	3.74218
10.4956	3.68931
10.4744	3.91161
10.4533	4.01271
10.4323	4.06246
10.4113	4.13525
10.3904	4.10001
10.3697	4.1654
10.349	4.23316
10.3284	4.25546
10.3078	4.25999
10.2874	4.40317
10.267	4.4698
10.2467	4.38684
10.2265	4.34481
10.2064	4.2272
10.1863	4.29667
10.1663	4.46993
10.1464	4.40794
10.1266	4.31999
10.1069	4.31561
10.0872	4.35759
10.0676	4.35493
10.0481	4.526
10.0287	4.65076
10.0093	4.66668
9.99005	4.7165
9.97084	4.80603
9.95169	5.01743
9.93263	5.2932
9.91364	5.37263
9.89472	5.37829
9.87587	5.58246
9.8571	5.65162
9.83839	5.59278
9.81976	5.60498
9.80119	5.58106
9.78271	5.47143
9.76428	5.41334
9.74592	5.44883
9.72764	5.4455
9.70943	5.54406
9.69128	5.57607
9.6732	5.57524
9.65518	5.6456
9.63724	5.66451
9.61935	5.51272
9.60155	5.39456
9.5838	5.45684
9.56611	5.47803
9.5485	5.6705
9.53094	5.88269
9.51345	5.98355
9.49604	6.14236
9.47867	6.25452
9.46137	6.57903
9.44414	6.93379
9.42697	7.17256
9.40986	7.33845
9.39281	7.54562
9.37583	7.53372
9.35891	7.65902
9.34204	7.91627
9.32524	8.01201
9.3085	7.93208
9.29182	7.86016
9.27519	7.77264
9.25863	7.82763
9.24213	7.97133
9.22568	8.06631
9.2093	8.04815
9.19297	7.96398
9.17669	7.95623
9.16048	7.97555
9.14433	8.01493
9.12823	7.9236
9.11218	7.86639
9.0962	7.84227
9.08027	7.78292
9.06439	7.66266
9.04858	7.65809
9.03281	7.52189
9.0171	7.14292
9.00145	6.88001
8.98585	6.76131
8.9703	6.63629
8.9548	6.78804
8.93937	7.17665
8.92398	7.30866
8.90865	7.27483
8.89337	7.26997
8.87814	7.34976
8.86296	7.39093
8.84784	7.31338
8.83277	7.32463
8.81774	7.44529
8.80277	7.42233
8.78786	7.26915
8.77298	7.31986
8.75816	7.37522
8.7434	7.25705
8.72868	7.18963
8.714	7.11249
8.69938	6.81924
8.68481	6.49732
8.67029	6.27629
8.65581	6.02374
8.64139	5.75858
8.62701	5.47931
8.61268	5.48286
8.5984	5.8613
8.58416	6.18978
8.56997	6.42012
8.55583	6.57687
8.54174	6.48431
8.52769	6.36767
8.51368	6.41198
8.49973	6.4548
8.48582	6.43821
8.47195	6.4462
8.45813	6.41456
8.44436	6.27482
8.43062	6.27108
8.41693	6.28052
8.4033	6.16522
8.3897	6.17885
8.37614	6.23137
8.36264	6.26144
8.34917	6.21214
8.33574	6.36774
8.32236	6.58544
8.30903	6.57455
8.29573	6.6172
8.28248	6.71846
8.26927	6.83404
8.2561	6.94481
8.24298	7.07269
8.2299	7.02511
8.21685	7.12016
8.20385	7.36743
8.19089	7.43244
8.17797	7.36231
8.16509	7.19024
8.15225	6.95679
8.13946	6.73223
8.1267	6.60137
8.11398	6.32975
8.10131	6.06682
8.08867	5.96834
8.07606	5.82197
8.0635	5.55422
8.05099	5.33814
8.0385	5.20602
8.02606	5.06593
8.01366	5.08376
8.00129	5.0091
7.98896	4.82625
7.97667	4.75501
7.96442	4.69447
7.9522	4.60975
7.94002	4.57851
7.92788	4.41053
7.91578	4.35367
7.90371	4.37185
7.89168	4.31972
7.87969	4.28373
7.86773	4.38411
7.85581	4.37315
7.84392	4.30189
7.83207	4.37126
7.82026	4.30711
7.80849	4.27812
7.79674	4.32551
7.78503	4.46469
7.77337	4.59386
7.76173	4.75016
7.75012	4.94879
7.73856	4.90688
7.72703	4.87222
7.71553	5.01153
7.70406	5.17744
7.69263	5.1604
7.68123	5.18779
7.66987	5.30526
7.65855	5.40493
7.64725	5.46457
7.63598	5.58747
7.62475	5.64212
7.61356	5.80234
7.60239	5.92991
7.59126	5.89299
7.58017	5.94491
7.5691	6.06877
7.55806	6.19493
7.54707	6.32035
7.5361	6.47815
7.52516	6.58428
7.51425	6.6904
7.50338	6.81448
7.49253	6.90672
7.48172	6.94496
7.47094	6.9439
7.46019	7.05713
7.44947	7.09966
7.43879	7.21794
7.42813	7.42099
7.4175	7.49959
7.4069	7.54831
7.39634	7.65873
7.3858	7.71622
7.37529	7.73564
7.36482	7.76992
7.35437	7.84711
7.34396	7.96939
7.33357	8.04419
7.32321	8.17133
7.31288	8.22113
7.30258	8.2999
7.29231	8.36189
7.28207	8.35595
7.27185	8.411
7.26167	8.55496
7.25152	8.67415
7.24139	8.83554
7.23129	8.91088
7.22122	8.95394
7.21117	9.07777
7.20116	9.18531
7.19117	9.17515
7.18121	9.28807
7.17128	9.48371
7.16137	9.53291
7.1515	9.4625
7.14164	9.42684
7.13182	9.50505
7.12203	9.56782
7.11225	9.55045
7.10251	9.59445
7.0928	9.7629
7.08311	9.83651
7.07344	9.78225
7.06381	9.77676
7.0542	9.85717
7.04461	9.96739
7.03506	10.0539
7.02552	10.1761
7.01601	10.2463
7.00653	10.2617
6.99708	10.3255
6.98765	10.3821
6.97824	10.481
6.96886	10.6257
6.95951	10.8038
6.95018	10.893
6.94087	10.9746
6.9316	11.1182
6.92234	11.2748
6.91311	11.3668
6.90391	11.5098
6.89473	11.6062
6.88557	11.7258
6.87644	11.8576
6.86733	11.985
6.85824	12.1418
6.84918	12.3004
6.84015	12.3351
6.83114	12.3738
6.82215	12.4004
6.81319	12.4328
6.80424	12.5287
6.79532	12.6609
6.78643	12.8155
6.77756	12.8817
6.76871	12.9649
6.75989	13.0964
6.75109	13.1672
6.74231	13.2299
6.73355	13.2416
6.72482	13.2512
6.71611	13.3617
6.70742	13.3912
6.69875	13.4253
6.69011	13.5674
6.68149	13.7729
6.67289	13.8699
6.66431	13.9223
6.65576	14.072
6.64722	14.2241
6.63871	14.3169
6.63022	14.3146
6.62175	14.3007
6.61331	14.366
6.60488	14.3438
6.59648	14.3982
6.5881	14.4627
6.57974	14.5292
6.5714	14.5028
6.56308	14.5018
6.55478	14.5561
6.54651	14.5772
6.53825	14.646
6.53001	14.7871
6.5218	15.0072
6.51361	15.1913
6.50544	15.4458
6.49729	15.7854
6.48915	15.9263
6.48104	15.9955
6.47295	16.2101
6.46488	16.2899
6.45683	16.2986
6.4488	16.3381
6.44079	16.4436
6.4328	16.5024
6.42482	16.517
6.41687	16.6059
6.40894	16.5623
6.40103	16.4015
6.39314	16.3602
6.38526	16.3073
6.37741	16.3099
6.36957	16.3459
6.36176	16.25
6.35396	16.1457
6.34618	16.0813
6.33843	15.9136
6.33069	15.6993
6.32297	15.5792
6.31527	15.5212
6.30758	15.4548
6.29992	15.3087
6.29227	15.1718
6.28465	15.004
6.27704	14.8942
6.26945	14.8332
6.26188	14.6395
6.25432	14.4425
6.24679	14.3315
6.23927	14.2678
6.23177	14.2369
6.22429	14.1953
6.21683	14.1148
6.20938	14.0387
6.20195	13.9987
6.19454	13.9876
6.18715	14.018
6.17978	14.0181
6.17242	14.051
6.16508	14.218
6.15776	14.3566
6.15045	14.5748
6.14317	14.8421
6.1359	14.925
6.12864	15.0453
6.12141	15.3234
6.11419	15.4966
6.10699	15.5136
6.0998	15.629
6.09263	15.7592
6.08549	15.8056
6.07835	15.8509
6.07123	15.9415
6.06413	15.9305
6.05705	15.9197
6.04998	15.9997
6.04293	15.9359
6.0359	15.9423
6.02888	15.9727
6.02187	16.0308
6.01489	16.1071
6.00792	16.1414
6.00096	16.1588
5.99403	16.125
5.98711	16.0856
5.9802	16.0454
5.97331	16.0718
5.96644	16.0529
5.95958	15.9856
5.95274	15.9736
5.94591	16.0029
5.9391	16.1112
5.9323	16.2163
5.92552	16.3011
5.91876	16.4533
5.91201	16.744
5.90528	17.0462
5.89856	17.36
5.89186	17.6739
5.88517	17.8986
5.8785	18.1011
5.87184	18.329
5.8652	18.5859
5.85857	18.7991
5.85196	19.0329
5.84536	19.2622
5.83878	19.5162
5.83221	19.7419
5.82566	19.9701
5.81912	20.1426
5.81259	20.3067
5.80608	20.4748
5.79959	20.6578
5.79311	20.8918
5.78665	20.9907
5.78019	21.1617
5.77376	21.3771
5.76734	21.5454
5.76093	21.657
5.75453	21.7418
5.74815	21.8726
5.74179	21.9022
5.73543	21.9442
5.7291	22.0514
5.72277	22.2009
5.71646	22.3308
5.71017	22.3632
5.70389	22.3918
5.69762	22.3892
5.69136	22.4124
5.68513	22.4902
5.6789	22.3964
5.67268	22.2576
5.66648	22.1727
5.6603	22.0635
5.65413	21.939
5.64797	21.797
5.64182	21.6299
5.63569	21.3982
5.62957	21.1006
5.62347	20.975
5.61737	20.9341
5.61129	20.7412
5.60522	20.6416
5.59917	20.5947
5.59313	20.5045
5.5871	20.402
5.58109	20.3586
5.57509	20.3374
5.5691	20.3122
5.56312	20.3303
5.55716	20.3588
5.55121	20.421
5.54528	20.512
5.53935	20.5473
5.53344	20.6119
5.52754	20.7082
5.52166	20.7649
5.51578	20.8869
5.50992	20.9798
5.50407	21.03
5.49823	21.0653
5.49241	21.1285
5.4866	21.2065
5.4808	21.248
5.47501	21.3505
5.46923	21.5151
5.46347	21.6095
5.45772	21.6223
5.45198	21.6946
5.44625	21.731
5.44054	21.6888
5.43484	21.6099
5.42914	21.4544
5.42347	21.3167
5.4178	21.1446
5.41214	20.8736
5.4065	20.5849
5.40087	20.3275
5.39525	19.9875
5.38964	19.5865
5.38404	19.2246
5.37846	18.9866
5.37288	18.8055
5.36732	18.6712
5.36177	18.502
5.35623	18.4154
5.35071	18.4381
5.34519	18.4923
5.33968	18.5151
5.33419	18.5691
5.32871	18.6666
5.32324	18.7776
5.31778	18.8155
5.31233	18.9254
5.30689	19.1558
5.30147	19.3437
5.29605	19.5094
5.29065	19.6661
5.28525	19.8639
5.27987	20.141
5.2745	20.3742
5.26914	20.6379
5.26379	20.9173
5.25845	21.2448
5.25312	21.5697
5.24781	21.8296
5.2425	22.1438
5.23721	22.5231
5.23192	22.8854
5.22665	23.2615
5.22138	23.6078
5.21613	23.878
5.21089	24.0521
5.20566	24.1675
5.20044	24.2682
5.19522	24.4544
5.19002	24.5807
5.18483	24.6482
5.17965	24.7698
5.17448	24.8573
5.16933	24.8968
5.16418	24.9397
5.15904	25.0175
5.15391	25.0411
5.14879	25.0739
5.14368	25.1377
5.13859	25.1588
5.1335	25.2313
5.12842	25.3322
5.12335	25.3894
5.1183	25.4279
5.11325	25.5008
5.10821	25.5575
5.10318	25.5802
5.09817	25.5278
5.09316	25.5319
5.08816	25.5735
5.08317	25.5783
5.07819	25.4857
5.07322	25.4138
5.06826	25.3929
5.06331	25.405
5.05837	25.463
5.05344	25.5157
5.04852	25.5392
5.04361	25.5812
5.03871	25.6183
5.03382	25.6974
5.02894	25.7372
5.02406	25.6971
5.0192	25.7166
5.01435	25.7727
5.0095	25.8262
5.00467	25.8688
4.99984	25.9051
4.99502	25.9692
4.99021	26.0922
4.98542	26.1854
4.98063	26.3973
4.97585	26.7123
4.97108	26.9289
4.96632	27.0363
4.96156	27.2304
4.95682	27.5294
4.95209	27.6933
4.94736	27.7364
4.94264	27.7693
4.93794	27.8334
4.93324	27.9218
4.92855	28.0753
4.92387	28.1588
4.9192	28.245
4.91453	28.399
4.90988	28.6194
4.90524	28.8689
4.9006	29.0859
4.89597	29.2193
4.89135	29.3429
4.88674	29.4796
4.88214	29.6711
4.87755	29.8135
4.87296	29.8707
4.86839	29.9099
4.86382	29.8823
4.85926	29.8862
4.85471	29.9685
4.85017	29.9981
4.84564	30.0272
4.84111	30.0789
4.8366	30.0876
4.83209	30.0379
4.82759	30.0867
4.8231	30.1355
4.81862	30.1007
4.81415	30.0644
4.80968	30.0431
4.80522	30.0458
4.80077	29.9778
4.79633	29.8878
4.7919	29.9486
4.78747	29.9349
4.78306	29.9117
4.77865	29.9054
4.77425	29.9123
4.76986	29.9508
4.76547	30.0014
4.7611	30.0818
4.75673	30.1492
4.75237	30.1186
4.74802	30.0799
4.74367	30.1103
4.73934	30.1615
4.73501	30.2828
4.73069	30.4652
4.72638	30.6071
4.72207	30.6469
4.71777	30.7464
4.71348	30.9215
4.7092	30.9872
4.70493	31.0346
4.70066	31.1692
4.69641	31.2883
4.69216	31.3042
4.68791	31.4697
4.68368	31.6829
4.67945	31.7775
4.67523	31.8972
4.67102	32.1008
4.66682	32.3466
4.66262	32.5149
4.65843	32.6912
4.65425	32.864
4.65007	33.0128
4.64591	33.1365
4.64175	33.2745
4.6376	33.528
4.63345	33.806
4.62932	33.9853
4.62519	34.1742
4.62106	34.3799
4.61695	34.5173
4.61284	34.6802
4.60874	34.8243
4.60465	34.9889
4.60056	35.1408
4.59648	35.2782
4.59241	35.3896
4.58835	35.4979
4.58429	35.6998
4.58024	35.9482
4.5762	36.1255
4.57216	36.2252
4.56814	36.397
4.56411	36.5672
4.5601	36.7027
4.55609	36.8443
4.55209	37.0197
4.5481	37.1868
4.54411	37.351
4.54013	37.5128
4.53616	37.5997
4.5322	37.7228
4.52824	37.9246
4.52429	38.1147
4.52034	38.1468
4.51641	38.22
4.51247	38.3193
4.50855	38.3577
4.50463	38.5485
4.50072	38.7035
4.49682	38.8246
4.49292	38.9305
4.48903	39.0259
4.48515	39.2164
4.48127	39.3695
4.4774	39.4902
4.47354	39.6428
4.46968	39.7885
4.46584	39.9071
4.46199	40.0764
4.45815	40.1925
4.45432	40.2822
4.4505	40.4789
4.44668	40.6454
4.44287	40.7401
4.43907	40.8545
4.43527	41.0176
4.43148	41.1564
4.4277	41.2983
4.42392	41.4345
4.42015	41.5225
4.41638	41.6846
4.41262	41.8853
4.40887	42.0657
4.40513	42.2708
4.40139	42.46
4.39765	42.6526
4.39393	42.8327
4.39021	42.9877
4.38649	43.1972
4.38278	43.3643
4.37908	43.4856
4.37539	43.5604
4.3717	43.6652
4.36801	43.8136
4.36434	43.9695
4.36067	44.1158
4.357	44.2136
4.35335	44.248
4.34969	44.3083
4.34605	44.3931
4.34241	44.3927
4.33877	44.4761
4.33514	44.5939
4.33152	44.5945
4.32791	44.5973
4.3243	44.607
4.32069	44.6153
4.3171	44.635
4.31351	44.6222
4.30992	44.6478
4.30634	44.6785
4.30277	44.6306
4.2992	44.6103
4.29564	44.5968
4.29208	44.5948
4.28853	44.5865
4.28499	44.5767
4.28145	44.515
4.27792	44.494
4.27439	44.5549
4.27087	44.6112
4.26735	44.7116
4.26384	44.8831
4.26034	45.0893
4.25684	45.1879
4.25335	45.1565
4.24986	45.0548
4.24638	44.963
4.24291	44.8335
4.23944	44.8321
4.23598	44.8308
4.23252	44.913
4.22906	45.0216
4.22562	45.0271
4.22218	45.0309
4.21874	45.0944
4.21531	45.2226
4.21189	45.4041
4.20847	45.5111
4.20506	45.5476
4.20165	45.643
4.19825	45.6768
4.19485	45.6863
4.19146	45.706
4.18807	45.8007
4.18469	45.9257
4.18132	45.9239
4.17795	45.9003
4.17458	45.9121
4.17123	45.9933
4.16787	45.9944
4.16453	45.9656
4.16118	46.0099
4.15785	45.9903
4.15451	45.9285
4.15119	45.8817
4.14787	45.9387
4.14455	45.9568
4.14124	45.9631
4.13794	46.0357
4.13464	46.0706
4.13134	46.1115
4.12805	46.109
4.12477	46.085
4.12149	46.1463
4.11822	46.1273
4.11495	46.1259
4.11168	46.1489
4.10843	46.1412
4.10517	46.1478
4.10192	46.1371
4.09868	46.1554
4.09545	46.1955
4.09221	46.1757
4.08899	46.138
4.08576	46.1972
4.08255	46.167
4.07933	46.0864
4.07613	46.0736
4.07292	46.0863
4.06973	46.1271
4.06654	46.1713
4.06335	46.163
4.06017	46.157
4.05699	46.1073
4.05382	46.086
4.05065	46.0606
4.04749	46.0345
4.04433	46.1083
4.04118	46.1013
4.03803	46.0072
4.03489	46.0077
4.03175	46.0436
4.02862	46.005
4.02549	45.9423
4.02237	45.8818
4.01925	45.8763
4.01614	45.877
4.01303	45.9582
4.00993	46.0021
4.00683	45.8892
4.00373	45.8376
4.00064	45.8996
3.99756	45.8422
3.99448	45.7716
3.9914	45.8585
3.98833	45.8832
3.98527	45.8171
3.98221	45.8163
3.97915	45.7749
3.9761	45.7756
3.97305	45.8048
3.97001	45.7736
3.96697	45.7551
3.96394	45.7446
3.96091	45.7541
3.95789	45.8228
3.95487	45.8334
3.95186	45.9017
3.94885	45.9125
3.94584	45.8739
3.94284	45.8804
3.93984	45.8955
3.93685	45.8607
3.93386	45.8839
3.93088	45.9049
3.9279	45.8611
3.92493	45.8451
3.92196	45.8502
3.919	45.8301
3.91604	45.7736
3.91308	45.7805
3.91013	45.8709
3.90718	45.8743
3.90424	45.7839
3.9013	45.7482
3.89837	45.7828
3.89544	45.7832
3.89252	45.7441
3.8896	45.7673
3.88668	45.7802
3.88377	45.7106
3.88086	45.7311
3.87796	45.8236
3.87506	45.7457
3.87217	45.5736
3.86928	45.5546
3.86639	45.6491
3.86351	45.6114
3.86064	45.5589
3.85776	45.5589
3.8549	45.581
3.85203	45.6265
3.84917	45.561
3.84631	45.4805
3.84346	45.4749
3.84062	45.4293
3.83777	45.4454
3.83494	45.4256
3.8321	45.3811
3.82927	45.4166
3.82644	45.4063
3.82362	45.2996
3.82081	45.2494
3.81799	45.2769
3.81518	45.2829
3.81238	45.24
3.80958	45.1586
3.80678	45.2021
3.80399	45.1963
3.8012	45.1177
3.79841	45.0984
3.79563	45.1196
3.79286	45.1256
3.79008	45.0673
3.78731	45.0164
3.78455	44.9774
3.78179	44.9564
3.77903	44.9278
3.77628	44.873
3.77353	44.7785
3.77079	44.7832
3.76805	44.8004
3.76531	44.7262
3.76258	44.6648
3.75985	44.584
3.75713	44.5429
3.7544	44.5424
3.75169	44.5198
3.74898	44.4311
3.74627	44.4111
3.74356	44.4446
3.74086	44.4154
3.73816	44.3461
3.73547	44.1921
3.73278	44.0546
3.7301	44.0956
3.72741	44.0827
3.72474	44.0002
3.72206	43.9424
3.71939	43.9312
3.71673	43.9146
3.71406	43.8305
3.71141	43.7662
3.70875	43.7639
3.7061	43.7526
3.70345	43.6668
3.70081	43.5652
3.69817	43.4911
3.69553	43.467
3.6929	43.4082
3.69027	43.3395
3.68765	43.3383
3.68503	43.3189
3.68241	43.299
3.6798	43.2316
3.67719	43.0722
3.67458	43.0002
3.67198	43.0453
3.66938	43.0804
3.66678	43.0808
3.66419	43.0053
3.66161	42.9259
3.65902	42.8292
3.65644	42.786
3.65387	42.7678
3.65129	42.7662
3.64872	42.6773
3.64616	42.5752
3.64359	42.4878
3.64103	42.4867
3.63848	42.4666
3.63593	42.3861
3.63338	42.3504
3.63084	42.3495
3.6283	42.2792
3.62576	42.1522
3.62322	42.0713
3.62069	42.0114
3.61817	41.9428
3.61564	41.9226
3.61312	41.9042
3.61061	41.8673
3.6081	41.8464
3.60559	41.7336
3.60308	41.7005
3.60058	41.6134
3.59808	41.4728
3.59558	41.3898
3.59309	41.3143
3.59061	41.3124
3.58812	41.2938
3.58564	41.242
3.58316	41.166
3.58069	41.0056
3.57822	40.991
3.57575	41.0163
3.57328	40.946
3.57082	40.8214
3.56836	40.7479
3.56591	40.6519
3.56346	40.5788
3.56101	40.5367
3.55857	40.4323
3.55613	40.3666
3.55369	40.2278
3.55126	40.1156
3.54883	40.088
3.5464	40.0282
3.54397	39.886
3.54155	39.874
3.53914	39.8623
3.53672	39.7575
3.53431	39.6816
3.5319	39.5664
3.5295	39.4577
3.5271	39.3786
3.5247	39.2839
3.52231	39.1777
3.51991	39.0135
3.51753	38.8993
3.51514	38.8043
3.51276	38.7063
3.51038	38.7005
3.50801	38.581
3.50563	38.3763
3.50327	38.28
3.5009	38.2012
3.49854	38.129
3.49618	38.1093
3.49382	38.0825
3.49147	38.0566
3.48912	37.9851
3.48677	37.8778
3.48443	37.7995
3.48209	37.7942
3.47975	37.7759
3.47742	37.6771
3.47509	37.5987
3.47276	37.5917
3.47044	37.5175
3.46812	37.4739
3.4658	37.4371
