Name: Gypsum
Type: Rock
Class: Sedimentary
Subclass:  Chemical precipitate 
Particle Size: Solid surface
Sample No.: Ward75.txt
Owner: JPL
Wavelength range:  IR 
Origin: Ward's Collection of American Rocks.  Sample locality - Grand Rapids, Kent County, Michigan.
Collected by:  Ward's Natural Science
Description: A soft, fine-granular, pink or medium gray rock with occasional
cleavable selenite.
Geologic age - Mississippian.



Measurement: Hemispherical reflectance
First Column: X
Second Column: Y
X Units: Wavelength (micrometers)
Y Units: Reflectance (percent)
First X Value: 15.3871
Last X Value: 1.9998
Number of X Values: 2257
Additional information: None

15.3871   2.31275
15.3416   2.30053
15.2964   2.51442
15.2514   2.72302
15.2066   3.02406
15.1622   3.26814
15.1180   3.69573
15.0740   4.81266
15.0303   6.05015
14.9869   6.89760
14.9437   8.04218
14.9008   9.11633
14.8581   9.97346
14.8156  10.35710
14.7734  10.27240
14.7314   9.91073
14.6897   9.38073
14.6482   8.53762
14.6069   7.24532
14.5659   5.83468
14.5251   4.77048
14.4845   3.89978
14.4442   3.06032
14.4041   2.43757
14.3642   1.93702
14.3245   1.83350
14.2850   1.81079
14.2458   1.52947
14.2068   1.54046
14.1679   1.45706
14.1293   1.19988
14.0909   1.30951
14.0528   1.40130
14.0148   1.45140
13.9770   1.64778
13.9394   1.61132
13.9021   1.42328
13.8649   1.33858
13.8279   1.37121
13.7911   1.53249
13.7546   1.78877
13.7182   1.83354
13.6820   1.69304
13.6460   1.76698
13.6101   1.68588
13.5745   1.30962
13.5391   1.32273
13.5038   1.68854
13.4687   1.84573
13.4339   1.87727
13.3991   2.05370
13.3646   2.06394
13.3302   2.03707
13.2961   1.86209
13.2621   1.65929
13.2282   1.89914
13.1946   1.99610
13.1611   1.85166
13.1278   1.89136
13.0946   2.08975
13.0616   2.08197
13.0288   2.10689
12.9962   2.13548
12.9637   2.25612
12.9313   2.30445
12.8992   2.14680
12.8672   2.12533
12.8353   2.18979
12.8036   2.17050
12.7721   2.02062
12.7407   2.02198
12.7095   2.22939
12.6784   2.35270
12.6475   2.38134
12.6167   2.30470
12.5861   2.34399
12.5556   2.34017
12.5253   2.38496
12.4951   2.48117
12.4651   2.54054
12.4352   2.51844
12.4054   2.33123
12.3758   2.28266
12.3463   2.37563
12.3170   2.41415
12.2878   2.56461
12.2588   2.59666
12.2299   2.61111
12.2011   2.80006
12.1725   2.82925
12.1439   2.70910
12.1156   2.57078
12.0873   2.50793
12.0592   2.67085
12.0312   2.68939
12.0034   2.47553
11.9757   2.49975
11.9481   2.87048
11.9206   2.92345
11.8933   2.73772
11.8661   2.73811
11.8390   2.75186
11.8120   2.70523
11.7852   2.77704
11.7584   2.86313
11.7318   2.81818
11.7053   2.82985
11.6790   2.86802
11.6527   2.85003
11.6266   2.83184
11.6006   2.89550
11.5747   2.92086
11.5489   2.99501
11.5233   3.02750
11.4977   3.08804
11.4723   3.17160
11.4469   3.03962
11.4217   2.99545
11.3966   2.97761
11.3716   3.09292
11.3468   3.06768
11.3220   3.00827
11.2973   3.17379
11.2728   3.21353
11.2483   3.12614
11.2240   3.19718
11.1997   3.14408
11.1756   3.13210
11.1515   3.32524
11.1276   3.39335
11.1038   3.19905
11.0801   3.26586
11.0564   3.36691
11.0329   3.17917
11.0095   3.18634
10.9862   3.28383
10.9629   3.35206
10.9398   3.36199
10.9168   3.28628
10.8938   3.23379
10.8710   3.23315
10.8483   3.38067
10.8256   3.44419
10.8031   3.47230
10.7806   3.45291
10.7582   3.48710
10.7360   3.59479
10.7138   3.64969
10.6917   3.65064
10.6697   3.55873
10.6478   3.56417
10.6260   3.46191
10.6042   3.51555
10.5826   3.72758
10.5610   3.75923
10.5396   3.71398
10.5182   3.77521
10.4969   3.72212
10.4757   3.71371
10.4546   3.75992
10.4335   3.73936
10.4126   3.80879
10.3917   3.85594
10.3709   3.83384
10.3502   3.83739
10.3296   3.94675
10.3091   3.97896
10.2886   3.91439
10.2683   3.87322
10.2480   3.87447
10.2277   3.88849
10.2076   3.94600
10.1876   3.94333
10.1676   3.94378
10.1477   3.95112
10.1279   3.95255
10.1081   4.10008
10.0885   4.35121
10.0689   4.40440
10.0494   4.36164
10.0299   4.33169
10.0106   4.25862
 9.9913   4.38497
 9.9720   4.51020
 9.9529   4.55291
 9.9338   4.60671
 9.9148   4.62015
 9.8959   4.62771
 9.8771   4.65833
 9.8583   4.72105
 9.8396   4.68528
 9.8210   4.69064
 9.8024   4.86955
 9.7839   4.95071
 9.7655   4.91518
 9.7471   4.98438
 9.7288   5.05882
 9.7106   5.13668
 9.6925   5.16609
 9.6744   5.14971
 9.6564   5.24945
 9.6384   5.32108
 9.6205   5.48208
 9.6027   5.58699
 9.5850   5.56514
 9.5673   5.59156
 9.5497   5.79333
 9.5321   5.82578
 9.5146   5.77783
 9.4972   6.05168
 9.4798   6.16585
 9.4625   6.17303
 9.4453   6.32282
 9.4281   6.36849
 9.4110   6.50731
 9.3940   6.65946
 9.3770   6.76877
 9.3600   6.97062
 9.3432   7.17914
 9.3264   7.24627
 9.3096   7.30208
 9.2930   7.53284
 9.2763   7.74478
 9.2598   8.04651
 9.2432   8.40548
 9.2268   8.74856
 9.2104   9.03048
 9.1941   9.41712
 9.1778   9.92265
 9.1616  10.32360
 9.1454  10.75630
 9.1293  11.13090
 9.1133  11.68760
 9.0973  12.35560
 9.0814  13.16130
 9.0655  13.97890
 9.0497  14.78520
 9.0339  15.93280
 9.0182  17.28270
 9.0025  18.71700
 8.9870  20.17000
 8.9714  21.38930
 8.9559  22.67580
 8.9405  24.20650
 8.9251  25.45540
 8.9097  26.48220
 8.8945  27.49300
 8.8792  28.52010
 8.8641  29.60870
 8.8489  30.64320
 8.8338  31.64990
 8.8188  32.49510
 8.8039  33.31160
 8.7889  34.13910
 8.7741  34.93220
 8.7592  35.79670
 8.7445  36.49960
 8.7297  36.97630
 8.7151  37.48780
 8.7005  37.90760
 8.6859  38.11070
 8.6714  38.37320
 8.6569  38.80440
 8.6425  39.14170
 8.6281  39.28510
 8.6137  39.43850
 8.5994  39.58490
 8.5852  39.64940
 8.5710  39.42040
 8.5569  38.67910
 8.5428  37.46220
 8.5287  35.83590
 8.5147  33.79600
 8.5008  31.76480
 8.4869  30.11900
 8.4730  28.69670
 8.4592  27.41940
 8.4454  26.23980
 8.4316  24.80030
 8.4180  23.14400
 8.4043  21.76920
 8.3907  20.73380
 8.3772  19.81140
 8.3637  18.87610
 8.3502  17.89690
 8.3368  16.86450
 8.3234  15.84210
 8.3100  14.66830
 8.2967  13.29240
 8.2835  11.89230
 8.2703  10.44610
 8.2571   8.93892
 8.2440   7.61913
 8.2309   6.62744
 8.2179   5.73645
 8.2049   4.82615
 8.1919   4.01461
 8.1790   3.41489
 8.1661   2.95914
 8.1532   2.52117
 8.1404   2.27176
 8.1277   1.99051
 8.1150   1.71239
 8.1023   1.48958
 8.0897   1.34207
 8.0770   1.17845
 8.0645   1.04556
 8.0520   0.85172
 8.0395   0.72481
 8.0270   0.72105
 8.0146   0.71243
 8.0023   0.69418
 7.9899   0.58585
 7.9776   0.57814
 7.9654   0.61457
 7.9532   0.64287
 7.9410   0.59032
 7.9288   0.56062
 7.9167   0.59563
 7.9047   0.54181
 7.8926   0.57384
 7.8807   0.65568
 7.8687   0.62870
 7.8568   0.52212
 7.8449   0.50406
 7.8330   0.48318
 7.8212   0.39143
 7.8094   0.38039
 7.7977   0.43649
 7.7860   0.49281
 7.7743   0.54345
 7.7627   0.58800
 7.7511   0.60313
 7.7395   0.62129
 7.7280   0.69690
 7.7165   0.69646
 7.7050   0.69089
 7.6936   0.75555
 7.6822   0.77606
 7.6708   0.78556
 7.6595   0.75260
 7.6482   0.71171
 7.6369   0.79083
 7.6257   0.96104
 7.6145   0.99451
 7.6033   0.84718
 7.5922   0.83312
 7.5811   0.92912
 7.5700   0.92864
 7.5590   0.88354
 7.5480   0.93563
 7.5370   1.05931
 7.5261   1.07829
 7.5152   0.99099
 7.5043   0.93088
 7.4935   0.99669
 7.4826   1.11500
 7.4718   1.09889
 7.4611   1.03206
 7.4504   1.05343
 7.4397   1.14832
 7.4290   1.16204
 7.4184   1.22835
 7.4078   1.35044
 7.3972   1.32647
 7.3867   1.26894
 7.3762   1.28231
 7.3657   1.31110
 7.3553   1.33324
 7.3449   1.39085
 7.3345   1.40795
 7.3241   1.36236
 7.3138   1.41028
 7.3035   1.46573
 7.2932   1.40965
 7.2830   1.37803
 7.2727   1.42789
 7.2626   1.49754
 7.2524   1.57120
 7.2423   1.59761
 7.2322   1.63911
 7.2221   1.69833
 7.2120   1.79012
 7.2020   1.77914
 7.1921   1.74709
 7.1821   1.82370
 7.1722   1.80450
 7.1623   1.78854
 7.1524   1.75773
 7.1425   1.76776
 7.1327   1.82107
 7.1229   1.89297
 7.1131   1.90538
 7.1034   1.98626
 7.0937   2.00721
 7.0840   1.95514
 7.0743   2.02485
 7.0647   2.03703
 7.0551   2.03695
 7.0455   2.18027
 7.0359   2.17005
 7.0264   2.08472
 7.0169   2.07888
 7.0074   2.25261
 6.9979   2.36562
 6.9885   2.32938
 6.9791   2.19340
 6.9697   2.15885
 6.9604   2.25281
 6.9510   2.31551
 6.9417   2.37012
 6.9324   2.24691
 6.9232   2.21357
 6.9140   2.39353
 6.9047   2.38688
 6.8956   2.30678
 6.8864   2.31024
 6.8773   2.34124
 6.8682   2.47094
 6.8591   2.54668
 6.8500   2.38799
 6.8410   2.39221
 6.8320   2.49151
 6.8230   2.54336
 6.8140   2.56307
 6.8051   2.53305
 6.7962   2.57794
 6.7873   2.58334
 6.7784   2.56976
 6.7695   2.60790
 6.7607   2.56700
 6.7519   2.55498
 6.7431   2.66695
 6.7344   2.73092
 6.7256   2.67226
 6.7169   2.62294
 6.7082   2.69004
 6.6996   2.73723
 6.6909   2.74063
 6.6823   2.77383
 6.6737   2.77406
 6.6651   2.70411
 6.6566   2.68077
 6.6480   2.73295
 6.6395   2.79641
 6.6310   2.82300
 6.6226   2.85729
 6.6141   2.87816
 6.6057   2.84172
 6.5973   2.85652
 6.5889   2.86782
 6.5805   2.92380
 6.5722   2.89286
 6.5639   2.70876
 6.5556   2.66539
 6.5473   2.69368
 6.5390   2.70751
 6.5308   2.74881
 6.5226   2.84742
 6.5144   2.89795
 6.5062   2.80380
 6.4981   2.79782
 6.4900   2.82275
 6.4818   2.82769
 6.4737   2.87538
 6.4657   2.87404
 6.4576   2.83204
 6.4496   2.80381
 6.4416   2.80207
 6.4336   2.83164
 6.4256   2.92130
 6.4177   3.00362
 6.4097   2.90738
 6.4018   2.77244
 6.3939   2.83622
 6.3860   2.93363
 6.3782   2.97450
 6.3704   2.93581
 6.3625   2.85866
 6.3547   2.83351
 6.3470   2.90025
 6.3392   2.87156
 6.3315   2.86929
 6.3237   2.86190
 6.3160   2.81210
 6.3083   2.80402
 6.3007   2.69173
 6.2930   2.64045
 6.2854   2.76157
 6.2778   2.78375
 6.2702   2.80180
 6.2626   2.77524
 6.2551   2.75535
 6.2476   2.72637
 6.2400   2.74050
 6.2325   2.80117
 6.2251   2.86597
 6.2176   2.87194
 6.2101   3.00077
 6.2027   3.13073
 6.1953   3.13822
 6.1879   3.36651
 6.1805   3.66157
 6.1732   3.90864
 6.1658   4.05151
 6.1585   3.76914
 6.1512   3.28263
 6.1439   2.70372
 6.1367   2.13570
 6.1294   1.88224
 6.1222   1.75710
 6.1149   1.66548
 6.1077   1.65400
 6.1006   1.69116
 6.0934   1.68603
 6.0862   1.65435
 6.0791   1.76657
 6.0720   1.88577
 6.0649   1.93625
 6.0578   1.97794
 6.0507   1.96746
 6.0437   1.98547
 6.0366   2.04056
 6.0296   2.08946
 6.0226   2.11132
 6.0156   2.16015
 6.0087   2.15820
 6.0017   2.04491
 5.9948   2.10588
 5.9878   2.26001
 5.9809   2.20074
 5.9740   2.17385
 5.9672   2.13803
 5.9603   1.96357
 5.9535   1.93848
 5.9466   2.01474
 5.9398   1.95730
 5.9330   1.87749
 5.9262   1.86990
 5.9195   1.82164
 5.9127   1.76233
 5.9060   1.82320
 5.8993   1.98460
 5.8926   2.04062
 5.8859   2.04198
 5.8792   2.06743
 5.8726   2.06509
 5.8659   2.18679
 5.8593   2.30228
 5.8527   2.34085
 5.8461   2.42143
 5.8395   2.43171
 5.8329   2.44070
 5.8264   2.61417
 5.8198   2.68640
 5.8133   2.70477
 5.8068   2.77354
 5.8003   2.73046
 5.7938   2.67484
 5.7874   2.74729
 5.7809   2.89067
 5.7745   2.95993
 5.7680   2.95661
 5.7616   2.86719
 5.7552   2.85387
 5.7489   2.95837
 5.7425   3.00658
 5.7361   3.01138
 5.7298   3.05246
 5.7235   3.07856
 5.7172   3.19318
 5.7109   3.34751
 5.7046   3.33322
 5.6983   3.37179
 5.6921   3.37797
 5.6858   3.34222
 5.6796   3.38780
 5.6734   3.38417
 5.6672   3.38622
 5.6610   3.47161
 5.6548   3.48905
 5.6487   3.47232
 5.6425   3.58649
 5.6364   3.56728
 5.6303   3.57067
 5.6242   3.62627
 5.6181   3.65192
 5.6120   3.67459
 5.6059   3.72439
 5.5999   3.80955
 5.5938   3.87055
 5.5878   3.87883
 5.5818   3.89407
 5.5758   3.94622
 5.5698   3.93673
 5.5638   3.92963
 5.5578   3.94480
 5.5519   3.99797
 5.5460   3.97466
 5.5400   3.96655
 5.5341   4.03820
 5.5282   4.16221
 5.5223   4.18527
 5.5164   4.16449
 5.5106   4.18839
 5.5047   4.19509
 5.4989   4.26115
 5.4931   4.29788
 5.4873   4.30882
 5.4815   4.44259
 5.4757   4.54867
 5.4699   4.52369
 5.4641   4.44948
 5.4584   4.48128
 5.4527   4.55840
 5.4469   4.57640
 5.4412   4.50945
 5.4355   4.49134
 5.4298   4.51834
 5.4241   4.61094
 5.4185   4.67313
 5.4128   4.65323
 5.4072   4.59620
 5.4015   4.60289
 5.3959   4.72872
 5.3903   4.84573
 5.3847   4.86865
 5.3791   4.83215
 5.3735   4.79013
 5.3680   4.78047
 5.3624   4.83018
 5.3569   4.81618
 5.3514   4.76172
 5.3458   4.71967
 5.3403   4.82497
 5.3348   4.97286
 5.3294   5.03657
 5.3239   4.99204
 5.3184   4.99851
 5.3130   5.05191
 5.3075   5.02337
 5.3021   4.95934
 5.2967   4.97079
 5.2913   5.02911
 5.2859   5.07416
 5.2805   5.00367
 5.2751   4.98574
 5.2698   5.12671
 5.2644   5.23741
 5.2591   5.22299
 5.2538   5.19426
 5.2485   5.18714
 5.2431   5.18319
 5.2378   5.16260
 5.2326   5.12306
 5.2273   5.10417
 5.2220   5.15286
 5.2168   5.20108
 5.2115   5.11480
 5.2063   5.16476
 5.2011   5.27963
 5.1959   5.24826
 5.1907   5.16282
 5.1855   5.14878
 5.1803   5.18004
 5.1751   5.22208
 5.1700   5.22751
 5.1648   5.20394
 5.1597   5.18747
 5.1545   5.10247
 5.1494   5.09153
 5.1443   5.08308
 5.1392   5.10623
 5.1341   5.15897
 5.1291   5.06056
 5.1240   5.07010
 5.1189   5.17563
 5.1139   5.19756
 5.1088   5.20732
 5.1038   5.18168
 5.0988   5.16102
 5.0938   5.20976
 5.0888   5.17856
 5.0838   5.12930
 5.0788   5.18343
 5.0738   5.23778
 5.0689   5.15268
 5.0639   5.07249
 5.0590   5.09454
 5.0541   5.11008
 5.0491   5.09964
 5.0442   5.15038
 5.0393   5.11040
 5.0344   5.09477
 5.0296   5.14451
 5.0247   5.13684
 5.0198   5.15964
 5.0150   5.15084
 5.0101   5.11693
 5.0053   5.05444
 5.0004   5.07773
 4.9956   5.16484
 4.9908   5.08832
 4.9860   5.01987
 4.9812   5.12152
 4.9765   5.09031
 4.9717   5.03702
 4.9669   5.09322
 4.9622   5.13235
 4.9574   5.08841
 4.9527   5.06405
 4.9480   5.11484
 4.9432   5.18064
 4.9385   5.18565
 4.9338   5.11640
 4.9291   5.05986
 4.9245   5.03693
 4.9198   5.05746
 4.9151   5.15582
 4.9105   5.16707
 4.9058   5.08856
 4.9012   4.98491
 4.8966   4.96156
 4.8919   4.95802
 4.8873   4.99647
 4.8827   5.08293
 4.8781   5.06237
 4.8736   4.95164
 4.8690   4.82541
 4.8644   4.81838
 4.8599   4.83528
 4.8553   4.89328
 4.8508   4.94191
 4.8462   4.78734
 4.8417   4.67707
 4.8372   4.74712
 4.8327   4.77027
 4.8282   4.73912
 4.8237   4.72268
 4.8192   4.67284
 4.8147   4.61618
 4.8103   4.57182
 4.8058   4.49868
 4.8014   4.48730
 4.7969   4.53881
 4.7925   4.44496
 4.7881   4.25347
 4.7836   4.20460
 4.7792   4.23447
 4.7748   4.14265
 4.7704   3.92762
 4.7660   3.80886
 4.7617   3.72882
 4.7573   3.66425
 4.7530   3.63372
 4.7486   3.49199
 4.7443   3.48046
 4.7399   3.42435
 4.7356   3.23320
 4.7313   3.10142
 4.7270   3.14136
 4.7226   3.12606
 4.7184   3.14338
 4.7141   3.20408
 4.7098   3.21163
 4.7055   3.15516
 4.7012   3.24248
 4.6970   3.36074
 4.6927   3.29686
 4.6885   3.20888
 4.6842   3.21734
 4.6800   3.14677
 4.6758   3.08741
 4.6716   3.16154
 4.6674   3.27694
 4.6632   3.36479
 4.6590   3.35436
 4.6548   3.39490
 4.6506   3.46742
 4.6465   3.46354
 4.6423   3.38866
 4.6382   3.40130
 4.6340   3.34793
 4.6299   3.28638
 4.6258   3.32217
 4.6216   3.35350
 4.6175   3.38083
 4.6134   3.46193
 4.6093   3.38422
 4.6052   3.30665
 4.6011   3.28128
 4.5971   3.31987
 4.5930   3.31902
 4.5889   3.18638
 4.5849   3.09024
 4.5808   3.11514
 4.5768   3.09647
 4.5727   3.00804
 4.5687   2.93851
 4.5647   2.93568
 4.5607   2.87116
 4.5567   2.89752
 4.5526   2.99641
 4.5487   3.04814
 4.5447   2.96478
 4.5407   2.81138
 4.5367   2.81732
 4.5328   2.86883
 4.5288   2.85500
 4.5248   2.89847
 4.5209   2.99581
 4.5170   2.88879
 4.5130   2.63346
 4.5091   2.59217
 4.5052   2.74176
 4.5013   2.86893
 4.4974   2.99089
 4.4935   3.04232
 4.4896   2.99165
 4.4857   2.92831
 4.4818   2.94166
 4.4779   2.85277
 4.4741   2.75481
 4.4702   2.81109
 4.4664   2.85064
 4.4625   2.85268
 4.4587   3.00414
 4.4549   2.98859
 4.4510   2.87041
 4.4472   2.91576
 4.4434   2.92671
 4.4396   2.84888
 4.4358   2.82904
 4.4320   2.96415
 4.4282   3.07843
 4.4245   3.14238
 4.4207   3.09829
 4.4169   3.09601
 4.4132   3.11806
 4.4094   3.02990
 4.4057   3.01314
 4.4019   3.07946
 4.3982   3.07319
 4.3945   3.05524
 4.3907   3.12914
 4.3870   3.22978
 4.3833   3.22309
 4.3796   3.20901
 4.3759   3.32439
 4.3722   3.36140
 4.3685   3.31496
 4.3649   3.33174
 4.3612   3.27945
 4.3575   3.38896
 4.3539   3.49366
 4.3502   3.54310
 4.3466   3.48804
 4.3429   3.47921
 4.3393   3.52927
 4.3357   3.60512
 4.3320   3.68759
 4.3284   3.70969
 4.3248   3.68949
 4.3212   3.62882
 4.3176   3.63075
 4.3140   3.68178
 4.3105   3.84099
 4.3069   3.88947
 4.3033   3.97987
 4.2997   4.11075
 4.2962   4.05302
 4.2926   4.04268
 4.2890   4.16054
 4.2855   4.29898
 4.2820   4.26162
 4.2784   4.12432
 4.2749   4.17112
 4.2714   4.43296
 4.2679   4.52860
 4.2644   4.48307
 4.2609   4.53862
 4.2574   4.53537
 4.2539   4.57466
 4.2504   4.71461
 4.2469   4.69309
 4.2434   4.68019
 4.2400   4.67445
 4.2365   4.73281
 4.2330   4.72477
 4.2296   4.87523
 4.2261   5.05675
 4.2227   5.15662
 4.2193   5.19050
 4.2158   5.15418
 4.2124   5.21889
 4.2090   5.36249
 4.2056   5.43822
 4.2022   5.41902
 4.1988   5.46436
 4.1954   5.59388
 4.1920   5.62126
 4.1886   5.61753
 4.1852   5.76440
 4.1818   5.86802
 4.1785   5.81038
 4.1751   5.85490
 4.1717   5.94500
 4.1684   5.95673
 4.1650   5.91107
 4.1617   5.95699
 4.1584   6.01276
 4.1550   6.06285
 4.1517   6.05858
 4.1484   6.09503
 4.1451   6.23137
 4.1418   6.24614
 4.1384   6.27691
 4.1351   6.41602
 4.1319   6.40628
 4.1286   6.44565
 4.1253   6.59875
 4.1220   6.58789
 4.1187   6.51351
 4.1155   6.47372
 4.1122   6.52051
 4.1089   6.64550
 4.1057   6.75444
 4.1024   6.85482
 4.0992   6.79867
 4.0959   6.77260
 4.0927   6.84742
 4.0895   6.87480
 4.0863   6.90100
 4.0830   6.93947
 4.0798   6.99694
 4.0766   7.06376
 4.0734   7.15939
 4.0702   7.16833
 4.0670   7.06599
 4.0639   7.17349
 4.0607   7.33920
 4.0575   7.41682
 4.0543   7.42097
 4.0511   7.38681
 4.0480   7.51524
 4.0448   7.67567
 4.0417   7.56757
 4.0385   7.47439
 4.0354   7.67737
 4.0323   7.70004
 4.0291   7.74938
 4.0260   7.93569
 4.0229   7.85556
 4.0197   7.76086
 4.0166   7.72735
 4.0135   7.73718
 4.0104   7.87133
 4.0073   7.95098
 4.0042   7.96153
 4.0011   8.00218
 3.9981   8.01990
 3.9950   8.12621
 3.9919   8.05831
 3.9888   7.97295
 3.9857   8.03301
 3.9827   7.96214
 3.9796   7.88657
 3.9766   7.90682
 3.9735   7.92516
 3.9705   7.91512
 3.9675   7.94345
 3.9644   8.10753
 3.9614   8.27054
 3.9584   8.36001
 3.9554   8.26856
 3.9523   8.27145
 3.9493   8.40445
 3.9463   8.52819
 3.9433   8.61721
 3.9403   8.58491
 3.9373   8.54446
 3.9343   8.63637
 3.9314   8.68660
 3.9284   8.70240
 3.9254   8.77370
 3.9224   8.85106
 3.9195   8.87264
 3.9165   8.88014
 3.9136   8.92035
 3.9106   8.89318
 3.9077   8.93079
 3.9047   9.02000
 3.9018   9.02311
 3.8988   8.96401
 3.8959   8.94788
 3.8930   8.92463
 3.8901   8.93231
 3.8872   8.96604
 3.8842   8.86516
 3.8813   8.74078
 3.8784   8.78778
 3.8755   8.72148
 3.8726   8.61650
 3.8697   8.67680
 3.8669   8.71947
 3.8640   8.96058
 3.8611   9.20931
 3.8582   9.14979
 3.8554   8.99279
 3.8525   9.06786
 3.8496   9.15425
 3.8468   9.19362
 3.8439   9.27230
 3.8411   9.33744
 3.8382   9.28602
 3.8354   9.28384
