Name: Calcite CaCO_3
Type: Mineral
Class: Carbonates
Subclass: 
Particle Size: 0-45um
Sample No.: C-3A
Owner: JPL
Wavelength range: IR
Origin: Italy
Collected by Ward's
Description:  Travertine 





Measurement: Hemispherical reflectance
First Column: X
Second Column: Y
X Units:  Wavelength (micrometers)
Y Units:  Reflectance (percent)
First X Value: 15.3853
Last X Value: 2.00032
Number of X Values: 2256
Additional information: c03aa.txt
 
15.3853	27.5578
15.3397	27.9342
15.2945	28.3194
15.2495	28.468
15.2048	28.4656
15.1603	28.461
15.1161	28.4732
15.0722	28.5379
15.0285	28.2896
14.9851	27.8573
14.9419	27.9433
14.8989	28.3077
14.8563	28.6927
14.8138	29.3638
14.7716	30.0798
14.7296	30.7716
14.6879	31.5982
14.6464	32.2434
14.6052	32.6617
14.5641	32.6719
14.5233	32.1683
14.4828	31.4234
14.4424	30.2559
14.4023	28.8932
14.3624	27.6416
14.3227	25.574
14.2833	23.0424
14.244	20.4896
14.205	17.1277
14.1662	13.277
14.1276	9.22744
14.0892	5.42167
14.051	2.85232
14.0131	1.79332
13.9753	1.8874
13.9377	3.82798
13.9004	8.02273
13.8632	13.1858
13.8262	18.0436
13.7895	22.4009
13.7529	26.206
13.7165	29.1761
13.6803	31.496
13.6443	33.5367
13.6085	35.3171
13.5729	37.0015
13.5374	38.3587
13.5022	39.4354
13.4671	40.2178
13.4322	40.9651
13.3975	41.5017
13.363	41.7317
13.3286	41.754
13.2944	41.681
13.2604	41.5765
13.2266	41.3554
13.193	40.8141
13.1595	40.2508
13.1262	39.7923
13.093	39.165
13.06	38.4173
13.0272	37.6769
12.9946	36.9948
12.9621	36.5009
12.9298	36.0775
12.8976	35.9562
12.8656	35.9056
12.8337	36.0009
12.8021	36.2133
12.7705	36.3679
12.7391	36.6086
12.7079	36.9545
12.6769	37.3711
12.6459	37.8322
12.6152	38.2213
12.5845	38.5367
12.5541	38.6708
12.5238	38.8074
12.4936	39.2537
12.4635	39.8366
12.4337	40.2494
12.4039	40.5525
12.3743	40.7823
12.3448	40.9815
12.3155	41.0194
12.2863	41.1984
12.2573	41.5611
12.2284	41.9482
12.1996	42.2696
12.171	42.5525
12.1425	42.7752
12.1141	42.9268
12.0859	42.8872
12.0578	42.7392
12.0298	42.5559
12.0019	42.2009
11.9742	41.5949
11.9466	40.8269
11.9192	39.8306
11.8918	38.502
11.8646	35.958
11.8375	30.3267
11.8106	20.3685
11.7837	15.8063
11.757	22.891
11.7304	28.8813
11.7039	29.5731
11.6776	28.0598
11.6513	25.8215
11.6252	23.1595
11.5992	20.0636
11.5733	16.6057
11.5475	12.9715
11.5219	9.7044
11.4963	7.54958
11.4709	6.79714
11.4455	6.87417
11.4203	7.07274
11.3952	7.37451
11.3702	7.82379
11.3454	8.07191
11.3206	8.66997
11.2959	11.5715
11.2714	18.1659
11.2469	24.8761
11.2226	28.6156
11.1983	30.8364
11.1742	32.7692
11.1502	34.5628
11.1263	35.987
11.1024	37.1074
11.0787	37.9623
11.0551	38.6274
11.0316	39.1983
11.0081	39.8325
10.9848	40.3101
10.9616	40.6925
10.9385	41.0536
10.9154	41.3033
10.8925	41.185
10.8697	40.8649
10.8469	40.4107
10.8243	39.7919
10.8017	39.1045
10.7793	38.3166
10.7569	37.6475
10.7346	37.0436
10.7125	36.5745
10.6904	36.4177
10.6684	36.3596
10.6465	36.5326
10.6247	36.811
10.6029	36.8846
10.5813	36.8759
10.5597	36.8178
10.5383	36.8877
10.5169	37.2595
10.4956	37.816
10.4744	38.396
10.4533	39.0205
10.4323	39.6222
10.4113	40.0457
10.3904	40.3381
10.3697	40.4406
10.349	40.3942
10.3284	40.3263
10.3078	40.252
10.2874	39.8902
10.267	39.2818
10.2467	38.5232
10.2265	37.8161
10.2064	37.4155
10.1863	37.4856
10.1663	37.5405
10.1464	37.3363
10.1266	36.9984
10.1069	36.529
10.0872	35.8422
10.0676	35.244
10.0481	34.8933
10.0287	34.4749
10.0093	34.125
9.99005	33.8881
9.97084	33.646
9.95169	33.3846
9.93263	32.9922
9.91364	32.6007
9.89472	32.1371
9.87587	31.8021
9.8571	31.6988
9.83839	31.8024
9.81976	32.1971
9.80119	32.7273
9.78271	33.1108
9.76428	33.4152
9.74592	33.7111
9.72764	34.1351
9.70943	34.6864
9.69128	35.4634
9.6732	36.343
9.65518	36.8469
9.63724	37.0741
9.61935	37.1684
9.60155	37.1621
9.5838	37.2575
9.56611	37.4712
9.5485	37.7891
9.53094	38.0675
9.51345	38.1365
9.49604	37.9179
9.47867	37.662
9.46137	37.3497
9.44414	36.9642
9.42697	36.47
9.40986	35.6631
9.39281	34.7278
9.37583	33.9204
9.35891	33.4739
9.34204	33.3011
9.32524	33.1823
9.3085	33.1046
9.29182	32.8984
9.27519	32.2275
9.25863	31.0412
9.24213	29.4893
9.22568	28.153
9.2093	27.6598
9.19297	28.1182
9.17669	29.2917
9.16048	30.4441
9.14433	31.2086
9.12823	31.4801
9.11218	31.4427
9.0962	31.2393
9.08027	31.1263
9.06439	30.8469
9.04858	30.446
9.03281	29.9914
9.0171	29.5719
9.00145	29.0895
8.98585	28.4109
8.9703	27.6948
8.9548	26.9842
8.93937	26.0933
8.92398	25.0873
8.90865	24.1146
8.89337	23.2862
8.87814	22.294
8.86296	21.47
8.84784	20.6971
8.83277	19.7781
8.81774	18.8322
8.80277	18.0054
8.78786	17.4082
8.77298	16.9508
8.75816	16.5268
8.7434	16.2323
8.72868	16.1708
8.714	16.2289
8.69938	16.0712
8.68481	15.8731
8.67029	15.5203
8.65581	14.9527
8.64139	14.4341
8.62701	13.9498
8.61268	13.5724
8.5984	13.3282
8.58416	13.4284
8.56997	13.6923
8.55583	13.8322
8.54174	14.0373
8.52769	14.3599
8.51368	14.5367
8.49973	14.5995
8.48582	14.7438
8.47195	15.0502
8.45813	15.6168
8.44436	16.3424
8.43062	17.259
8.41693	17.9303
8.4033	18.665
8.3897	19.5894
8.37614	20.4867
8.36264	21.4136
8.34917	22.2705
8.33574	22.9502
8.32236	23.6041
8.30903	24.1298
8.29573	24.5053
8.28248	24.8992
8.26927	25.4138
8.2561	25.7683
8.24298	25.9875
8.2299	26.2697
8.21685	26.6062
8.20385	26.7367
8.19089	26.7113
8.17797	26.5598
8.16509	26.4614
8.15225	26.3744
8.13946	26.2854
8.1267	26.1398
8.11398	25.9573
8.10131	25.6837
8.08867	25.3273
8.07606	25.0642
8.0635	24.9375
8.05099	24.9012
8.0385	24.9897
8.02606	25.2179
8.01366	25.4802
8.00129	25.6573
7.98896	25.5755
7.97667	25.4038
7.96442	25.2677
7.9522	25.0375
7.94002	24.5661
7.92788	24.0187
7.91578	23.565
7.90371	23.3456
7.89168	23.1679
7.87969	23.0481
7.86773	23.168
7.85581	23.1667
7.84392	22.9843
7.83207	22.7043
7.82026	22.3989
7.80849	21.9785
7.79674	21.6607
7.78503	21.4932
7.77337	21.3882
7.76173	21.245
7.75012	21.0528
7.73856	20.7967
7.72703	20.4168
7.71553	19.9885
7.70406	19.5688
7.69263	18.995
7.68123	18.3267
7.66987	17.718
7.65855	17.1007
7.64725	16.5549
7.63598	15.9847
7.62475	15.4251
7.61356	15.0451
7.60239	14.708
7.59126	14.4503
7.58017	14.2652
7.5691	14.072
7.55806	13.8996
7.54707	13.768
7.5361	13.6068
7.52516	13.3714
7.51425	13.2314
7.50338	13.0732
7.49253	12.8453
7.48172	12.6924
7.47094	12.4824
7.46019	12.1203
7.44947	11.7025
7.43879	11.3723
7.42813	11.1866
7.4175	10.9037
7.4069	10.5888
7.39634	10.422
7.3858	10.1626
7.37529	9.75919
7.36482	9.47665
7.35437	9.18888
7.34396	8.77633
7.33357	8.4118
7.32321	8.08718
7.31288	7.75505
7.30258	7.42174
7.29231	7.17952
7.28207	7.02474
7.27185	6.84822
7.26167	6.68174
7.25152	6.59931
7.24139	6.52424
7.23129	6.48324
7.22122	6.45044
7.21117	6.40145
7.20116	6.27329
7.19117	6.26921
7.18121	6.44999
7.17128	6.63012
7.16137	6.73675
7.1515	6.8597
7.14164	6.97251
7.13182	7.10947
7.12203	7.42935
7.11225	7.94225
7.10251	8.38248
7.0928	8.65973
7.08311	8.76421
7.07344	8.80975
7.06381	8.87036
7.0542	8.90276
7.04461	8.88886
7.03506	8.8272
7.02552	8.71994
7.01601	8.6411
7.00653	8.58697
6.99708	8.53403
6.98765	8.53548
6.97824	8.52899
6.96886	8.54042
6.95951	8.57629
6.95018	8.47802
6.94087	8.41435
6.9316	8.40728
6.92234	8.4073
6.91311	8.4651
6.90391	8.57212
6.89473	8.65842
6.88557	8.76687
6.87644	8.92025
6.86733	9.1182
6.85824	9.17642
6.84918	9.02711
6.84015	9.08593
6.83114	9.28655
6.82215	9.38338
6.81319	9.33817
6.80424	9.35533
6.79532	9.51339
6.78643	9.64184
6.77756	9.6702
6.76871	9.71636
6.75989	9.72762
6.75109	9.76309
6.74231	9.84592
6.73355	9.98282
6.72482	10.169
6.71611	10.3578
6.70742	10.5085
6.69875	10.5557
6.69011	10.7163
6.68149	10.9392
6.67289	11.0366
6.66431	11.1407
6.65576	11.2188
6.64722	11.5452
6.63871	12.1037
6.63022	12.2388
6.62175	12.2379
6.61331	12.4784
6.60488	12.7828
6.59648	13.134
6.5881	13.4515
6.57974	13.8543
6.5714	14.2822
6.56308	14.4618
6.55478	14.7003
6.54651	14.8362
6.53825	14.9234
6.53001	15.1724
6.5218	15.4657
6.51361	15.5504
6.50544	15.7535
6.49729	16.1543
6.48915	16.3727
6.48104	16.3751
6.47295	16.3839
6.46488	16.3324
6.45683	16.4524
6.4488	16.55
6.44079	16.2658
6.4328	15.6869
6.42482	15.0359
6.41687	14.4476
6.40894	13.5038
6.40103	12.5029
6.39314	11.7246
6.38526	10.962
6.37741	10.3542
6.36957	9.74192
6.36176	9.02015
6.35396	8.45058
6.34618	7.88148
6.33843	7.0288
6.33069	6.28077
6.32297	5.70399
6.31527	5.27023
6.30758	5.00283
6.29992	4.73514
6.29227	4.52794
6.28465	4.57978
6.27704	4.69777
6.26945	4.72124
6.26188	4.68344
6.25432	4.60535
6.24679	4.55896
6.23927	4.55757
6.23177	4.4496
6.22429	4.39184
6.21683	4.42064
6.20938	4.31465
6.20195	4.17928
6.19454	4.1102
6.18715	4.19441
6.17978	4.22202
6.17242	4.05485
6.16508	4.08297
6.15776	4.20455
6.15045	4.2188
6.14317	4.24906
6.1359	4.36295
6.12864	4.51475
6.12141	4.67775
6.11419	4.85545
6.10699	4.98691
6.0998	5.02716
6.09263	5.02116
6.08549	5.20545
6.07835	5.43007
6.07123	5.55098
6.06413	5.6551
6.05705	5.92257
6.04998	6.32774
6.04293	6.45945
6.0359	6.56078
6.02888	6.85044
6.02187	7.14754
6.01489	7.44375
6.00792	7.66845
6.00096	7.92335
5.99403	8.18041
5.98711	8.37894
5.9802	8.6001
5.97331	8.90299
5.96644	9.12914
5.95958	9.1957
5.95274	9.43231
5.94591	9.74872
5.9391	10.1643
5.9323	10.5069
5.92552	10.7331
5.91876	10.9603
5.91201	11.275
5.90528	11.6439
5.89856	12.0886
5.89186	12.2455
5.88517	12.4594
5.8785	12.6797
5.87184	12.5591
5.8652	12.6955
5.85857	12.7534
5.85196	12.7349
5.84536	12.7299
5.83878	12.8038
5.83221	12.9509
5.82566	13.1215
5.81912	13.0621
5.81259	12.912
5.80608	12.8417
5.79959	12.7724
5.79311	12.6924
5.78665	12.6788
5.78019	12.7043
5.77376	12.7975
5.76734	12.8893
5.76093	12.6812
5.75453	12.6931
5.74815	12.9634
5.74179	13.18
5.73543	13.4778
5.7291	13.9263
5.72277	14.3604
5.71646	14.7659
5.71017	15.0708
5.70389	15.3036
5.69762	15.695
5.69136	16.1889
5.68513	16.6244
5.6789	17.2042
5.67268	17.86
5.66648	18.3466
5.6603	18.9082
5.65413	19.5062
5.64797	19.9696
5.64182	20.1349
5.63569	19.7065
5.62957	18.917
5.62347	17.8349
5.61737	16.4347
5.61129	14.6012
5.60522	12.4697
5.59917	9.93588
5.59313	7.24467
5.5871	4.86428
5.58109	3.17283
5.57509	2.3656
5.5691	2.26646
5.56312	2.1896
5.55716	2.3177
5.55121	3.37332
5.54528	5.72968
5.53935	9.14448
5.53344	12.8979
5.52754	16.4673
5.52166	19.673
5.51578	22.3729
5.50992	24.7098
5.50407	26.8413
5.49823	28.6956
5.49241	30.4031
5.4866	32.0223
5.4808	33.6673
5.47501	35.0924
5.46923	36.3937
5.46347	37.7165
5.45772	38.8814
5.45198	40.0582
5.44625	41.3179
5.44054	42.4379
5.43484	43.5155
5.42914	44.7088
5.42347	46.0639
5.4178	46.9268
5.41214	47.6505
5.4065	48.5687
5.40087	49.3987
5.39525	50.1729
5.38964	50.9979
5.38404	51.7758
5.37846	52.4803
5.37288	53.1286
5.36732	53.8099
5.36177	54.5278
5.35623	55.2715
5.35071	55.9551
5.34519	56.4417
5.33968	57.0016
5.33419	57.5964
5.32871	58.1562
5.32324	58.8363
5.31778	59.4302
5.31233	59.9893
5.30689	60.5147
5.30147	61.0214
5.29605	61.5874
5.29065	62.0789
5.28525	62.3842
5.27987	62.7913
5.2745	63.165
5.26914	63.5024
5.26379	63.8474
5.25845	64.2405
5.25312	64.6226
5.24781	65.0995
5.2425	65.522
5.23721	65.8426
5.23192	66.1505
5.22665	66.4612
5.22138	66.71
5.21613	67.1267
5.21089	67.4728
5.20566	67.7085
5.20044	67.9986
5.19522	68.1861
5.19002	68.3617
5.18483	68.5705
5.17965	68.75
5.17448	68.8936
5.16933	68.9519
5.16418	69.1314
5.15904	69.3728
5.15391	69.594
5.14879	69.7929
5.14368	69.8808
5.13859	69.8687
5.1335	69.8941
5.12842	69.8259
5.12335	69.6108
5.1183	68.917
5.11325	67.3947
5.10821	64.8185
5.10318	62.004
5.09817	61.1594
5.09316	63.7914
5.08816	67.1619
5.08317	69.3676
5.07819	70.524
5.07322	71.0843
5.06826	71.4117
5.06331	71.6684
5.05837	71.7871
5.05344	71.872
5.04852	71.8779
5.04361	71.895
5.03871	71.8791
5.03382	71.9003
5.02894	71.9403
5.02406	71.9973
5.0192	71.9794
5.01435	71.9066
5.0095	71.8101
5.00467	71.7923
4.99984	71.8332
4.99502	71.8262
4.99021	71.7459
4.98542	71.7136
4.98063	71.7678
4.97585	71.7836
4.97108	71.7221
4.96632	71.7189
4.96156	71.7476
4.95682	71.6933
4.95209	71.6593
4.94736	71.7072
4.94264	71.749
4.93794	71.7232
4.93324	71.7009
4.92855	71.7035
4.92387	71.6785
4.9192	71.7333
4.91453	71.8547
4.90988	71.9678
4.90524	72.0119
4.9006	72.0792
4.89597	72.2114
4.89135	72.3136
4.88674	72.327
4.88214	72.3597
4.87755	72.4192
4.87296	72.4391
4.86839	72.417
4.86382	72.4574
4.85926	72.5584
4.85471	72.6135
4.85017	72.5782
4.84564	72.5518
4.84111	72.5762
4.8366	72.6831
4.83209	72.7484
4.82759	72.7043
4.8231	72.6265
4.81862	72.6086
4.81415	72.6139
4.80968	72.6158
4.80522	72.5703
4.80077	72.4943
4.79633	72.4214
4.7919	72.3557
4.78747	72.286
4.78306	72.1584
4.77865	71.9694
4.77425	71.8221
4.76986	71.5778
4.76547	71.1967
4.7611	70.7362
4.75673	70.2595
4.75237	69.7982
4.74802	69.3186
4.74367	68.6673
4.73934	67.9489
4.73501	67.1791
4.73069	66.3033
4.72638	65.1131
4.72207	63.5683
4.71777	61.6976
4.71348	59.7205
4.7092	57.7327
4.70493	55.8333
4.70066	54.0637
4.69641	52.6306
4.69216	51.4597
4.68791	50.5026
4.68368	49.7974
4.67945	49.4141
4.67523	49.113
4.67102	48.9612
4.66682	49.0615
4.66262	49.3617
4.65843	49.9307
4.65425	50.8122
4.65007	51.957
4.64591	53.2775
4.64175	54.7397
4.6376	56.2609
4.63345	57.6405
4.62932	58.7395
4.62519	59.6742
4.62106	60.5569
4.61695	61.3604
4.61284	61.9863
4.60874	62.3921
4.60465	62.7707
4.60056	63.0577
4.59648	63.3339
4.59241	63.5981
4.58835	63.7847
4.58429	63.9959
4.58024	64.2191
4.5762	64.2944
4.57216	64.3671
4.56814	64.4601
4.56411	64.527
4.5601	64.5796
4.55609	64.7018
4.55209	64.7732
4.5481	64.8678
4.54411	64.9805
4.54013	64.9869
4.53616	65.0096
4.5322	65.0767
4.52824	65.1122
4.52429	65.1703
4.52034	65.3008
4.51641	65.3708
4.51247	65.3845
4.50855	65.504
4.50463	65.6191
4.50072	65.8354
4.49682	66.124
4.49292	66.3793
4.48903	66.6789
4.48515	67.0416
4.48127	67.4053
4.4774	67.7743
4.47354	68.2678
4.46968	68.7217
4.46584	68.9988
4.46199	69.2454
4.45815	69.483
4.45432	69.7266
4.4505	70.0149
4.44668	70.3456
4.44287	70.6128
4.43907	70.9181
4.43527	71.2822
4.43148	71.5921
4.4277	71.7921
4.42392	71.9838
4.42015	72.151
4.41638	72.2806
4.41262	72.4175
4.40887	72.5652
4.40513	72.6174
4.40139	72.7436
4.39765	72.8833
4.39393	72.9257
4.39021	72.9991
4.38649	73.1201
4.38278	73.1919
4.37908	73.1846
4.37539	73.1252
4.3717	72.9842
4.36801	72.8288
4.36434	72.6706
4.36067	72.3588
4.357	71.9986
4.35335	71.6487
4.34969	71.4681
4.34605	71.3799
4.34241	71.3444
4.33877	71.2782
4.33514	71.2174
4.33152	71.2041
4.32791	71.2519
4.3243	71.2343
4.32069	71.1864
4.3171	71.1878
4.31351	71.231
4.30992	71.2999
4.30634	71.4173
4.30277	71.5326
4.2992	71.6597
4.29564	71.7592
4.29208	71.7902
4.28853	71.7101
4.28499	71.5753
4.28145	71.3089
4.27792	70.9612
4.27439	70.534
4.27087	70.0805
4.26735	69.8483
4.26384	69.9824
4.26034	70.4214
4.25684	70.887
4.25335	71.1177
4.24986	71.2623
4.24638	71.2679
4.24291	71.1807
4.23944	71.1019
4.23598	71.0684
4.23252	70.9704
4.22906	70.8431
4.22562	70.866
4.22218	70.9169
4.21874	70.8252
4.21531	70.6928
4.21189	70.6367
4.20847	70.6341
4.20506	70.5472
4.20165	70.3802
4.19825	70.2327
4.19485	70.0722
4.19146	69.8928
4.18807	69.7712
4.18469	69.557
4.18132	69.3348
4.17795	69.0514
4.17458	68.7709
4.17123	68.582
4.16787	68.3336
4.16453	68.0537
4.16118	67.8523
4.15785	67.5964
4.15451	67.2103
4.15119	66.7647
4.14787	66.3836
4.14455	66.0137
4.14124	65.5801
4.13794	65.0879
4.13464	64.5715
4.13134	64.0444
4.12805	63.582
4.12477	63.065
4.12149	62.4541
4.11822	61.8363
4.11495	61.2508
4.11168	60.6347
4.10843	60.0874
4.10517	59.5272
4.10192	58.9317
4.09868	58.3276
4.09545	57.7137
4.09221	57.0456
4.08899	56.3007
4.08576	55.5793
4.08255	54.8549
4.07933	54.0216
4.07613	53.0476
4.07292	52.0024
4.06973	51.0115
4.06654	50.0381
4.06335	49.0258
4.06017	47.9553
4.05699	46.7365
4.05382	45.2458
4.05065	43.4233
4.04749	41.3085
4.04433	39.0277
4.04118	36.6201
4.03803	34.1921
4.03489	31.9665
4.03175	30.0132
4.02862	28.2057
4.02549	26.346
4.02237	24.489
4.01925	22.6781
4.01614	20.8006
4.01303	18.8362
4.00993	16.8483
4.00683	14.8219
4.00373	12.8923
4.00064	11.2627
3.99756	10.0411
3.99448	9.02393
3.9914	8.12424
3.98833	7.39425
3.98527	6.87236
3.98221	6.61049
3.97915	6.63164
3.9761	6.78875
3.97305	6.99031
3.97001	7.15868
3.96697	7.35427
3.96394	7.74671
3.96091	8.23472
3.95789	8.89088
3.95487	9.8039
3.95186	10.8887
3.94885	12.1167
3.94584	13.4898
3.94284	15.0799
3.93984	16.8002
3.93685	18.1003
3.93386	18.7242
3.93088	18.9296
3.9279	19.271
3.92493	19.7543
3.92196	20.1461
3.919	20.533
3.91604	20.8989
3.91308	21.1531
3.91013	21.4195
3.90718	21.6485
3.90424	21.7821
3.9013	21.9049
3.89837	22.1779
3.89544	22.3528
3.89252	22.5459
3.8896	22.697
3.88668	22.8127
3.88377	22.9479
3.88086	23.125
3.87796	23.2269
3.87506	23.2554
3.87217	23.311
3.86928	23.4673
3.86639	23.4994
3.86351	23.5891
3.86064	23.7649
3.85776	23.9606
3.8549	24.2351
3.85203	24.4672
3.84917	24.6529
3.84631	24.9535
3.84346	25.3784
3.84062	25.9622
3.83777	26.7756
3.83494	27.8819
3.8321	29.1381
3.82927	30.4387
3.82644	31.8757
3.82362	33.2825
3.82081	34.7696
3.81799	36.3837
3.81518	37.9577
3.81238	39.5589
3.80958	41.3568
3.80678	43.405
3.80399	45.5657
3.8012	47.8463
3.79841	50.3957
3.79563	52.9187
3.79286	55.3465
3.79008	57.5276
3.78731	59.2449
3.78455	60.6525
3.78179	61.7504
3.77903	62.5402
3.77628	63.2567
3.77353	63.9381
3.77079	64.5189
3.76805	65.0312
3.76531	65.4636
3.76258	65.8614
3.75985	66.2094
3.75713	66.4526
3.7544	66.6062
3.75169	66.729
3.74898	66.889
3.74627	67.1009
3.74356	67.3677
3.74086	67.7
3.73816	67.9946
3.73547	68.2034
3.73278	68.4512
3.7301	68.6528
3.72741	68.847
3.72474	69.0317
3.72206	69.1617
3.71939	69.2917
3.71673	69.3367
3.71406	69.3295
3.71141	69.3631
3.70875	69.424
3.7061	69.4764
3.70345	69.5669
3.70081	69.6005
3.69817	69.5967
3.69553	69.6699
3.6929	69.6932
3.69027	69.645
3.68765	69.6272
3.68503	69.5488
3.68241	69.4575
3.6798	69.4373
3.67719	69.3626
3.67458	69.2329
3.67198	69.1671
3.66938	69.1513
3.66678	69.127
3.66419	69.0038
3.66161	68.8787
3.65902	68.7782
3.65644	68.6138
3.65387	68.4925
3.65129	68.3604
3.64872	68.1588
3.64616	68.0487
3.64359	67.9244
3.64103	67.7927
3.63848	67.6277
3.63593	67.4095
3.63338	67.2442
3.63084	67.1275
3.6283	66.8861
3.62576	66.6481
3.62322	66.4954
3.62069	66.2888
3.61817	65.9816
3.61564	65.7207
3.61312	65.5015
3.61061	65.2399
3.6081	64.9543
3.60559	64.5832
3.60308	64.2341
3.60058	63.8113
3.59808	63.3643
3.59558	62.8827
3.59309	62.2486
3.59061	61.5831
3.58812	60.9062
3.58564	60.0818
3.58316	59.1445
3.58069	58.1514
3.57822	57.1158
3.57575	56.1447
3.57328	55.4665
3.57082	55.1752
3.56836	55.1424
3.56591	55.1492
3.56346	55.1168
3.56101	54.9803
3.55857	54.6349
3.55613	54.1686
3.55369	53.5416
3.55126	52.6929
3.54883	51.8329
3.5464	50.9468
3.54397	49.8199
3.54155	48.5792
3.53914	47.1864
3.53672	45.5325
3.53431	43.6904
3.5319	41.7136
3.5295	39.4882
3.5271	37.0321
3.5247	34.4476
3.52231	31.8217
3.51991	29.4097
3.51753	27.4338
3.51514	25.8428
3.51276	24.5656
3.51038	23.591
3.50801	22.6945
3.50563	21.8889
3.50327	21.2439
3.5009	20.5795
3.49854	19.8516
3.49618	19.1341
3.49382	18.4094
3.49147	17.6469
3.48912	16.9939
3.48677	16.4811
3.48443	16.0298
3.48209	15.5504
3.47975	15.2715
3.47742	15.2201
3.47509	15.555
3.47276	16.4359
3.47044	17.8095
3.46812	19.4806
3.4658	21.3269
3.46348	22.9875
3.46117	24.1431
3.45886	24.9682
