Name: Columbite Fe^2+Nb_2O_6
Type: Mineral
Class: Oxides
Subclass: 
Particle Size: 125-500um
Sample No.: O-7A
Owner: JPL
Wavelength range: IR
Origin: USA, South Dakota, Pennington County, Keystone
Collected by Burminco
Description: 





Measurement: Hemispherical reflectance
First Column: X
Second Column: Y
X Units:  Wavelength (micrometers)
Y Units:  Reflectance (percent)
First X Value: 15.3853
Last X Value: 2.00032
Number of X Values: 2256
Additional information: o07aa.txt
 
15.3853	16.2811
15.3397	16.3052
15.2945	16.3968
15.2495	16.6249
15.2048	16.6833
15.1603	16.4496
15.1161	16.5819
15.0722	16.8243
15.0285	17.1197
14.9851	17.1959
14.9419	17.1813
14.8989	17.517
14.8563	17.829
14.8138	17.9871
14.7716	18.0985
14.7296	17.9579
14.6879	18.0657
14.6464	18.3777
14.6052	18.6165
14.5641	18.822
14.5233	19.0802
14.4828	19.1441
14.4424	19.267
14.4023	19.5059
14.3624	19.7166
14.3227	19.8075
14.2833	19.763
14.244	19.9198
14.205	20.0261
14.1662	19.8705
14.1276	19.7739
14.0892	19.9249
14.051	19.9279
14.0131	19.835
13.9753	19.7285
13.9377	19.6312
13.9004	19.4387
13.8632	19.0763
13.8262	18.5161
13.7895	18.2948
13.7529	18.2313
13.7165	17.8985
13.6803	17.4874
13.6443	17.2122
13.6085	16.8773
13.5729	16.3554
13.5374	15.9734
13.5022	15.6641
13.4671	15.1838
13.4322	14.5764
13.3975	14.1805
13.363	13.7717
13.3286	13.2459
13.2944	12.9387
13.2604	12.616
13.2266	12.2672
13.193	11.8951
13.1595	11.5808
13.1262	11.4475
13.093	11.2031
13.06	10.8622
13.0272	10.5995
12.9946	10.3601
12.9621	10.1211
12.9298	9.97451
12.8976	9.69991
12.8656	9.55584
12.8337	9.55711
12.8021	9.35495
12.7705	9.19686
12.7391	9.12012
12.7079	8.91737
12.6769	8.72365
12.6459	8.64629
12.6152	8.61557
12.5845	8.52726
12.5541	8.46361
12.5238	8.4225
12.4936	8.27419
12.4635	8.21029
12.4337	8.02184
12.4039	7.9553
12.3743	7.93643
12.3448	7.80106
12.3155	7.61104
12.2863	7.47621
12.2573	7.42413
12.2284	7.36331
12.1996	7.30501
12.171	7.0266
12.1425	6.94168
12.1141	6.93063
12.0859	6.88391
12.0578	6.76907
12.0298	6.59592
12.0019	6.37788
11.9742	6.41971
11.9466	6.54353
11.9192	6.55117
11.8918	6.50625
11.8646	6.39774
11.8375	6.25672
11.8106	6.19268
11.7837	6.12142
11.757	6.03082
11.7304	5.80843
11.7039	5.44051
11.6776	5.17243
11.6513	4.82823
11.6252	4.33219
11.5992	3.92067
11.5733	3.68874
11.5475	3.44393
11.5219	3.25603
11.4963	2.98901
11.4709	2.69614
11.4455	2.31557
11.4203	1.867
11.3952	1.57391
11.3702	1.34078
11.3454	1.14396
11.3206	0.954577
11.2959	0.899964
11.2714	0.779519
11.2469	0.584574
11.2226	0.465761
11.1983	0.423386
11.1742	0.576211
11.1502	0.560971
11.1263	0.492859
11.1024	0.604106
11.0787	0.711661
11.0551	0.697802
11.0316	0.662126
11.0081	0.698292
10.9848	0.738542
10.9616	0.662523
10.9385	0.678298
10.9154	0.780424
10.8925	0.796173
10.8697	0.803823
10.8469	0.776437
10.8243	0.793385
10.8017	0.80275
10.7793	0.878363
10.7569	0.906771
10.7346	0.973408
10.7125	0.988097
10.6904	0.918346
10.6684	0.973372
10.6465	1.09155
10.6247	1.2048
10.6029	1.11177
10.5813	1.00941
10.5597	1.19216
10.5383	1.41844
10.5169	1.42182
10.4956	1.31433
10.4744	1.34036
10.4533	1.50952
10.4323	1.60798
10.4113	1.50518
10.3904	1.51889
10.3697	1.63282
10.349	1.53641
10.3284	1.48702
10.3078	1.60337
10.2874	1.64719
10.267	1.55742
10.2467	1.70002
10.2265	1.84558
10.2064	1.89832
10.1863	1.96355
10.1663	1.96679
10.1464	2.02332
10.1266	2.06749
10.1069	2.07352
10.0872	2.22347
10.0676	2.30632
10.0481	2.31597
10.0287	2.28781
10.0093	2.31599
9.99005	2.35141
9.97084	2.25792
9.95169	2.1704
9.93263	2.18764
9.91364	2.24866
9.89472	2.25073
9.87587	2.34255
9.8571	2.55387
9.83839	2.67446
9.81976	2.64372
9.80119	2.599
9.78271	2.53598
9.76428	2.6102
9.74592	2.64479
9.72764	2.62834
9.70943	2.64288
9.69128	2.78912
9.6732	2.92048
9.65518	2.95085
9.63724	2.91231
9.61935	2.75046
9.60155	2.75131
9.5838	2.98571
9.56611	3.06788
9.5485	2.99724
9.53094	2.96889
9.51345	2.93103
9.49604	2.95118
9.47867	3.11295
9.46137	3.2046
9.44414	3.06181
9.42697	3.12028
9.40986	3.12832
9.39281	3.06901
9.37583	3.11016
9.35891	3.19123
9.34204	3.28474
9.32524	3.16212
9.3085	3.11132
9.29182	3.28169
9.27519	3.3763
9.25863	3.27981
9.24213	3.21205
9.22568	3.20875
9.2093	3.31743
9.19297	3.48658
9.17669	3.53913
9.16048	3.43554
9.14433	3.31049
9.12823	3.33118
9.11218	3.33133
9.0962	3.28281
9.08027	3.31748
9.06439	3.42444
9.04858	3.62405
9.03281	3.66141
9.0171	3.63842
9.00145	3.68977
8.98585	3.65102
8.9703	3.66982
8.9548	3.60544
8.93937	3.6209
8.92398	3.56624
8.90865	3.63528
8.89337	3.80359
8.87814	3.85285
8.86296	3.83402
8.84784	3.71846
8.83277	3.63197
8.81774	3.74368
8.80277	3.81047
8.78786	3.80644
8.77298	3.77607
8.75816	3.77472
8.7434	3.82071
8.72868	3.84754
8.714	3.99291
8.69938	3.95531
8.68481	3.85533
8.67029	3.87295
8.65581	3.79524
8.64139	3.78195
8.62701	3.96198
8.61268	4.09061
8.5984	4.14722
8.58416	4.0405
8.56997	3.96838
8.55583	4.0423
8.54174	4.10211
8.52769	4.1581
8.51368	4.0795
8.49973	4.06054
8.48582	4.2247
8.47195	4.35326
8.45813	4.31909
8.44436	4.27663
8.43062	4.18346
8.41693	4.20286
8.4033	4.41288
8.3897	4.32708
8.37614	4.1913
8.36264	4.37239
8.34917	4.39564
8.33574	4.2503
8.32236	4.19648
8.30903	4.32055
8.29573	4.45895
8.28248	4.54257
8.26927	4.44903
8.2561	4.35532
8.24298	4.33963
8.2299	4.33961
8.21685	4.36376
8.20385	4.28767
8.19089	4.29841
8.17797	4.51251
8.16509	4.60172
8.15225	4.66726
8.13946	4.70705
8.1267	4.64157
8.11398	4.533
8.10131	4.52934
8.08867	4.49106
8.07606	4.46165
8.0635	4.47204
8.05099	4.55901
8.0385	4.56719
8.02606	4.54976
8.01366	4.58551
8.00129	4.49039
7.98896	4.49174
7.97667	4.63454
7.96442	4.60822
7.9522	4.61575
7.94002	4.71504
7.92788	4.66404
7.91578	4.59854
7.90371	4.67839
7.89168	4.74138
7.87969	4.68786
7.86773	4.62155
7.85581	4.71182
7.84392	4.75443
7.83207	4.66118
7.82026	4.68463
7.80849	4.84087
7.79674	4.92684
7.78503	4.99481
7.77337	5.02262
7.76173	4.89976
7.75012	4.85711
7.73856	4.91314
7.72703	4.97646
7.71553	4.95346
7.70406	4.92051
7.69263	4.91273
7.68123	4.96839
7.66987	5.04142
7.65855	4.97711
7.64725	4.97856
7.63598	5.08838
7.62475	5.11874
7.61356	5.07933
7.60239	5.14086
7.59126	5.18327
7.58017	5.13922
7.5691	5.20767
7.55806	5.33104
7.54707	5.29601
7.5361	5.26993
7.52516	5.33575
7.51425	5.38752
7.50338	5.34416
7.49253	5.24529
7.48172	5.233
7.47094	5.30462
7.46019	5.44132
7.44947	5.49472
7.43879	5.46374
7.42813	5.43181
7.4175	5.44314
7.4069	5.39132
7.39634	5.3911
7.3858	5.40133
7.37529	5.47642
7.36482	5.52323
7.35437	5.47654
7.34396	5.52628
7.33357	5.60676
7.32321	5.61207
7.31288	5.63386
7.30258	5.64626
7.29231	5.62876
7.28207	5.65506
7.27185	5.6772
7.26167	5.68419
7.25152	5.72454
7.24139	5.69779
7.23129	5.6746
7.22122	5.6617
7.21117	5.72993
7.20116	5.70896
7.19117	5.71868
7.18121	5.76052
7.17128	5.75931
7.16137	5.77635
7.1515	5.8181
7.14164	5.8465
7.13182	5.86252
7.12203	5.91418
7.11225	5.88745
7.10251	5.82658
7.0928	5.84594
7.08311	5.94699
7.07344	5.90429
7.06381	5.84933
7.0542	5.90804
7.04461	5.96286
7.03506	5.96916
7.02552	5.99688
7.01601	5.98544
7.00653	6.04384
6.99708	6.10028
6.98765	6.05286
6.97824	5.9454
6.96886	5.90853
6.95951	5.97682
6.95018	6.02197
6.94087	6.07487
6.9316	6.136
6.92234	6.14162
6.91311	6.11151
6.90391	6.05913
6.89473	6.08413
6.88557	6.1332
6.87644	6.15387
6.86733	6.1837
6.85824	6.20585
6.84918	6.18835
6.84015	6.1563
6.83114	6.12017
6.82215	6.16801
6.81319	6.20006
6.80424	6.25584
6.79532	6.28764
6.78643	6.3243
6.77756	6.24917
6.76871	6.23326
6.75989	6.30377
6.75109	6.33997
6.74231	6.31668
6.73355	6.24929
6.72482	6.32816
6.71611	6.41893
6.70742	6.4208
6.69875	6.39104
6.69011	6.40105
6.68149	6.35239
6.67289	6.29468
6.66431	6.37329
6.65576	6.44522
6.64722	6.47685
6.63871	6.47787
6.63022	6.44345
6.62175	6.4422
6.61331	6.40797
6.60488	6.37695
6.59648	6.43535
6.5881	6.46653
6.57974	6.48027
6.5714	6.51668
6.56308	6.40804
6.55478	6.34209
6.54651	6.38129
6.53825	6.40624
6.53001	6.38234
6.5218	6.39738
6.51361	6.39513
6.50544	6.39959
6.49729	6.52402
6.48915	6.63283
6.48104	6.64573
6.47295	6.57787
6.46488	6.50788
6.45683	6.52806
6.4488	6.52775
6.44079	6.56332
6.4328	6.56377
6.42482	6.58834
6.41687	6.73435
6.40894	6.75258
6.40103	6.61659
6.39314	6.58604
6.38526	6.60302
6.37741	6.59307
6.36957	6.59849
6.36176	6.57497
6.35396	6.65827
6.34618	6.82752
6.33843	6.85367
6.33069	6.73368
6.32297	6.59128
6.31527	6.63877
6.30758	6.7302
6.29992	6.74604
6.29227	6.72682
6.28465	6.71539
6.27704	6.65265
6.26945	6.61978
6.26188	6.67202
6.25432	6.78751
6.24679	6.83504
6.23927	6.75209
6.23177	6.73164
6.22429	6.7911
6.21683	6.6782
6.20938	6.57868
6.20195	6.63916
6.19454	6.74313
6.18715	6.85353
6.17978	6.79026
6.17242	6.69837
6.16508	6.69816
6.15776	6.69117
6.15045	6.68937
6.14317	6.73129
6.1359	6.70022
6.12864	6.59434
6.12141	6.62602
6.11419	6.82728
6.10699	6.81253
6.0998	6.69896
6.09263	6.65456
6.08549	6.64147
6.07835	6.6162
6.07123	6.57784
6.06413	6.57501
6.05705	6.71606
6.04998	6.89426
6.04293	6.69691
6.0359	6.49612
6.02888	6.51925
6.02187	6.55198
6.01489	6.53725
6.00792	6.49832
6.00096	6.4958
5.99403	6.60074
5.98711	6.60888
5.9802	6.48743
5.97331	6.48663
5.96644	6.53584
5.95958	6.45426
5.95274	6.47733
5.94591	6.48576
5.9391	6.59836
5.9323	6.55364
5.92552	6.42412
5.91876	6.45539
5.91201	6.47041
5.90528	6.51619
5.89856	6.61126
5.89186	6.60342
5.88517	6.69197
5.8785	6.75275
5.87184	6.62443
5.8652	6.68801
5.85857	6.78507
5.85196	6.75202
5.84536	6.6864
5.83878	6.73386
5.83221	6.83191
5.82566	6.96023
5.81912	7.03905
5.81259	7.07541
5.80608	7.03325
5.79959	7.01266
5.79311	7.00764
5.78665	7.09396
5.78019	7.21802
5.77376	7.32119
5.76734	7.43019
5.76093	7.37906
5.75453	7.37981
5.74815	7.48841
5.74179	7.56774
5.73543	7.64424
5.7291	7.70978
5.72277	7.8025
5.71646	8.00052
5.71017	8.1387
5.70389	8.13084
5.69762	8.20203
5.69136	8.26664
5.68513	8.36136
5.6789	8.57871
5.67268	8.67118
5.66648	8.67719
5.6603	8.78534
5.65413	8.9143
5.64797	8.9529
5.64182	9.03686
5.63569	9.07148
5.62957	9.12835
5.62347	9.2252
5.61737	9.36469
5.61129	9.45613
5.60522	9.47171
5.59917	9.51182
5.59313	9.5018
5.5871	9.61428
5.58109	9.75705
5.57509	9.76045
5.5691	9.76801
5.56312	9.80531
5.55716	9.84655
5.55121	9.86285
5.54528	9.84531
5.53935	9.90668
5.53344	9.94399
5.52754	10.0271
5.52166	10.0838
5.51578	10.0699
5.50992	10.166
5.50407	10.179
5.49823	10.1575
5.49241	10.2531
5.4866	10.3003
5.4808	10.2902
5.47501	10.2908
5.46923	10.3733
5.46347	10.4475
5.45772	10.3813
5.45198	10.2896
5.44625	10.3074
5.44054	10.4223
5.43484	10.464
5.42914	10.5132
5.42347	10.5885
5.4178	10.5781
5.41214	10.5224
5.4065	10.5578
5.40087	10.6116
5.39525	10.6188
5.38964	10.6425
5.38404	10.7723
5.37846	10.772
5.37288	10.7091
5.36732	10.7048
5.36177	10.6997
5.35623	10.7353
5.35071	10.795
5.34519	10.7621
5.33968	10.7114
5.33419	10.795
5.32871	10.7975
5.32324	10.8056
5.31778	10.855
5.31233	10.8487
5.30689	10.8354
5.30147	10.822
5.29605	10.8988
5.29065	11.0184
5.28525	11.006
5.27987	10.9396
5.2745	10.9576
5.26914	10.9991
5.26379	10.9598
5.25845	11.0247
5.25312	11.0652
5.24781	11.1004
5.2425	11.1269
5.23721	11.0923
5.23192	11.0943
5.22665	11.0668
5.22138	11.1262
5.21613	11.2052
5.21089	11.1843
5.20566	11.1462
5.20044	11.1668
5.19522	11.1744
5.19002	11.1906
5.18483	11.2081
5.17965	11.2451
5.17448	11.2887
5.16933	11.2312
5.16418	11.1605
5.15904	11.1716
5.15391	11.1924
5.14879	11.2208
5.14368	11.2556
5.13859	11.3095
5.1335	11.3184
5.12842	11.2916
5.12335	11.259
5.1183	11.2477
5.11325	11.2235
5.10821	11.1853
5.10318	11.2882
5.09817	11.4039
5.09316	11.3869
5.08816	11.3556
5.08317	11.3763
5.07819	11.3657
5.07322	11.3201
5.06826	11.3087
5.06331	11.3162
5.05837	11.4
5.05344	11.4235
5.04852	11.4323
5.04361	11.4293
5.03871	11.363
5.03382	11.3225
5.02894	11.3454
5.02406	11.4298
5.0192	11.5056
5.01435	11.5553
5.0095	11.5197
5.00467	11.4264
4.99984	11.3794
4.99502	11.4167
4.99021	11.4684
4.98542	11.416
4.98063	11.3165
4.97585	11.3559
4.97108	11.4446
4.96632	11.4648
4.96156	11.4632
4.95682	11.4951
4.95209	11.4921
4.94736	11.4628
4.94264	11.4956
4.93794	11.5487
4.93324	11.4975
4.92855	11.4894
4.92387	11.4536
4.9192	11.4337
4.91453	11.5276
4.90988	11.5703
4.90524	11.5514
4.9006	11.5747
4.89597	11.58
4.89135	11.5569
4.88674	11.6125
4.88214	11.6581
4.87755	11.6303
4.87296	11.6484
4.86839	11.6985
4.86382	11.6322
4.85926	11.5898
4.85471	11.6434
4.85017	11.7137
4.84564	11.6912
4.84111	11.6718
4.8366	11.6815
4.83209	11.7789
4.82759	11.8339
4.8231	11.8454
4.81862	11.8618
4.81415	11.8508
4.80968	11.8041
4.80522	11.7687
4.80077	11.8367
4.79633	11.8164
4.7919	11.7702
4.78747	11.8858
4.78306	11.8881
4.77865	11.8867
4.77425	11.9904
4.76986	11.981
4.76547	11.9189
4.7611	11.941
4.75673	11.8616
4.75237	11.8083
4.74802	11.8955
4.74367	11.934
4.73934	11.9559
4.73501	12.0403
4.73069	12.0494
4.72638	11.9119
4.72207	11.8698
4.71777	11.967
4.71348	11.9937
4.7092	12.022
4.70493	11.9688
4.70066	11.9343
4.69641	11.9949
4.69216	12.0123
4.68791	12.1435
4.68368	12.1595
4.67945	12.1209
4.67523	12.123
4.67102	12.0822
4.66682	12.0152
4.66262	12.0489
4.65843	12.19
4.65425	12.1942
4.65007	12.1498
4.64591	12.1369
4.64175	12.1521
4.6376	12.1665
4.63345	12.1891
4.62932	12.242
4.62519	12.2304
4.62106	12.1887
4.61695	12.2354
4.61284	12.2149
4.60874	12.2225
4.60465	12.2041
4.60056	12.1602
4.59648	12.2128
4.59241	12.3034
4.58835	12.3425
4.58429	12.3529
4.58024	12.3294
4.5762	12.261
4.57216	12.2256
4.56814	12.2885
4.56411	12.3635
4.5601	12.3858
4.55609	12.412
4.55209	12.4689
4.5481	12.4724
4.54411	12.4697
4.54013	12.4414
4.53616	12.4457
4.5322	12.5009
4.52824	12.552
4.52429	12.4849
4.52034	12.4573
4.51641	12.4282
4.51247	12.457
4.50855	12.4818
4.50463	12.4958
4.50072	12.541
4.49682	12.5473
4.49292	12.5622
4.48903	12.5952
4.48515	12.575
4.48127	12.6033
4.4774	12.5942
4.47354	12.5888
4.46968	12.586
4.46584	12.4879
4.46199	12.5506
4.45815	12.6941
4.45432	12.7004
4.4505	12.6352
4.44668	12.6772
4.44287	12.7134
4.43907	12.7204
4.43527	12.7422
4.43148	12.6869
4.4277	12.6192
4.42392	12.6645
4.42015	12.7377
4.41638	12.7648
4.41262	12.7331
4.40887	12.7239
4.40513	12.7367
4.40139	12.803
4.39765	12.8518
4.39393	12.8304
4.39021	12.7942
4.38649	12.8201
4.38278	12.8415
4.37908	12.8205
4.37539	12.8497
4.3717	12.8858
4.36801	12.8495
4.36434	12.7981
4.36067	12.8476
4.357	12.9125
4.35335	12.9772
4.34969	12.9599
4.34605	12.8893
4.34241	12.8591
4.33877	12.9309
4.33514	12.9312
4.33152	12.9309
4.32791	12.9267
4.3243	12.9258
4.32069	12.9144
4.3171	12.9307
4.31351	12.9552
4.30992	12.9754
4.30634	12.975
4.30277	12.9507
4.2992	12.9397
4.29564	12.9638
4.29208	12.9134
4.28853	12.9038
4.28499	12.8985
4.28145	12.8955
4.27792	12.8793
4.27439	12.8787
4.27087	12.8816
4.26735	12.923
4.26384	12.9908
4.26034	13.0562
4.25684	13.0645
4.25335	13.0472
4.24986	13.0239
4.24638	13.0531
4.24291	12.9881
4.23944	12.9465
4.23598	12.9605
4.23252	12.9345
4.22906	12.9377
4.22562	13.0042
4.22218	13.0702
4.21874	13.0897
4.21531	13.1347
4.21189	13.078
4.20847	12.9992
4.20506	13.0301
4.20165	13.1998
4.19825	13.2909
4.19485	13.1712
4.19146	13.0922
4.18807	13.1447
4.18469	13.2137
4.18132	13.2411
4.17795	13.229
4.17458	13.2707
4.17123	13.2817
4.16787	13.2839
4.16453	13.264
4.16118	13.2543
4.15785	13.3322
4.15451	13.3552
4.15119	13.2698
4.14787	13.2319
4.14455	13.251
4.14124	13.2784
4.13794	13.2675
4.13464	13.26
4.13134	13.2562
4.12805	13.2504
4.12477	13.2147
4.12149	13.1991
4.11822	13.2842
4.11495	13.3532
4.11168	13.3162
4.10843	13.3491
4.10517	13.4164
4.10192	13.3901
4.09868	13.3229
4.09545	13.2708
4.09221	13.2569
4.08899	13.2994
4.08576	13.2589
4.08255	13.2603
4.07933	13.2825
4.07613	13.2824
4.07292	13.2986
4.06973	13.4118
4.06654	13.4833
4.06335	13.4341
4.06017	13.3165
4.05699	13.3198
4.05382	13.42
4.05065	13.4491
4.04749	13.3905
4.04433	13.3264
4.04118	13.3614
4.03803	13.4297
4.03489	13.4398
4.03175	13.3966
4.02862	13.357
4.02549	13.3817
4.02237	13.3553
4.01925	13.3543
4.01614	13.3268
4.01303	13.3864
4.00993	13.4064
4.00683	13.4401
4.00373	13.4619
4.00064	13.4521
3.99756	13.3687
3.99448	13.3565
3.9914	13.3737
3.98833	13.2986
3.98527	13.291
3.98221	13.3039
3.97915	13.3089
3.9761	13.3434
3.97305	13.376
3.97001	13.3598
3.96697	13.3396
3.96394	13.3535
3.96091	13.3579
3.95789	13.334
3.95487	13.2915
3.95186	13.2779
3.94885	13.2876
3.94584	13.3938
3.94284	13.4257
3.93984	13.3678
3.93685	13.3473
3.93386	13.3815
3.93088	13.4034
3.9279	13.4659
3.92493	13.3961
3.92196	13.2973
3.919	13.2572
3.91604	13.3469
3.91308	13.4118
3.91013	13.3908
3.90718	13.3788
3.90424	13.376
3.9013	13.33
3.89837	13.2489
3.89544	13.2229
3.89252	13.1887
3.8896	13.1702
3.88668	13.2205
3.88377	13.3117
3.88086	13.3311
3.87796	13.2361
3.87506	13.1587
3.87217	13.278
3.86928	13.3636
3.86639	13.4083
3.86351	13.3686
3.86064	13.2543
3.85776	13.1767
3.8549	13.2015
3.85203	13.2461
3.84917	13.177
3.84631	13.2272
3.84346	13.3815
3.84062	13.3452
3.83777	13.2408
3.83494	13.1688
3.8321	13.12
3.82927	13.0775
3.82644	13.1137
3.82362	13.1734
3.82081	13.1895
3.81799	13.1784
3.81518	13.1543
3.81238	13.1069
3.80958	13.0817
3.80678	13.1316
3.80399	13.1189
3.8012	13.1154
3.79841	13.2005
3.79563	13.2285
3.79286	13.1469
3.79008	13.0372
3.78731	12.9875
3.78455	13.0036
3.78179	13.0158
3.77903	13.0514
3.77628	13.0662
3.77353	13.0443
3.77079	12.9753
3.76805	13.0045
3.76531	13.0622
3.76258	13.0563
3.75985	13.0467
3.75713	13.0026
3.7544	13.0097
3.75169	13.0162
3.74898	12.9392
3.74627	12.9132
3.74356	12.9061
3.74086	12.8682
3.73816	12.8333
3.73547	12.9405
3.73278	12.9782
3.7301	12.8925
3.72741	12.8727
3.72474	12.8471
3.72206	12.842
3.71939	12.8258
3.71673	12.7691
3.71406	12.8262
3.71141	12.9074
3.70875	12.9029
3.7061	12.7861
3.70345	12.7235
3.70081	12.7109
3.69817	12.7189
3.69553	12.7004
3.6929	12.7423
3.69027	12.7544
3.68765	12.7388
3.68503	12.7104
3.68241	12.7029
3.6798	12.6863
3.67719	12.5928
3.67458	12.6121
3.67198	12.7253
3.66938	12.6871
3.66678	12.6164
3.66419	12.6222
3.66161	12.6395
3.65902	12.6417
3.65644	12.5575
3.65387	12.4895
3.65129	12.5427
3.64872	12.6238
3.64616	12.6235
3.64359	12.6068
3.64103	12.5544
3.63848	12.534
3.63593	12.4834
3.63338	12.4694
3.63084	12.4496
3.6283	12.4426
3.62576	12.4389
3.62322	12.3326
3.62069	12.2823
3.61817	12.3392
3.61564	12.3808
3.61312	12.3471
3.61061	12.2795
3.6081	12.2903
3.60559	12.2692
3.60308	12.2185
3.60058	12.2302
3.59808	12.2365
3.59558	12.2421
3.59309	12.2621
3.59061	12.2608
3.58812	12.2311
3.58564	12.1357
3.58316	12.0952
3.58069	12.0579
3.57822	12.0484
3.57575	12.1677
3.57328	12.1701
3.57082	12.0533
3.56836	12.0136
3.56591	12.032
3.56346	11.9913
3.56101	11.9255
3.55857	11.9467
3.55613	11.9834
3.55369	11.9486
3.55126	11.9281
3.54883	11.933
3.5464	11.878
3.54397	11.7506
3.54155	11.8052
3.53914	11.9589
3.53672	11.9922
3.53431	11.8544
3.5319	11.7268
3.5295	11.7824
3.5271	11.8529
3.5247	11.7712
3.52231	11.7039
3.51991	11.6795
3.51753	11.6405
3.51514	11.5842
3.51276	11.6238
3.51038	11.7185
3.50801	11.6707
3.50563	11.613
3.50327	11.6539
3.5009	11.5595
3.49854	11.5317
3.49618	11.6149
3.49382	11.6157
3.49147	11.4768
3.48912	11.4506
3.48677	11.5344
3.48443	11.4479
3.48209	11.337
3.47975	11.2976
3.47742	11.305
3.47509	11.3261
3.47276	11.3934
3.47044	11.3839
