Name: Topaz Al_2SiO_4(F,OH)_2
Type: Mineral
Class: Silicates
Subclass: Nesosilicates
Particle Size: 45-125um
Sample No.: NS-6A
Owner: JPL
Wavelength range: IR
Origin: Australia, Western Australia, Grossmont
Collected by Ward's
Description: 





Measurement: Hemispherical reflectance
First Column: X
Second Column: Y
X Units:  Wavelength (micrometers)
Y Units:  Reflectance (percent)
First X Value: 15.3853
Last X Value: 2.00032
Number of X Values: 2256
Additional information: ns06aa.txt
 
15.3853	28.1173
15.3397	28.0385
15.2945	27.4727
15.2495	26.9573
15.2048	26.4706
15.1603	25.7594
15.1161	24.8777
15.0722	23.7923
15.0285	22.5585
14.9851	20.7707
14.9419	18.8025
14.8989	16.8373
14.8563	14.7706
14.8138	12.7475
14.7716	10.9791
14.7296	9.33376
14.6879	7.94526
14.6464	6.57949
14.6052	5.36469
14.5641	4.05225
14.5233	2.64196
14.4828	1.8856
14.4424	1.55785
14.4023	1.17447
14.3624	0.820562
14.3227	0.702243
14.2833	0.8074
14.244	0.931683
14.205	1.01341
14.1662	0.955191
14.1276	0.908649
14.0892	0.806864
14.051	0.734906
14.0131	0.77281
13.9753	0.564574
13.9377	0.569969
13.9004	0.574549
13.8632	0.770879
13.8262	0.956803
13.7895	0.934621
13.7529	1.08782
13.7165	1.33601
13.6803	1.47402
13.6443	1.53709
13.6085	1.60289
13.5729	1.90492
13.5374	2.22709
13.5022	2.25992
13.4671	2.18332
13.4322	2.25875
13.3975	2.5715
13.363	2.76962
13.3286	2.77959
13.2944	2.86456
13.2604	2.88303
13.2266	2.91503
13.193	3.13812
13.1595	3.20084
13.1262	3.14006
13.093	3.4434
13.06	3.6503
13.0272	3.57599
12.9946	3.69654
12.9621	3.72849
12.9298	3.66943
12.8976	3.68176
12.8656	3.85041
12.8337	4.09602
12.8021	4.19153
12.7705	4.44803
12.7391	4.6908
12.7079	4.89488
12.6769	5.02632
12.6459	5.06814
12.6152	5.34111
12.5845	5.50698
12.5541	5.71525
12.5238	5.97067
12.4936	6.13638
12.4635	6.16814
12.4337	6.25603
12.4039	6.48933
12.3743	6.69441
12.3448	6.78046
12.3155	7.0645
12.2863	7.39245
12.2573	7.60138
12.2284	7.75823
12.1996	8.08273
12.171	8.4264
12.1425	8.64355
12.1141	9.04348
12.0859	9.45988
12.0578	9.78717
12.0298	10.3595
12.0019	10.9483
11.9742	11.3882
11.9466	11.9005
11.9192	12.6176
11.8918	13.4025
11.8646	14.0191
11.8375	14.6208
11.8106	15.2832
11.7837	15.9843
11.757	16.7342
11.7304	17.6624
11.7039	18.9303
11.6776	20.2078
11.6513	21.3156
11.6252	22.445
11.5992	23.5816
11.5733	24.5999
11.5475	25.5456
11.5219	26.3704
11.4963	27.3307
11.4709	28.2376
11.4455	28.9007
11.4203	29.4288
11.3952	29.9271
11.3702	30.4667
11.3454	30.6773
11.3206	30.7091
11.2959	30.6183
11.2714	30.4084
11.2469	30.0957
11.2226	29.6808
11.1983	29.501
11.1742	29.6424
11.1502	29.838
11.1263	29.9456
11.1024	29.8593
11.0787	29.4969
11.0551	28.8991
11.0316	28.224
11.0081	27.6211
10.9848	27.0876
10.9616	26.5973
10.9385	26.4039
10.9154	26.7268
10.8925	27.2225
10.8697	27.5895
10.8469	27.6871
10.8243	27.4869
10.8017	27.1682
10.7793	26.9695
10.7569	26.8109
10.7346	26.7811
10.7125	27.1736
10.6904	27.9882
10.6684	29.0568
10.6465	30.1049
10.6247	30.9456
10.6029	31.6848
10.5813	32.3387
10.5597	32.6778
10.5383	32.8305
10.5169	32.9304
10.4956	33.023
10.4744	33.0318
10.4533	32.8947
10.4323	32.7842
10.4113	32.6894
10.3904	32.6148
10.3697	32.3405
10.349	31.994
10.3284	31.4444
10.3078	30.6731
10.2874	29.668
10.267	28.2425
10.2467	26.4742
10.2265	24.4148
10.2064	22.3417
10.1863	20.7586
10.1663	19.7886
10.1464	19.4671
10.1266	19.4578
10.1069	19.6072
10.0872	19.8858
10.0676	20.375
10.0481	20.9565
10.0287	21.5263
10.0093	22.0128
9.99005	22.4845
9.97084	22.9117
9.95169	23.2253
9.93263	23.3621
9.91364	23.4148
9.89472	23.0983
9.87587	22.4979
9.8571	21.7239
9.83839	20.862
9.81976	20.0789
9.80119	19.3402
9.78271	18.5516
9.76428	17.8055
9.74592	17.0474
9.72764	16.2835
9.70943	15.6844
9.69128	15.1411
9.6732	14.5553
9.65518	14.2167
9.63724	13.9126
9.61935	13.5121
9.60155	13.0185
9.5838	12.6063
9.56611	12.2449
9.5485	11.6862
9.53094	11.0323
9.51345	10.5227
9.49604	9.95346
9.47867	9.02884
9.46137	8.17465
9.44414	7.56111
9.42697	6.99175
9.40986	6.60965
9.39281	6.1245
9.37583	5.47689
9.35891	4.83004
9.34204	4.45836
9.32524	4.08112
9.3085	3.59274
9.29182	3.03287
9.27519	2.59514
9.25863	2.4288
9.24213	2.20522
9.22568	2.03949
9.2093	1.90447
9.19297	1.559
9.17669	1.11494
9.16048	0.909175
9.14433	0.908553
9.12823	0.888414
9.11218	0.728922
9.0962	0.556719
9.08027	0.601948
9.06439	0.513839
9.04858	0.346226
9.03281	0.358523
9.0171	0.451742
9.00145	0.510701
8.98585	0.511396
8.9703	0.409308
8.9548	0.285306
8.93937	0.241943
8.92398	0.216124
8.90865	0.236381
8.89337	0.304354
8.87814	0.366368
8.86296	0.24645
8.84784	0.163038
8.83277	0.190409
8.81774	0.345069
8.80277	0.280986
8.78786	0.0945709
8.77298	0.146043
8.75816	0.186318
8.7434	0.187231
8.72868	0.191302
8.714	0.220765
8.69938	0.304542
8.68481	0.355038
8.67029	0.538317
8.65581	0.714197
8.64139	0.685937
8.62701	0.716126
8.61268	0.858729
8.5984	0.97554
8.58416	1.12853
8.56997	1.15411
8.55583	1.03411
8.54174	0.845088
8.52769	0.712483
8.51368	0.576767
8.49973	0.408698
8.48582	0.213315
8.47195	0.218868
8.45813	0.315938
8.44436	0.379869
8.43062	0.293456
8.41693	0.242212
8.4033	0.289467
8.3897	0.31709
8.37614	0.300004
8.36264	0.280601
8.34917	0.223384
8.33574	0.30917
8.32236	0.369568
8.30903	0.251533
8.29573	0.245924
8.28248	0.378769
8.26927	0.469008
8.2561	0.429419
8.24298	0.286558
8.2299	0.348389
8.21685	0.442446
8.20385	0.50692
8.19089	0.602751
8.17797	0.622605
8.16509	0.673974
8.15225	0.71704
8.13946	0.637686
8.1267	0.656809
8.11398	0.707528
8.10131	0.782772
8.08867	0.798323
8.07606	0.76055
8.0635	0.782979
8.05099	0.922473
8.0385	1.10359
8.02606	1.16188
8.01366	1.18188
8.00129	1.08929
7.98896	1.07031
7.97667	1.19485
7.96442	1.31156
7.9522	1.36253
7.94002	1.40948
7.92788	1.49516
7.91578	1.60661
7.90371	1.72426
7.89168	1.78756
7.87969	1.8376
7.86773	1.91945
7.85581	2.07645
7.84392	2.30636
7.83207	2.37022
7.82026	2.49676
7.80849	2.5634
7.79674	2.59849
7.78503	2.75206
7.77337	2.76124
7.76173	2.7531
7.75012	2.92621
7.73856	3.08366
7.72703	3.15885
7.71553	3.24868
7.70406	3.29885
7.69263	3.37451
7.68123	3.52343
7.66987	3.52603
7.65855	3.57475
7.64725	3.75924
7.63598	3.87713
7.62475	3.93771
7.61356	3.9805
7.60239	4.15638
7.59126	4.34466
7.58017	4.37181
7.5691	4.44203
7.55806	4.556
7.54707	4.64869
7.5361	4.74198
7.52516	4.8206
7.51425	4.94098
7.50338	5.04657
7.49253	5.09115
7.48172	5.18597
7.47094	5.35466
7.46019	5.52333
7.44947	5.62533
7.43879	5.71533
7.42813	5.89728
7.4175	6.01261
7.4069	6.10041
7.39634	6.18129
7.3858	6.33961
7.37529	6.55422
7.36482	6.67351
7.35437	6.86436
7.34396	7.12527
7.33357	7.3123
7.32321	7.45346
7.31288	7.60155
7.30258	7.69523
7.29231	7.83317
7.28207	7.8982
7.27185	8.04662
7.26167	8.2401
7.25152	8.36024
7.24139	8.44689
7.23129	8.54477
7.22122	8.69437
7.21117	8.91137
7.20116	8.97409
7.19117	9.03658
7.18121	9.32195
7.17128	9.54767
7.16137	9.60381
7.1515	9.67657
7.14164	9.72891
7.13182	9.81234
7.12203	9.94583
7.11225	9.99499
7.10251	10.0793
7.0928	10.195
7.08311	10.2567
7.07344	10.3251
7.06381	10.3873
7.0542	10.6024
7.04461	10.802
7.03506	10.6616
7.02552	10.6704
7.01601	10.7057
7.00653	10.8287
6.99708	10.9937
6.98765	11.0807
6.97824	11.1696
6.96886	11.4932
6.95951	11.8191
6.95018	11.7031
6.94087	11.709
6.9316	11.8798
6.92234	12.0582
6.91311	12.253
6.90391	12.5179
6.89473	12.6334
6.88557	12.7175
6.87644	13.0167
6.86733	13.5804
6.85824	13.701
6.84918	13.3051
6.84015	13.1465
6.83114	13.3729
6.82215	13.5527
6.81319	13.473
6.80424	13.4607
6.79532	13.6825
6.78643	13.7164
6.77756	13.5134
6.76871	13.4063
6.75989	13.3056
6.75109	13.3735
6.74231	13.3764
6.73355	13.4717
6.72482	13.7136
6.71611	13.8814
6.70742	13.975
6.69875	14.0069
6.69011	14.2579
6.68149	14.517
6.67289	14.5285
6.66431	14.5339
6.65576	14.6419
6.64722	15.2058
6.63871	16.0237
6.63022	15.9072
6.62175	15.6251
6.61331	15.8117
6.60488	15.9606
6.59648	16.2334
6.5881	16.4488
6.57974	16.8422
6.5714	17.2788
6.56308	17.1143
6.55478	17.0986
6.54651	17.0116
6.53825	16.9076
6.53001	17.0846
6.5218	17.4389
6.51361	17.3771
6.50544	17.6476
6.49729	18.5125
6.48915	18.6438
6.48104	18.206
6.47295	18.0196
6.46488	17.9037
6.45683	18.0374
6.4488	18.1892
6.44079	18.4046
6.4328	18.7676
6.42482	19.1903
6.41687	20.2531
6.40894	20.1137
6.40103	19.254
6.39314	19.2191
6.38526	19.3147
6.37741	19.6177
6.36957	19.9931
6.36176	19.8561
6.35396	20.039
6.34618	20.7179
6.33843	20.6154
6.33069	20.2747
6.32297	20.2934
6.31527	20.3574
6.30758	20.4741
6.29992	20.6199
6.29227	20.6875
6.28465	20.6688
6.27704	20.8033
6.26945	20.9432
6.26188	21.0429
6.25432	21.0726
6.24679	21.238
6.23927	21.4501
6.23177	21.4894
6.22429	21.6006
6.21683	21.828
6.20938	21.8168
6.20195	21.8517
6.19454	22.2164
6.18715	22.8755
6.17978	22.7504
6.17242	22.3826
6.16508	22.6695
6.15776	22.9174
6.15045	22.8464
6.14317	22.9617
6.1359	22.9522
6.12864	22.9272
6.12141	23.4552
6.11419	24.1128
6.10699	23.7309
6.0998	23.4441
6.09263	23.5936
6.08549	23.8658
6.07835	24.5604
6.07123	24.9961
6.06413	24.7882
6.05705	25.5069
6.04998	27.0768
6.04293	26.5625
6.0359	25.7189
6.02888	25.7956
6.02187	26.1221
6.01489	26.6258
6.00792	26.7053
6.00096	26.7668
5.99403	27.2927
5.98711	27.4855
5.9802	27.2956
5.97331	27.4615
5.96644	27.4708
5.95958	26.8785
5.95274	26.6112
5.94591	26.6737
5.9391	27.287
5.9323	26.5744
5.92552	25.3134
5.91876	24.7789
5.91201	24.3492
5.90528	24.2554
5.89856	24.7012
5.89186	24.4302
5.88517	24.5467
5.8785	24.3584
5.87184	23.2452
5.8652	22.8902
5.85857	22.3932
5.85196	21.8773
5.84536	21.3555
5.83878	21.0171
5.83221	20.9324
5.82566	20.9959
5.81912	20.6716
5.81259	19.8721
5.80608	19.4304
5.79959	19.2222
5.79311	19.1422
5.78665	19.2267
5.78019	19.3049
5.77376	19.6149
5.76734	20.2953
5.76093	20.1147
5.75453	19.8609
5.74815	20.0998
5.74179	20.0381
5.73543	19.9978
5.7291	20.0839
5.72277	20.1556
5.71646	20.1448
5.71017	20.068
5.70389	19.5687
5.69762	19.1558
5.69136	18.9107
5.68513	18.5155
5.6789	18.1844
5.67268	17.7577
5.66648	17.138
5.6603	16.6885
5.65413	16.2118
5.64797	15.7464
5.64182	15.3505
5.63569	14.5546
5.62957	13.7335
5.62347	13.072
5.61737	12.4303
5.61129	11.7456
5.60522	11.1722
5.59917	10.6294
5.59313	10.0341
5.5871	9.51706
5.58109	9.20102
5.57509	8.74107
5.5691	8.28717
5.56312	8.03363
5.55716	7.81449
5.55121	7.57583
5.54528	7.3255
5.53935	7.17252
5.53344	7.09744
5.52754	7.05178
5.52166	7.04516
5.51578	7.05075
5.50992	7.03539
5.50407	7.08269
5.49823	7.12574
5.49241	7.20519
5.4866	7.27835
5.4808	7.39722
5.47501	7.51492
5.46923	7.57604
5.46347	7.7402
5.45772	7.87106
5.45198	7.94165
5.44625	7.94582
5.44054	8.04487
5.43484	8.16873
5.42914	8.35969
5.42347	8.5505
5.4178	8.48882
5.41214	8.40836
5.4065	8.38916
5.40087	8.33656
5.39525	8.33766
5.38964	8.29754
5.38404	8.29087
5.37846	8.35477
5.37288	8.41317
5.36732	8.46941
5.36177	8.48116
5.35623	8.61345
5.35071	8.80309
5.34519	8.87577
5.33968	8.98848
5.33419	9.20177
5.32871	9.39823
5.32324	9.60961
5.31778	9.87375
5.31233	10.0611
5.30689	10.2996
5.30147	10.5286
5.29605	10.7271
5.29065	10.9498
5.28525	11.2351
5.27987	11.6008
5.2745	11.9272
5.26914	12.2426
5.26379	12.6035
5.25845	13.0199
5.25312	13.4977
5.24781	14.1632
5.2425	14.9084
5.23721	15.627
5.23192	16.3363
5.22665	17.045
5.22138	17.7444
5.21613	18.5282
5.21089	19.3021
5.20566	19.9958
5.20044	20.6673
5.19522	21.3018
5.19002	21.9088
5.18483	22.4817
5.17965	23.024
5.17448	23.5514
5.16933	24.1061
5.16418	24.6008
5.15904	25.0786
5.15391	25.5778
5.14879	26.1073
5.14368	26.5023
5.13859	26.8558
5.1335	27.237
5.12842	27.6888
5.12335	28.1161
5.1183	28.5149
5.11325	28.966
5.10821	29.4197
5.10318	29.8889
5.09817	30.367
5.09316	30.7895
5.08816	31.2699
5.08317	31.7723
5.07819	32.1498
5.07322	32.5285
5.06826	32.8899
5.06331	33.2573
5.05837	33.5819
5.05344	33.8367
5.04852	34.0878
5.04361	34.4138
5.03871	34.6903
5.03382	34.9023
5.02894	35.1948
5.02406	35.4592
5.0192	35.5651
5.01435	35.5453
5.0095	35.6024
5.00467	35.622
4.99984	35.5566
4.99502	35.4119
4.99021	35.194
4.98542	35.0334
4.98063	34.7583
4.97585	34.4551
4.97108	34.1862
4.96632	34.0531
4.96156	33.9964
4.95682	33.9853
4.95209	34.1203
4.94736	34.4308
4.94264	34.8278
4.93794	35.3928
4.93324	36.1649
4.92855	37.0473
4.92387	38.0376
4.9192	39.0011
4.91453	39.9512
4.90988	40.9466
4.90524	41.9196
4.9006	42.8653
4.89597	43.7577
4.89135	44.589
4.88674	45.3477
4.88214	46.009
4.87755	46.6907
4.87296	47.3327
4.86839	47.8765
4.86382	48.4444
4.85926	48.9104
4.85471	49.314
4.85017	49.6753
4.84564	50.093
4.84111	50.4918
4.8366	50.8143
4.83209	51.1197
4.82759	51.3669
4.8231	51.6149
4.81862	51.9053
4.81415	52.1824
4.80968	52.4453
4.80522	52.6599
4.80077	52.8999
4.79633	53.069
4.7919	53.1402
4.78747	53.2374
4.78306	53.4239
4.77865	53.5425
4.77425	53.6111
4.76986	53.6234
4.76547	53.7203
4.7611	53.8164
4.75673	53.8764
4.75237	53.9913
4.74802	54.1345
4.74367	54.1862
4.73934	54.2079
4.73501	54.3159
4.73069	54.3896
4.72638	54.4097
4.72207	54.3785
4.71777	54.4582
4.71348	54.5283
4.7092	54.5401
4.70493	54.5483
4.70066	54.603
4.69641	54.6613
4.69216	54.6253
4.68791	54.6612
4.68368	54.7418
4.67945	54.7905
4.67523	54.7856
4.67102	54.7989
4.66682	54.7867
4.66262	54.7522
4.65843	54.6828
4.65425	54.6404
4.65007	54.6354
4.64591	54.5812
4.64175	54.5408
4.6376	54.5603
4.63345	54.5979
4.62932	54.5906
4.62519	54.6105
4.62106	54.6582
4.61695	54.7264
4.61284	54.8593
4.60874	54.9038
4.60465	54.9785
4.60056	55.0392
4.59648	55.1335
4.59241	55.2493
4.58835	55.2966
4.58429	55.2835
4.58024	55.3876
4.5762	55.4753
4.57216	55.5476
4.56814	55.6301
4.56411	55.6958
4.5601	55.7808
4.55609	55.8997
4.55209	55.9996
4.5481	56.1084
4.54411	56.2808
4.54013	56.4716
4.53616	56.5299
4.5322	56.6703
4.52824	56.8416
4.52429	56.9835
4.52034	57.0677
4.51641	57.2211
4.51247	57.3638
4.50855	57.4137
4.50463	57.4307
4.50072	57.4787
4.49682	57.5547
4.49292	57.6539
4.48903	57.7351
4.48515	57.7584
4.48127	57.8362
4.4774	57.8699
4.47354	57.8604
4.46968	57.8751
4.46584	57.8806
4.46199	57.916
4.45815	57.9773
4.45432	58.0075
4.4505	57.9551
4.44668	57.9284
4.44287	57.8555
4.43907	57.7908
4.43527	57.8094
4.43148	57.822
4.4277	57.7473
4.42392	57.6982
4.42015	57.6734
4.41638	57.6494
4.41262	57.5724
4.40887	57.4717
4.40513	57.3189
4.40139	57.1262
4.39765	56.9465
4.39393	56.7136
4.39021	56.4787
4.38649	56.2123
4.38278	55.8978
4.37908	55.4305
4.37539	54.9283
4.3717	54.3298
4.36801	53.5203
4.36434	52.6751
4.36067	51.7314
4.357	50.5198
4.35335	49.0826
4.34969	47.6353
4.34605	46.0873
4.34241	44.394
4.33877	42.5392
4.33514	40.5275
4.33152	38.2375
4.32791	35.9665
4.3243	33.9731
4.32069	32.361
4.3171	31.4181
4.31351	31.281
4.30992	31.8375
4.30634	33.0203
4.30277	34.5852
4.2992	36.3317
4.29564	38.0726
4.29208	39.6532
4.28853	41.1093
4.28499	42.5007
4.28145	43.7636
4.27792	44.9161
4.27439	45.8958
4.27087	46.773
4.26735	47.7363
4.26384	48.7829
4.26034	49.7723
4.25684	50.6039
4.25335	51.3239
4.24986	51.932
4.24638	52.4602
4.24291	52.9472
4.23944	53.3043
4.23598	53.6859
4.23252	54.1215
4.22906	54.6147
4.22562	55.1995
4.22218	55.8108
4.21874	56.3764
4.21531	56.9096
4.21189	57.3371
4.20847	57.6676
4.20506	58.0468
4.20165	58.4244
4.19825	58.6236
4.19485	58.7886
4.19146	58.9674
4.18807	59.1554
4.18469	59.241
4.18132	59.2759
4.17795	59.3205
4.17458	59.3695
4.17123	59.4397
4.16787	59.5287
4.16453	59.5879
4.16118	59.659
4.15785	59.7044
4.15451	59.7744
4.15119	59.7635
4.14787	59.8012
4.14455	59.8605
4.14124	59.9099
4.13794	59.9684
4.13464	60.0489
4.13134	60.0949
4.12805	60.1163
4.12477	60.1478
4.12149	60.1526
4.11822	60.156
4.11495	60.1919
4.11168	60.1995
4.10843	60.2697
4.10517	60.3472
4.10192	60.3528
4.09868	60.3564
4.09545	60.4105
4.09221	60.4392
4.08899	60.4202
4.08576	60.4402
4.08255	60.4935
4.07933	60.543
4.07613	60.5366
4.07292	60.4685
4.06973	60.497
4.06654	60.5564
4.06335	60.5096
4.06017	60.431
4.05699	60.3301
4.05382	60.2621
4.05065	60.1851
4.04749	60.1051
4.04433	60.0234
4.04118	59.8363
4.03803	59.6868
4.03489	59.5449
4.03175	59.3446
4.02862	59.1378
4.02549	59.0093
4.02237	59.0221
4.01925	59.1862
4.01614	59.4078
4.01303	59.5563
4.00993	59.7833
4.00683	60.0673
4.00373	60.2292
4.00064	60.3364
3.99756	60.4579
3.99448	60.5767
3.9914	60.6378
3.98833	60.6785
3.98527	60.7219
3.98221	60.7361
3.97915	60.7504
3.9761	60.8335
3.97305	60.8329
3.97001	60.7813
3.96697	60.7509
3.96394	60.8268
3.96091	60.8719
3.95789	60.8372
3.95487	60.8463
3.95186	60.8796
3.94885	60.8331
3.94584	60.8295
3.94284	60.8542
3.93984	60.8818
3.93685	60.8336
3.93386	60.763
3.93088	60.7535
3.9279	60.7956
3.92493	60.796
3.92196	60.7437
3.919	60.6598
3.91604	60.6143
3.91308	60.5828
3.91013	60.5324
3.90718	60.4776
3.90424	60.3987
3.9013	60.2442
3.89837	60.0805
3.89544	59.9601
3.89252	59.8831
3.8896	59.8468
3.88668	59.7892
3.88377	59.6572
3.88086	59.5881
3.87796	59.4202
3.87506	59.3058
3.87217	59.2823
3.86928	59.1713
3.86639	59.0104
3.86351	58.9251
3.86064	58.8999
3.85776	58.8651
3.8549	58.7986
3.85203	58.7979
3.84917	58.8029
3.84631	58.8062
3.84346	58.8107
3.84062	58.8185
3.83777	58.9396
3.83494	58.8933
3.8321	58.816
3.82927	58.9086
3.82644	59.0184
3.82362	59.0698
3.82081	59.1593
3.81799	59.2374
3.81518	59.1797
3.81238	59.1812
3.80958	59.2449
3.80678	59.342
3.80399	59.3747
3.8012	59.3786
3.79841	59.4337
3.79563	59.4708
3.79286	59.5258
3.79008	59.6571
3.78731	59.7365
3.78455	59.7403
3.78179	59.7212
3.77903	59.7805
3.77628	59.8556
3.77353	59.9379
3.77079	59.9374
3.76805	59.9207
3.76531	60.0166
3.76258	60.0999
3.75985	60.0617
3.75713	60.0694
3.7544	60.1307
3.75169	60.0677
3.74898	60.0073
3.74627	60.0782
3.74356	60.1819
3.74086	60.2511
3.73816	60.2413
3.73547	60.208
3.73278	60.1871
3.7301	60.17
3.72741	60.0757
3.72474	59.9757
3.72206	59.8437
3.71939	59.4557
3.71673	58.8418
3.71406	58.6782
3.71141	59.1791
3.70875	59.7409
3.7061	60.0348
3.70345	60.0754
3.70081	60.0337
3.69817	60.0716
3.69553	60.0992
3.6929	60.0849
3.69027	60.1102
3.68765	60.1219
3.68503	60.0543
3.68241	59.9557
3.6798	59.9339
3.67719	59.9124
3.67458	59.843
3.67198	59.7973
3.66938	59.7181
3.66678	59.6844
3.66419	59.67
3.66161	59.6402
3.65902	59.6139
3.65644	59.614
3.65387	59.6347
3.65129	59.593
3.64872	59.4615
3.64616	59.3962
3.64359	59.3354
3.64103	59.3209
3.63848	59.3216
3.63593	59.3084
3.63338	59.249
3.63084	59.1717
3.6283	59.2103
3.62576	59.2599
3.62322	59.2527
3.62069	59.2198
3.61817	59.2734
3.61564	59.2737
3.61312	59.1638
3.61061	59.1318
3.6081	59.1462
3.60559	59.1402
3.60308	59.1391
3.60058	59.1582
3.59808	59.1707
3.59558	59.1272
3.59309	59.1028
3.59061	59.0605
3.58812	59.0864
3.58564	59.1315
3.58316	59.0595
3.58069	59.0465
3.57822	59.0391
3.57575	58.9875
3.57328	58.9469
3.57082	58.9746
3.56836	59.0541
3.56591	59.0958
3.56346	59.0424
3.56101	58.977
3.55857	58.9535
3.55613	58.9107
3.55369	58.899
3.55126	58.8791
3.54883	58.8088
3.5464	58.8141
3.54397	58.8298
3.54155	58.8838
3.53914	58.9174
3.53672	58.8968
3.53431	58.8715
3.5319	58.8524
3.5295	58.8335
3.5271	58.8405
3.5247	58.837
3.52231	58.8578
3.51991	58.9265
3.51753	58.8867
3.51514	58.7975
3.51276	58.7769
3.51038	58.7928
3.50801	58.7892
3.50563	58.7757
3.50327	58.7128
3.5009	58.6639
3.49854	58.7408
3.49618	58.7156
3.49382	58.6319
3.49147	58.6434
3.48912	58.7014
3.48677	58.6742
3.48443	58.6338
3.48209	58.6793
