Name: Brass plate
Type: Manmade materials
Class: Reflectance target
Subclass: 
Particle Size: Solid
Sample No.: SN: ILF-17464-2-1
Owner: JPL
Wavelength range: IR
Origin: Labsphere, P.O. Box 70, Shaker Street, North Sutton, NH 03260
(603) 927-4266
Description: Measurement made at bottom right. Field Brass 2.
Measured Oct. 30th 1997 to Nov. 2nd 1997.




Measurement: Hemispherical Reflectance
First Column: X
Second Column: Y
X Units: Wavelength (micrometers)
Y Units: Reflectence (percent)
First X Value: 15.3853
Last X Value: 2.00032
Number of X Values: 2256
Additional information: None.
 
15.3853	89.0751
15.3397	88.7697
15.2945	88.6788
15.2495	88.9006
15.2048	89.0289
15.1603	89.0554
15.1161	89.0427
15.0722	89.0714
15.0285	89.1711
14.9851	89.3007
14.9419	89.3763
14.8989	89.2154
14.8563	88.9414
14.8138	88.8542
14.7716	89.0107
14.7296	89.014
14.6879	88.9302
14.6464	89.0103
14.6052	89.1366
14.5641	89.0696
14.5233	88.9637
14.4828	89.0439
14.4424	89.0428
14.4023	89.1031
14.3624	89.1
14.3227	89.0355
14.2833	88.9644
14.244	89.07
14.205	89.0156
14.1662	88.9133
14.1276	89.0936
14.0892	89.1985
14.051	89.0822
14.0131	89.0044
13.9753	88.8951
13.9377	88.9344
13.9004	89.0567
13.8632	88.9887
13.8262	88.8562
13.7895	88.8622
13.7529	88.9146
13.7165	88.892
13.6803	88.8333
13.6443	88.8127
13.6085	88.8624
13.5729	88.8266
13.5374	88.8393
13.5022	88.8431
13.4671	88.8413
13.4322	88.7677
13.3975	88.6927
13.363	88.7293
13.3286	88.8496
13.2944	88.8268
13.2604	88.852
13.2266	88.8698
13.193	88.8338
13.1595	88.862
13.1262	88.8159
13.093	88.7493
13.06	88.7679
13.0272	88.8734
12.9946	88.8882
12.9621	88.8067
12.9298	88.6909
12.8976	88.7054
12.8656	88.759
12.8337	88.604
12.8021	88.4954
12.7705	88.4962
12.7391	88.5179
12.7079	88.5696
12.6769	88.5793
12.6459	88.4861
12.6152	88.4162
12.5845	88.3492
12.5541	88.4056
12.5238	88.4747
12.4936	88.5039
12.4635	88.4265
12.4337	88.3605
12.4039	88.4363
12.3743	88.4562
12.3448	88.3645
12.3155	88.3213
12.2863	88.3683
12.2573	88.4809
12.2284	88.5241
12.1996	88.5076
12.171	88.4015
12.1425	88.3462
12.1141	88.4294
12.0859	88.5188
12.0578	88.5361
12.0298	88.4366
12.0019	88.4391
11.9742	88.5329
11.9466	88.5164
11.9192	88.4528
11.8918	88.5223
11.8646	88.5562
11.8375	88.4765
11.8106	88.4111
11.7837	88.5143
11.757	88.5947
11.7304	88.5065
11.7039	88.5167
11.6776	88.513
11.6513	88.5386
11.6252	88.5419
11.5992	88.5176
11.5733	88.4865
11.5475	88.5534
11.5219	88.595
11.4963	88.5211
11.4709	88.5234
11.4455	88.5083
11.4203	88.4533
11.3952	88.4789
11.3702	88.4985
11.3454	88.5226
11.3206	88.4546
11.2959	88.334
11.2714	88.2201
11.2469	88.2247
11.2226	88.2591
11.1983	88.2863
11.1742	88.3412
11.1502	88.3502
11.1263	88.3544
11.1024	88.3628
11.0787	88.3135
11.0551	88.2592
11.0316	88.1794
11.0081	88.12
10.9848	88.2357
10.9616	88.3062
10.9385	88.207
10.9154	88.1264
10.8925	88.0738
10.8697	88.1587
10.8469	88.1757
10.8243	88.1069
10.8017	88.117
10.7793	88.186
10.7569	88.2263
10.7346	88.1587
10.7125	88.1285
10.6904	88.1492
10.6684	88.1344
10.6465	88.2031
10.6247	88.2148
10.6029	88.1777
10.5813	88.1407
10.5597	88.1276
10.5383	88.0508
10.5169	88.018
10.4956	88.0348
10.4744	88.0565
10.4533	88.0587
10.4323	88.0802
10.4113	88.1687
10.3904	88.2343
10.3697	88.1376
10.349	88.047
10.3284	87.9781
10.3078	87.9885
10.2874	88.098
10.267	88.1521
10.2467	88.1472
10.2265	88.0506
10.2064	88.0201
10.1863	88.0149
10.1663	87.9441
10.1464	87.957
10.1266	88.0711
10.1069	88.1443
10.0872	88.1156
10.0676	88.0803
10.0481	88.0644
10.0287	87.992
10.0093	87.86
9.99005	87.9253
9.97084	87.9665
9.95169	87.9039
9.93263	87.8741
9.91364	87.8984
9.89472	87.8885
9.87587	87.8429
9.8571	87.8209
9.83839	87.8109
9.81976	87.7875
9.80119	87.8054
9.78271	87.7443
9.76428	87.6985
9.74592	87.7061
9.72764	87.745
9.70943	87.7935
9.69128	87.6949
9.6732	87.6353
9.65518	87.6675
9.63724	87.6806
9.61935	87.7526
9.60155	87.712
9.5838	87.6635
9.56611	87.6316
9.5485	87.7147
9.53094	87.8375
9.51345	87.8312
9.49604	87.7109
9.47867	87.7095
9.46137	87.7768
9.44414	87.7405
9.42697	87.7475
9.40986	87.776
9.39281	87.6687
9.37583	87.6902
9.35891	87.7827
9.34204	87.751
9.32524	87.788
9.3085	87.9184
9.29182	87.9561
9.27519	87.9349
9.25863	87.8765
9.24213	87.8504
9.22568	87.8721
9.2093	87.9557
9.19297	88.0214
9.17669	87.988
9.16048	87.9451
9.14433	87.9366
9.12823	87.9669
9.11218	87.9519
9.0962	87.9284
9.08027	88.0712
9.06439	88.2189
9.04858	88.2545
9.03281	88.1941
9.0171	88.2139
9.00145	88.2719
8.98585	88.2377
8.9703	88.2007
8.9548	88.1028
8.93937	88.0334
8.92398	88.1029
8.90865	88.149
8.89337	88.1895
8.87814	88.2121
8.86296	88.1493
8.84784	88.1038
8.83277	88.1026
8.81774	88.0587
8.80277	88.0489
8.78786	88.0514
8.77298	88.0555
8.75816	88.063
8.7434	88.0783
8.72868	88.0139
8.714	87.9935
8.69938	88.0677
8.68481	88.0991
8.67029	87.9894
8.65581	87.9454
8.64139	87.9429
8.62701	87.9893
8.61268	88.0496
8.5984	88.0573
8.58416	88.0316
8.56997	88.0422
8.55583	88.0456
8.54174	87.9765
8.52769	87.8813
8.51368	87.9975
8.49973	88.1117
8.48582	88.1954
8.47195	88.1393
8.45813	88.0509
8.44436	88.0231
8.43062	88.103
8.41693	88.0965
8.4033	88.0404
8.3897	88.1154
8.37614	88.185
8.36264	88.0958
8.34917	88.0504
8.33574	88.0707
8.32236	87.9815
8.30903	87.9659
8.29573	88.0318
8.28248	88.0756
8.26927	88.0845
8.2561	88.1281
8.24298	88.1321
8.2299	88.066
8.21685	88.0759
8.20385	88.1335
8.19089	88.1518
8.17797	88.1249
8.16509	88.1295
8.15225	88.1461
8.13946	88.1412
8.1267	88.141
8.11398	88.2045
8.10131	88.2454
8.08867	88.1496
8.07606	88.0605
8.0635	88.1502
8.05099	88.1962
8.0385	88.1916
8.02606	88.2339
8.01366	88.2604
8.00129	88.2774
7.98896	88.3596
7.97667	88.4087
7.96442	88.4179
7.9522	88.4584
7.94002	88.5264
7.92788	88.5946
7.91578	88.6872
7.90371	88.7669
7.89168	88.7967
7.87969	88.7959
7.86773	88.856
7.85581	88.8564
7.84392	88.8501
7.83207	88.9418
7.82026	89.0608
7.80849	89.091
7.79674	89.0743
7.78503	89.0684
7.77337	89.1965
7.76173	89.2927
7.75012	89.3211
7.73856	89.2623
7.72703	89.2005
7.71553	89.2254
7.70406	89.2258
7.69263	89.2278
7.68123	89.2472
7.66987	89.2029
7.65855	89.2368
7.64725	89.2871
7.63598	89.3045
7.62475	89.3524
7.61356	89.4197
7.60239	89.424
7.59126	89.4546
7.58017	89.4868
7.5691	89.4373
7.55806	89.4509
7.54707	89.5067
7.5361	89.4505
7.52516	89.3926
7.51425	89.4128
7.50338	89.4779
7.49253	89.506
7.48172	89.5193
7.47094	89.5714
7.46019	89.6145
7.44947	89.525
7.43879	89.4382
7.42813	89.4491
7.4175	89.5192
7.4069	89.5532
7.39634	89.5039
7.3858	89.5006
7.37529	89.5511
7.36482	89.5735
7.35437	89.6056
7.34396	89.7132
7.33357	89.687
7.32321	89.4873
7.31288	89.4073
7.30258	89.4554
7.29231	89.4845
7.28207	89.6015
7.27185	89.6472
7.26167	89.5004
7.25152	89.4553
7.24139	89.4449
7.23129	89.4297
7.22122	89.4548
7.21117	89.6362
7.20116	89.5621
7.19117	89.3991
7.18121	89.5227
7.17128	89.7742
7.16137	89.7322
7.1515	89.6429
7.14164	89.5708
7.13182	89.4797
7.12203	89.4368
7.11225	89.4129
7.10251	89.426
7.0928	89.4916
7.08311	89.4495
7.07344	89.4426
7.06381	89.4766
7.0542	89.7563
7.04461	89.988
7.03506	89.6707
7.02552	89.5299
7.01601	89.5428
7.00653	89.5119
6.99708	89.5872
6.98765	89.5959
6.97824	89.5513
6.96886	89.8155
6.95951	90.0167
6.95018	89.6331
6.94087	89.4962
6.9316	89.5781
6.92234	89.6532
6.91311	89.7565
6.90391	89.7368
6.89473	89.5692
6.88557	89.6451
6.87644	89.8643
6.86733	90.4526
6.85824	90.3941
6.84918	89.808
6.84015	89.6391
6.83114	89.848
6.82215	89.85
6.81319	89.6376
6.80424	89.661
6.79532	90.0585
6.78643	90.2157
6.77756	89.9219
6.76871	89.726
6.75989	89.6003
6.75109	89.6162
6.74231	89.5801
6.73355	89.5782
6.72482	89.7354
6.71611	89.9141
6.70742	89.8965
6.69875	89.6472
6.69011	89.7991
6.68149	90.0998
6.67289	89.9401
6.66431	89.6512
6.65576	89.6094
6.64722	90.1245
6.63871	90.7796
6.63022	90.4365
6.62175	89.9097
6.61331	89.7874
6.60488	89.7577
6.59648	89.9465
6.5881	89.9711
6.57974	90.1414
6.5714	90.4126
6.56308	90.112
6.55478	90.0063
6.54651	89.8402
6.53825	89.6383
6.53001	89.7362
6.5218	90.0128
6.51361	89.84
6.50544	89.9076
6.49729	90.6225
6.48915	90.7184
6.48104	90.3166
6.47295	89.977
6.46488	89.6734
6.45683	89.5951
6.4488	89.5338
6.44079	89.6191
6.4328	89.859
6.42482	90.148
6.41687	90.8699
6.40894	90.6108
6.40103	89.6849
6.39314	89.4107
6.38526	89.3718
6.37741	89.5113
6.36957	89.6403
6.36176	89.3667
6.35396	89.4519
6.34618	89.9601
6.33843	89.6898
6.33069	89.2734
6.32297	89.216
6.31527	89.1973
6.30758	89.2564
6.29992	89.2214
6.29227	89.1755
6.28465	89.1268
6.27704	89.1292
6.26945	89.1523
6.26188	89.147
6.25432	89.1728
6.24679	89.1866
6.23927	89.1376
6.23177	89.101
6.22429	89.0547
6.21683	89.065
6.20938	89.1032
6.20195	89.0836
6.19454	89.2037
6.18715	89.7126
6.17978	89.5375
6.17242	89.1654
6.16508	89.2745
6.15776	89.3655
6.15045	89.2469
6.14317	89.2048
6.1359	89.2082
6.12864	89.225
6.12141	89.5069
6.11419	89.962
6.10699	89.6961
6.0998	89.3874
6.09263	89.3731
6.08549	89.4261
6.07835	89.8177
6.07123	90.0238
6.06413	89.7656
6.05705	90.1751
6.04998	91.1252
6.04293	90.513
6.0359	89.6366
6.02888	89.4427
6.02187	89.5639
6.01489	89.7603
6.00792	89.6266
6.00096	89.5425
5.99403	89.8262
5.98711	89.9138
5.9802	89.7208
5.97331	89.85
5.96644	89.8717
5.95958	89.5722
5.95274	89.6383
5.94591	89.8911
5.9391	90.4525
5.9323	90.2487
5.92552	89.7128
5.91876	89.6277
5.91201	89.5527
5.90528	89.6909
5.89856	90.2884
5.89186	90.2983
5.88517	90.4917
5.8785	90.535
5.87184	89.821
5.8652	89.792
5.85857	89.6926
5.85196	89.5344
5.84536	89.5035
5.83878	89.6226
5.83221	89.8876
5.82566	90.2737
5.81912	90.2214
5.81259	89.691
5.80608	89.4913
5.79959	89.5187
5.79311	89.4742
5.78665	89.4923
5.78019	89.5428
5.77376	89.8431
5.76734	90.3627
5.76093	89.9755
5.75453	89.6329
5.74815	89.7815
5.74179	89.6677
5.73543	89.5796
5.7291	89.5458
5.72277	89.6425
5.71646	89.7875
5.71017	89.8794
5.70389	89.6403
5.69762	89.5088
5.69136	89.5519
5.68513	89.4918
5.6789	89.5442
5.67268	89.5482
5.66648	89.4087
5.6603	89.4761
5.65413	89.5969
5.64797	89.7216
5.64182	89.9208
5.63569	89.6538
5.62957	89.3804
5.62347	89.3557
5.61737	89.4464
5.61129	89.5024
5.60522	89.5045
5.59917	89.4485
5.59313	89.3715
5.5871	89.4567
5.58109	89.7129
5.57509	89.6538
5.5691	89.4548
5.56312	89.4631
5.55716	89.5009
5.55121	89.5034
5.54528	89.4232
5.53935	89.3563
5.53344	89.2897
5.52754	89.3499
5.52166	89.3813
5.51578	89.3497
5.50992	89.3443
5.50407	89.3557
5.49823	89.3128
5.49241	89.3042
5.4866	89.293
5.4808	89.3862
5.47501	89.3977
5.46923	89.4137
5.46347	89.4513
5.45772	89.3223
5.45198	89.2469
5.44625	89.2569
5.44054	89.2617
5.43484	89.2845
5.42914	89.3509
5.42347	89.5698
5.4178	89.4527
5.41214	89.262
5.4065	89.2579
5.40087	89.2691
5.39525	89.3008
5.38964	89.2882
5.38404	89.2125
5.37846	89.1746
5.37288	89.1774
5.36732	89.2017
5.36177	89.2183
5.35623	89.3332
5.35071	89.4549
5.34519	89.3356
5.33968	89.2272
5.33419	89.2401
5.32871	89.2661
5.32324	89.258
5.31778	89.255
5.31233	89.2446
5.30689	89.2545
5.30147	89.2656
5.29605	89.2726
5.29065	89.2713
5.28525	89.189
5.27987	89.2528
5.2745	89.3017
5.26914	89.2371
5.26379	89.2049
5.25845	89.2667
5.25312	89.2679
5.24781	89.2083
5.2425	89.248
5.23721	89.3149
5.23192	89.2975
5.22665	89.2697
5.22138	89.2633
5.21613	89.3784
5.21089	89.3786
5.20566	89.2893
5.20044	89.304
5.19522	89.2789
5.19002	89.2492
5.18483	89.2146
5.17965	89.2419
5.17448	89.2407
5.16933	89.2293
5.16418	89.2494
5.15904	89.2384
5.15391	89.2858
5.14879	89.328
5.14368	89.2823
5.13859	89.2504
5.1335	89.2119
5.12842	89.2401
5.12335	89.243
5.1183	89.2231
5.11325	89.2626
5.10821	89.2401
5.10318	89.2193
5.09817	89.2373
5.09316	89.2804
5.08816	89.2997
5.08317	89.2791
5.07819	89.2441
5.07322	89.276
5.06826	89.3157
5.06331	89.309
5.05837	89.3101
5.05344	89.278
5.04852	89.1694
5.04361	89.1678
5.03871	89.2119
5.03382	89.299
5.02894	89.3707
5.02406	89.351
5.0192	89.2786
5.01435	89.2457
5.0095	89.2826
5.00467	89.3095
4.99984	89.2686
4.99502	89.2163
4.99021	89.2208
4.98542	89.2312
4.98063	89.1891
4.97585	89.2133
4.97108	89.2901
4.96632	89.3242
4.96156	89.2935
4.95682	89.2864
4.95209	89.2635
4.94736	89.2474
4.94264	89.2626
4.93794	89.2794
4.93324	89.2879
4.92855	89.2751
4.92387	89.2402
4.9192	89.2307
4.91453	89.2393
4.90988	89.2851
4.90524	89.3013
4.9006	89.2951
4.89597	89.2602
4.89135	89.2559
4.88674	89.2198
4.88214	89.2138
4.87755	89.2671
4.87296	89.2711
4.86839	89.2786
4.86382	89.2805
4.85926	89.2381
4.85471	89.2404
4.85017	89.266
4.84564	89.2517
4.84111	89.2672
4.8366	89.3409
4.83209	89.3425
4.82759	89.297
4.8231	89.2803
4.81862	89.3283
4.81415	89.2943
4.80968	89.2275
4.80522	89.2198
4.80077	89.2678
4.79633	89.272
4.7919	89.2577
4.78747	89.2783
4.78306	89.257
4.77865	89.2918
4.77425	89.3268
4.76986	89.2752
4.76547	89.2567
4.7611	89.3259
4.75673	89.2691
4.75237	89.2381
4.74802	89.3157
4.74367	89.3337
4.73934	89.2687
4.73501	89.2257
4.73069	89.1965
4.72638	89.251
4.72207	89.2972
4.71777	89.3224
4.71348	89.3143
4.7092	89.3221
4.70493	89.3268
4.70066	89.2707
4.69641	89.2583
4.69216	89.2724
4.68791	89.2569
4.68368	89.2352
4.67945	89.2099
4.67523	89.1842
4.67102	89.2019
4.66682	89.2562
4.66262	89.273
4.65843	89.239
4.65425	89.2013
4.65007	89.2129
4.64591	89.2494
4.64175	89.277
4.6376	89.3156
4.63345	89.2937
4.62932	89.2217
4.62519	89.2271
4.62106	89.3066
4.61695	89.3191
4.61284	89.2859
4.60874	89.324
4.60465	89.3353
4.60056	89.3099
4.59648	89.2572
4.59241	89.1777
4.58835	89.2103
4.58429	89.229
4.58024	89.2145
4.5762	89.2652
4.57216	89.2797
4.56814	89.2474
4.56411	89.2294
4.5601	89.2374
4.55609	89.275
4.55209	89.2803
4.5481	89.2372
4.54411	89.2065
4.54013	89.2187
4.53616	89.2607
4.5322	89.2766
4.52824	89.266
4.52429	89.2804
4.52034	89.274
4.51641	89.2338
4.51247	89.1679
4.50855	89.1661
4.50463	89.1819
4.50072	89.2216
4.49682	89.2408
4.49292	89.2496
4.48903	89.2146
4.48515	89.2079
4.48127	89.2033
4.4774	89.2026
4.47354	89.2134
4.46968	89.2163
4.46584	89.2055
4.46199	89.1725
4.45815	89.2066
4.45432	89.293
4.4505	89.2788
4.44668	89.2294
4.44287	89.1991
4.43907	89.1949
4.43527	89.2319
4.43148	89.237
4.4277	89.256
4.42392	89.2375
4.42015	89.2186
4.41638	89.1983
4.41262	89.2287
4.40887	89.2587
4.40513	89.2261
4.40139	89.2402
4.39765	89.2282
4.39393	89.1967
4.39021	89.2049
4.38649	89.25
4.38278	89.255
4.37908	89.2091
4.37539	89.1424
4.3717	89.1285
4.36801	89.1038
4.36434	89.1289
4.36067	89.1901
4.357	89.2194
4.35335	89.252
4.34969	89.2516
4.34605	89.1952
4.34241	89.195
4.33877	89.2127
4.33514	89.162
4.33152	89.1454
4.32791	89.2146
4.3243	89.2446
4.32069	89.2298
4.3171	89.2667
4.31351	89.2957
4.30992	89.2352
4.30634	89.2127
4.30277	89.1972
4.2992	89.2189
4.29564	89.2569
4.29208	89.2501
4.28853	89.2233
4.28499	89.2677
4.28145	89.2901
4.27792	89.2702
4.27439	89.2533
4.27087	89.2632
4.26735	89.2829
4.26384	89.2914
4.26034	89.2559
4.25684	89.219
4.25335	89.2431
4.24986	89.2666
4.24638	89.2733
4.24291	89.2498
4.23944	89.2345
4.23598	89.2501
4.23252	89.2785
4.22906	89.3384
4.22562	89.3376
4.22218	89.3018
4.21874	89.2973
4.21531	89.288
4.21189	89.2606
4.20847	89.228
4.20506	89.2146
4.20165	89.1951
4.19825	89.1842
4.19485	89.1808
4.19146	89.1877
4.18807	89.1753
4.18469	89.0918
4.18132	89.0785
4.17795	89.063
4.17458	89.1069
4.17123	89.1626
4.16787	89.1507
4.16453	89.1086
4.16118	89.0677
4.15785	89.0722
4.15451	89.0772
4.15119	89.1268
4.14787	89.1794
4.14455	89.1562
4.14124	89.1616
4.13794	89.1742
4.13464	89.1864
4.13134	89.1858
4.12805	89.0986
4.12477	89.0807
4.12149	89.1653
4.11822	89.1455
4.11495	89.1021
4.11168	89.0651
4.10843	89.0466
4.10517	89.0523
4.10192	89.0551
4.09868	89.1063
4.09545	89.1397
4.09221	89.1014
4.08899	89.0758
4.08576	89.1053
4.08255	89.0972
4.07933	89.0812
4.07613	89.1367
4.07292	89.1427
4.06973	89.0798
4.06654	89.0876
4.06335	89.1454
4.06017	89.1402
4.05699	89.1203
4.05382	89.0925
4.05065	89.0547
4.04749	89.1011
4.04433	89.1413
4.04118	89.1273
4.03803	89.0743
4.03489	89.0774
4.03175	89.1128
4.02862	89.1197
4.02549	89.1519
4.02237	89.1643
4.01925	89.1679
4.01614	89.0998
4.01303	89.0722
4.00993	89.1948
4.00683	89.2477
4.00373	89.1623
4.00064	89.0413
3.99756	89.0603
3.99448	89.0983
3.9914	89.0723
3.98833	89.0206
3.98527	89.0238
3.98221	89.0655
3.97915	89.0849
3.9761	89.0948
3.97305	89.0943
3.97001	89.1334
3.96697	89.0896
3.96394	89.0627
3.96091	89.0494
3.95789	89.0251
3.95487	89.0599
3.95186	89.0689
3.94885	89.0441
3.94584	89.0054
3.94284	89.0195
3.93984	89.0643
3.93685	89.0559
3.93386	89.1027
3.93088	89.1001
3.9279	89.0911
3.92493	89.101
3.92196	89.0834
3.919	89.1017
3.91604	89.0968
3.91308	89.0721
3.91013	89.0069
3.90718	89.0256
3.90424	89.0775
3.9013	89.1322
3.89837	89.1191
3.89544	89.0601
3.89252	89.0233
3.8896	89.0202
3.88668	89.0411
3.88377	89.1569
3.88086	89.1207
3.87796	89.0045
3.87506	89.0009
3.87217	89.0449
3.86928	89.0636
3.86639	88.9944
3.86351	89.0033
3.86064	89.0455
3.85776	89.0406
3.8549	89.0219
3.85203	89.0044
3.84917	89.0533
3.84631	89.0655
3.84346	89.0407
3.84062	89.0406
3.83777	89.0786
3.83494	89.0177
3.8321	88.9431
3.82927	88.931
3.82644	89.002
3.82362	89.0208
3.82081	88.9784
3.81799	89.0058
3.81518	89.0005
3.81238	89.0241
3.80958	89.0362
3.80678	89.04
3.80399	89.0201
3.8012	89.0229
3.79841	89.0147
3.79563	89.0314
3.79286	88.9828
3.79008	88.9671
3.78731	89.0075
3.78455	89.0324
3.78179	89.0154
3.77903	88.9951
3.77628	89.0285
3.77353	89.0894
3.77079	89.0487
3.76805	89.0082
3.76531	88.9869
3.76258	88.948
3.75985	88.9359
3.75713	88.9354
3.7544	88.9068
3.75169	88.9432
3.74898	89.0254
3.74627	89.0447
3.74356	89.024
3.74086	89.0199
3.73816	89.0655
3.73547	89.0316
3.73278	88.9952
3.7301	88.9436
3.72741	88.936
3.72474	88.9261
3.72206	88.9376
3.71939	89.0008
3.71673	88.9397
3.71406	88.9152
3.71141	88.9449
3.70875	88.9396
3.7061	88.9789
3.70345	89.021
3.70081	89.0257
3.69817	89.0306
3.69553	88.9948
3.6929	88.9726
3.69027	89.0156
3.68765	89.0196
3.68503	89.0176
3.68241	89.0365
3.6798	89.0008
3.67719	89.0105
3.67458	89.0176
3.67198	89.0256
3.66938	88.9962
3.66678	88.9272
3.66419	88.8977
3.66161	88.9483
3.65902	88.9975
3.65644	89.0199
3.65387	89.0412
3.65129	89.0382
3.64872	88.9593
3.64616	88.9778
3.64359	89.0272
3.64103	89.0159
3.63848	88.9837
3.63593	88.9417
3.63338	88.9329
3.63084	89.0061
3.6283	88.9915
3.62576	88.9456
3.62322	88.9538
3.62069	88.9593
3.61817	88.9997
3.61564	88.9896
3.61312	88.9382
3.61061	88.9446
3.6081	88.9468
3.60559	88.9155
3.60308	88.9329
3.60058	88.9595
3.59808	88.9275
3.59558	88.9294
3.59309	88.9657
3.59061	88.96
3.58812	89.002
3.58564	89.0451
3.58316	88.9573
3.58069	88.9338
3.57822	88.9471
3.57575	88.9389
3.57328	88.8962
3.57082	88.9523
3.56836	88.9997
3.56591	88.9963
3.56346	88.9186
3.56101	88.8326
3.55857	88.851
3.55613	88.9476
3.55369	88.9766
3.55126	88.9723
3.54883	88.9752
3.5464	88.9089
3.54397	88.9206
3.54155	88.9539
3.53914	88.9742
3.53672	89.0109
3.53431	88.9714
3.5319	88.939
3.5295	88.9199
3.5271	88.9325
3.5247	88.8676
3.52231	88.8195
3.51991	88.8763
3.51753	88.9534
3.51514	89.0415
3.51276	89.118
3.51038	89.0885
3.50801	89.0831
3.50563	89.0675
3.50327	89.0035
3.5009	89.0272
3.49854	89.0073
3.49618	89.0042
3.49382	89.0101
3.49147	88.9664
3.48912	88.9326
3.48677	88.9569
3.48443	88.9732
3.48209	88.975
3.47975	89.0182
