Name: Granodiorite
Type: Rock
Class: Igneous
Subclass:  Intermediate 
Particle Size: Solid surface
Sample No.: Ward26.txt
Owner: JPL
Wavelength range:  VNIR SWIR IR 
Origin: Ward's Collection of American Rocks.  Sample locality - St. Cloud, Stearns County, Minnesota.
Collected by:  Ward's Natural Science
Description: A medium granular, gray rock, composed of plagioclase, pink
orthoclase, biotite, hornblende and quartz.
Geologic age - Pre-Cambrian.



Measurement: Hemispherical reflectance
First Column: X
Second Column: Y
X Units: Wavelength (micrometers)
Y Units: Reflectance (percent)
First X Value: 2.500
Last X Value: 0.400
Number of X Values: 2101
Additional information: None

2.500  17.689254
2.499  17.445957
2.498  17.451255
2.497  18.097686
2.496  17.265386
2.495  17.919346
2.494  17.557919
2.493  17.656483
2.492  17.574075
2.491  17.600354
2.490  17.414502
2.489  17.595171
2.488  17.617817
2.487  17.703209
2.486  17.512805
2.485  17.730300
2.484  17.653546
2.483  17.737522
2.482  17.627371
2.481  17.841985
2.480  17.676539
2.479  17.897595
2.478  17.527092
2.477  17.820186
2.476  17.569908
2.475  17.764317
2.474  17.707152
2.473  17.781280
2.472  17.798350
2.471  17.801978
2.470  17.642119
2.469  17.812348
2.468  17.541070
2.467  17.892691
2.466  17.822686
2.465  17.889054
2.464  17.733928
2.463  17.904047
2.462  17.694547
2.461  17.819306
2.460  17.671978
2.459  17.893755
2.458  17.759575
2.457  17.891211
2.456  17.731828
2.455  17.863745
2.454  17.776172
2.453  17.878957
2.452  17.749259
2.451  17.838876
2.450  17.741728
2.449  17.937443
2.448  17.783830
2.447  17.815959
2.446  17.781323
2.445  17.843119
2.444  17.795774
2.443  17.937347
2.442  17.843304
2.441  17.892295
2.440  17.835301
2.439  17.942842
2.438  17.935929
2.437  17.995729
2.436  17.900218
2.435  17.962939
2.434  17.829732
2.433  18.052809
2.432  17.795270
2.431  17.995611
2.430  17.820898
2.429  17.927829
2.428  17.858762
2.427  17.986010
2.426  17.914579
2.425  17.907146
2.424  17.815659
2.423  18.008459
2.422  17.868904
2.421  17.931383
2.420  17.869902
2.419  17.999644
2.418  17.931604
2.417  17.970770
2.416  17.831022
2.415  17.846315
2.414  17.823864
2.413  17.808204
2.412  17.830067
2.411  17.874183
2.410  17.848880
2.409  17.874125
2.408  17.786595
2.407  17.843562
2.406  17.789571
2.405  17.825295
2.404  17.800720
2.403  17.827889
2.402  17.740469
2.401  17.782829
2.400  17.703563
2.399  17.756391
2.398  17.757749
2.397  17.781679
2.396  17.729250
2.395  17.685555
2.394  17.709700
2.393  17.779335
2.392  17.660727
2.391  17.694817
2.390  17.747204
2.389  17.781347
2.388  17.786744
2.387  17.797433
2.386  17.768955
2.385  17.826500
2.384  17.804586
2.383  17.868564
2.382  17.832719
2.381  17.841906
2.380  17.860236
2.379  17.913161
2.378  17.929616
2.377  17.930596
2.376  17.910240
2.375  18.015227
2.374  17.988107
2.373  17.969519
2.372  18.027855
2.371  18.027769
2.370  18.004281
2.369  18.082413
2.368  18.101512
2.367  18.112294
2.366  18.142313
2.365  18.143025
2.364  18.092524
2.363  18.131667
2.362  18.154884
2.361  18.135951
2.360  18.130591
2.359  18.130387
2.358  18.139632
2.357  18.116335
2.356  18.108976
2.355  18.130127
2.354  18.107946
2.353  18.070234
2.352  18.076775
2.351  18.063983
2.350  18.078951
2.349  18.081393
2.348  18.076156
2.347  18.026070
2.346  18.023396
2.345  17.970156
2.344  17.951603
2.343  17.925611
2.342  17.896023
2.341  17.885284
2.340  17.915096
2.339  17.858194
2.338  17.836484
2.337  17.833047
2.336  17.859154
2.335  17.828575
2.334  17.860078
2.333  17.816358
2.332  17.800073
2.331  17.782581
2.330  17.780099
2.329  17.784792
2.328  17.875759
2.327  17.808462
2.326  17.770260
2.325  17.743407
2.324  17.811278
2.323  17.811377
2.322  17.804117
2.321  17.805322
2.320  17.856147
2.319  17.858166
2.318  17.888370
2.317  17.915191
2.316  17.951539
2.315  17.944784
2.314  18.002473
2.313  18.001503
2.312  18.121751
2.311  18.036333
2.310  18.107555
2.309  18.079260
2.308  18.079888
2.307  18.131491
2.306  18.191424
2.305  18.179557
2.304  18.251937
2.303  18.249160
2.302  18.325300
2.301  18.352634
2.300  18.421581
2.299  18.384152
2.298  18.436159
2.297  18.399200
2.296  18.498891
2.295  18.541204
2.294  18.611520
2.293  18.570978
2.292  18.650441
2.291  18.581123
2.290  18.664086
2.289  18.610504
2.288  18.726392
2.287  18.738405
2.286  18.840429
2.285  18.795050
2.284  18.836962
2.283  18.779128
2.282  18.882088
2.281  18.851354
2.280  18.909780
2.279  18.886374
2.278  18.883849
2.277  18.900875
2.276  19.022724
2.275  18.928632
2.274  19.045995
2.273  18.974510
2.272  19.012610
2.271  18.966331
2.270  19.121334
2.269  19.044406
2.268  19.053876
2.267  18.984538
2.266  19.043046
2.265  19.047856
2.264  19.040779
2.263  19.008048
2.262  19.065204
2.261  19.039248
2.260  19.066538
2.259  19.040531
2.258  19.082981
2.257  19.036247
2.256  19.114085
2.255  19.053660
2.254  19.130560
2.253  19.065198
2.252  19.088310
2.251  19.105233
2.250  19.185105
2.249  19.078041
2.248  19.088771
2.247  19.114713
2.246  19.198530
2.245  19.093876
2.244  19.205993
2.243  19.114543
2.242  19.218361
2.241  19.160292
2.240  19.234006
2.239  19.206533
2.238  19.311813
2.237  19.143486
2.236  19.287293
2.235  19.263275
2.234  19.293111
2.233  19.216043
2.232  19.265764
2.231  19.248921
2.230  19.366551
2.229  19.267094
2.228  19.422721
2.227  19.240399
2.226  19.367956
2.225  19.319135
2.224  19.334927
2.223  19.207000
2.222  19.379323
2.221  19.280023
2.220  19.401656
2.219  19.293541
2.218  19.407896
2.217  19.401301
2.216  19.456453
2.215  19.361891
2.214  19.389721
2.213  19.345141
2.212  19.497677
2.211  19.248887
2.210  19.466713
2.209  19.384051
2.208  19.417724
2.207  19.391697
2.206  19.396965
2.205  19.413261
2.204  19.460485
2.203  19.424721
2.202  19.479312
2.201  19.363999
2.200  19.387105
2.199  19.357910
2.198  19.457015
2.197  19.361702
2.196  19.522600
2.195  19.439835
2.194  19.488514
2.193  19.410527
2.192  19.536433
2.191  19.520057
2.190  19.506867
2.189  19.457670
2.188  19.565910
2.187  19.469645
2.186  19.554311
2.185  19.510963
2.184  19.587067
2.183  19.516154
2.182  19.548183
2.181  19.498487
2.180  19.590335
2.179  19.478744
2.178  19.630258
2.177  19.524564
2.176  19.585190
2.175  19.608555
2.174  19.667116
2.173  19.564878
2.172  19.634315
2.171  19.578384
2.170  19.677886
2.169  19.579101
2.168  19.666210
2.167  19.596177
2.166  19.640169
2.165  19.645519
2.164  19.649735
2.163  19.660971
2.162  19.679013
2.161  19.614537
2.160  19.732126
2.159  19.721946
2.158  19.710401
2.157  19.673662
2.156  19.741250
2.155  19.694266
2.154  19.737129
2.153  19.696513
2.152  19.765016
2.151  19.688502
2.150  19.734975
2.149  19.644855
2.148  19.727404
2.147  19.699747
2.146  19.629283
2.145  19.643571
2.144  19.776390
2.143  19.682658
2.142  19.642078
2.141  19.647260
2.140  19.696700
2.139  19.668687
2.138  19.710588
2.137  19.597511
2.136  19.621323
2.135  19.613201
2.134  19.673455
2.133  19.608622
2.132  19.632537
2.131  19.569691
2.130  19.625021
2.129  19.539008
2.128  19.568765
2.127  19.480604
2.126  19.570091
2.125  19.485368
2.124  19.584474
2.123  19.516814
2.122  19.452845
2.121  19.460440
2.120  19.522482
2.119  19.501442
2.118  19.466297
2.117  19.399272
2.116  19.464517
2.115  19.426358
2.114  19.406858
2.113  19.353367
2.112  19.402530
2.111  19.375168
2.110  19.404210
2.109  19.345527
2.108  19.320841
2.107  19.326898
2.106  19.345219
2.105  19.318527
2.104  19.298705
2.103  19.274462
2.102  19.228693
2.101  19.209910
2.100  19.236706
2.099  19.157643
2.098  19.185190
2.097  19.220119
2.096  19.247955
2.095  19.242864
2.094  19.222735
2.093  19.174320
2.092  19.169277
2.091  19.186041
2.090  19.171658
2.089  19.154138
2.088  19.155726
2.087  19.222442
2.086  19.226463
2.085  19.193635
2.084  19.239815
2.083  19.198660
2.082  19.219234
2.081  19.198273
2.080  19.230682
2.079  19.270328
2.078  19.225713
2.077  19.125211
2.076  19.085982
2.075  19.152003
2.074  19.168534
2.073  19.190494
2.072  19.134789
2.071  19.162133
2.070  19.220462
2.069  19.193742
2.068  19.174141
2.067  19.159140
2.066  19.168822
2.065  19.154608
2.064  19.158461
2.063  19.207329
2.062  19.181200
2.061  19.173982
2.060  19.146017
2.059  19.121133
2.058  19.144166
2.057  19.140803
2.056  19.121787
2.055  19.139855
2.054  19.110330
2.053  19.115154
2.052  19.183079
2.051  19.201428
2.050  19.145289
2.049  19.176851
2.048  19.144024
2.047  19.150906
2.046  19.154842
2.045  19.122566
2.044  19.129486
2.043  19.157550
2.042  19.118369
2.041  19.164253
2.040  19.106055
2.039  19.112477
2.038  19.127497
2.037  19.113771
2.036  19.050998
2.035  19.053155
2.034  19.081033
2.033  19.096432
2.032  19.007118
2.031  19.073038
2.030  19.051245
2.029  19.083589
2.028  18.989473
2.027  19.072455
2.026  19.078241
2.025  19.073983
2.024  19.055058
2.023  19.076458
2.022  19.050044
2.021  19.028153
2.020  19.008135
2.019  19.105185
2.018  19.007675
2.017  19.010949
2.016  18.992570
2.015  19.084814
2.014  18.992762
2.013  19.103465
2.012  18.999800
2.011  19.029320
2.010  18.999092
2.009  18.989313
2.008  18.904425
2.007  19.014836
2.006  18.940901
2.005  19.049203
2.004  19.024055
2.003  19.032038
2.002  18.939049
2.001  18.985336
2.000  18.889881
1.999  18.932926
1.998  18.930114
1.997  18.992676
1.996  18.917201
1.995  18.947848
1.994  18.974497
1.993  18.962332
1.992  18.870852
1.991  18.887901
1.990  18.930811
1.989  18.947904
1.988  18.892331
1.987  18.957343
1.986  18.906961
1.985  18.945294
1.984  18.897142
1.983  18.900212
1.982  18.902031
1.981  18.915250
1.980  18.866865
1.979  18.910568
1.978  18.907875
1.977  18.905004
1.976  18.873740
1.975  18.955889
1.974  18.836264
1.973  18.911168
1.972  18.885060
1.971  18.882260
1.970  18.865441
1.969  18.957464
1.968  18.859895
1.967  18.952423
1.966  18.942157
1.965  18.982266
1.964  18.902618
1.963  18.931218
1.962  18.907088
1.961  18.930756
1.960  18.928501
1.959  18.910238
1.958  18.879751
1.957  18.965587
1.956  18.850715
1.955  18.965108
1.954  18.920721
1.953  18.982158
1.952  18.911784
1.951  18.933076
1.950  18.854982
1.949  18.915859
1.948  18.875863
1.947  18.981004
1.946  18.891513
1.945  18.956524
1.944  18.868572
1.943  18.977018
1.942  18.927135
1.941  19.021096
1.940  18.902499
1.939  18.991524
1.938  18.941718
1.937  18.952711
1.936  19.003302
1.935  19.001522
1.934  18.925636
1.933  19.081526
1.932  18.939979
1.931  18.977739
1.930  18.924192
1.929  19.115586
1.928  19.004908
1.927  19.098065
1.926  18.861585
1.925  19.126635
1.924  18.846349
1.923  19.029333
1.922  18.984748
1.921  18.995293
1.920  18.956311
1.919  18.985820
1.918  18.911005
1.917  19.030445
1.916  18.919451
1.915  19.014975
1.914  18.920177
1.913  19.026131
1.912  18.897701
1.911  19.053207
1.910  18.986732
1.909  18.983166
1.908  18.908800
1.907  19.147370
1.906  18.936047
1.905  19.070393
1.904  18.958175
1.903  19.053682
1.902  18.998717
1.901  19.179189
1.900  19.057640
1.899  19.043468
1.898  18.990161
1.897  19.098052
1.896  19.024142
1.895  19.092595
1.894  18.974907
1.893  19.103075
1.892  19.047019
1.891  19.058709
1.890  19.016631
1.889  19.000924
1.888  19.000958
1.887  19.012722
1.886  18.980697
1.885  19.078752
1.884  18.946140
1.883  18.996274
1.882  18.948264
1.881  19.086401
1.880  18.977623
1.879  19.036594
1.878  19.013558
1.877  19.068409
1.876  19.031377
1.875  19.120634
1.874  19.096220
1.873  19.213617
1.872  19.091705
1.871  19.128642
1.870  19.066773
1.869  19.120212
1.868  19.079184
1.867  19.108838
1.866  18.999934
1.865  19.095796
1.864  18.957832
1.863  18.977674
1.862  18.935299
1.861  18.943971
1.860  18.912347
1.859  18.980185
1.858  18.953671
1.857  18.976008
1.856  18.903457
1.855  19.016966
1.854  18.954551
1.853  18.983622
1.852  18.908335
1.851  18.925184
1.850  18.881439
1.849  18.952810
1.848  18.884134
1.847  18.897577
1.846  18.945490
1.845  18.938762
1.844  18.886851
1.843  18.907859
1.842  18.919434
1.841  18.923112
1.840  18.898447
1.839  18.919450
1.838  18.881143
1.837  18.927167
1.836  18.834720
1.835  18.845423
1.834  18.886223
1.833  18.858361
1.832  18.849643
1.831  18.831666
1.830  18.787364
1.829  18.783957
1.828  18.756549
1.827  18.752286
1.826  18.780289
1.825  18.802390
1.824  18.749056
1.823  18.766436
1.822  18.786503
1.821  18.742049
1.820  18.740155
1.819  18.754187
1.818  18.729201
1.817  18.690371
1.816  18.643696
1.815  18.666273
1.814  18.656101
1.813  18.669440
1.812  18.595148
1.811  18.633052
1.810  18.705356
1.809  18.676351
1.808  18.591534
1.807  18.646138
1.806  18.609148
1.805  18.657331
1.804  18.637321
1.803  18.621748
1.802  18.616453
1.801  18.627671
1.800  18.631781
1.799  18.640481
1.798  18.657870
1.797  18.613220
1.796  18.559466
1.795  18.562494
1.794  18.595905
1.793  18.615661
1.792  18.601063
1.791  18.579558
1.790  18.543575
1.789  18.593966
1.788  18.623331
1.787  18.626806
1.786  18.577949
1.785  18.558907
1.784  18.616517
1.783  18.585316
1.782  18.590546
1.781  18.662746
1.780  18.722434
1.779  18.663832
1.778  18.604741
1.777  18.617038
1.776  18.610276
1.775  18.600369
1.774  18.611447
1.773  18.579275
1.772  18.613405
1.771  18.616902
1.770  18.604691
1.769  18.631027
1.768  18.575427
1.767  18.516546
1.766  18.596711
1.765  18.550433
1.764  18.566742
1.763  18.595593
1.762  18.586535
1.761  18.579028
1.760  18.625964
1.759  18.580370
1.758  18.603140
1.757  18.537784
1.756  18.595819
1.755  18.591093
1.754  18.653678
1.753  18.603193
1.752  18.550671
1.751  18.534092
1.750  18.556965
1.749  18.561494
1.748  18.602132
1.747  18.595170
1.746  18.630670
1.745  18.574639
1.744  18.595784
1.743  18.591040
1.742  18.607839
1.741  18.566494
1.740  18.574288
1.739  18.549114
1.738  18.602779
1.737  18.568797
1.736  18.621179
1.735  18.578202
1.734  18.597192
1.733  18.567580
1.732  18.592598
1.731  18.574766
1.730  18.587998
1.729  18.538997
1.728  18.602961
1.727  18.536568
1.726  18.563378
1.725  18.490424
1.724  18.549296
1.723  18.512769
1.722  18.573878
1.721  18.525795
1.720  18.568041
1.719  18.554800
1.718  18.533760
1.717  18.488960
1.716  18.589425
1.715  18.522054
1.714  18.534645
1.713  18.474633
1.712  18.537314
1.711  18.485214
1.710  18.521721
1.709  18.536057
1.708  18.520646
1.707  18.437155
1.706  18.465688
1.705  18.435714
1.704  18.489633
1.703  18.483909
1.702  18.501088
1.701  18.462903
1.700  18.456292
1.699  18.434513
1.698  18.477613
1.697  18.442880
1.696  18.498880
1.695  18.442697
1.694  18.434899
1.693  18.286591
1.692  18.418074
1.691  18.399124
1.690  18.427217
1.689  18.354725
1.688  18.424160
1.687  18.379350
1.686  18.442423
1.685  18.268519
1.684  18.431478
1.683  18.308402
1.682  18.479152
1.681  18.311089
1.680  18.374836
1.679  18.306557
1.678  18.353553
1.677  18.266063
1.676  18.338556
1.675  18.253591
1.674  18.362412
1.673  18.312560
1.672  18.332202
1.671  18.235841
1.670  18.301401
1.669  18.411432
1.668  18.071474
1.667  18.204746
1.666  18.300839
1.665  18.085309
1.664  18.210460
1.663  18.166227
1.662  18.235796
1.661  18.131534
1.660  18.282565
1.659  18.168675
1.658  18.259447
1.657  18.127892
1.656  18.197573
1.655  18.149462
1.654  18.231543
1.653  18.129807
1.652  18.285732
1.651  18.143674
1.650  18.218146
1.649  18.097158
1.648  18.229766
1.647  18.151386
1.646  18.155742
1.645  18.106728
1.644  18.178162
1.643  18.053941
1.642  18.296242
1.641  18.012163
1.640  18.259290
1.639  18.043371
1.638  18.137465
1.637  18.140568
1.636  18.073925
1.635  18.112211
1.634  18.215471
1.633  18.069084
1.632  18.169863
1.631  18.067597
1.630  18.209542
1.629  18.042666
1.628  18.173060
1.627  18.060433
1.626  18.169401
1.625  18.097700
1.624  18.135278
1.623  18.032503
1.622  18.191622
1.621  18.021043
1.620  18.097730
1.619  18.016987
1.618  18.130967
1.617  18.088070
1.616  18.118749
1.615  18.062688
1.614  18.066994
1.613  18.037068
1.612  18.077190
1.611  18.050873
1.610  18.051500
1.609  18.043853
1.608  18.156443
1.607  17.977633
1.606  18.105197
1.605  17.929775
1.604  18.094593
1.603  18.031254
1.602  18.113348
1.601  18.010510
1.600  18.080425
1.599  18.015422
1.598  18.083406
1.597  18.028724
1.596  18.093335
1.595  17.996418
1.594  18.109560
1.593  18.008128
1.592  18.008798
1.591  18.003577
1.590  18.044366
1.589  17.951296
1.588  18.004268
1.587  18.008316
1.586  18.061859
1.585  18.015621
1.584  18.104758
1.583  17.921350
1.582  18.071979
1.581  17.920699
1.580  18.058289
1.579  17.995994
1.578  18.003131
1.577  17.966154
1.576  18.033552
1.575  17.977179
1.574  18.027082
1.573  17.941834
1.572  17.966147
1.571  17.902277
1.570  17.978039
1.569  17.956146
1.568  17.981310
1.567  17.945930
1.566  17.983653
1.565  17.964295
1.564  17.967696
1.563  17.921309
1.562  17.980452
1.561  17.938828
1.560  17.950682
1.559  17.869338
1.558  17.965405
1.557  17.893998
1.556  17.925546
1.555  17.880607
1.554  17.931916
1.553  17.924642
1.552  17.930443
1.551  17.818506
1.550  17.939041
1.549  17.865605
1.548  17.900919
1.547  17.896415
1.546  17.905155
1.545  17.825795
1.544  17.854584
1.543  17.869003
1.542  17.926653
1.541  17.884751
1.540  17.885814
1.539  17.855715
1.538  17.845018
1.537  17.814478
1.536  17.854000
1.535  17.893220
1.534  17.887293
1.533  17.836023
1.532  17.846687
1.531  17.820474
1.530  17.865309
1.529  17.834475
1.528  17.850885
1.527  17.807883
1.526  17.806811
1.525  17.798540
1.524  17.810857
1.523  17.770507
1.522  17.801681
1.521  17.804518
1.520  17.812891
1.519  17.771173
1.518  17.813466
1.517  17.785387
1.516  17.740608
1.515  17.772410
1.514  17.751430
1.513  17.771418
1.512  17.770499
1.511  17.752935
1.510  17.822864
1.509  17.818839
1.508  17.756499
1.507  17.755124
1.506  17.747932
1.505  17.739463
1.504  17.754775
1.503  17.748232
1.502  17.749110
1.501  17.756261
1.500  17.754434
1.499  17.718201
1.498  17.737527
1.497  17.739924
1.496  17.737917
1.495  17.784773
1.494  17.763379
1.493  17.692102
1.492  17.678206
1.491  17.707416
1.490  17.724995
1.489  17.717324
1.488  17.747662
1.487  17.755671
1.486  17.674687
1.485  17.691299
1.484  17.697579
1.483  17.737538
1.482  17.744680
1.481  17.710284
1.480  17.656942
1.479  17.644271
1.478  17.611995
1.477  17.699721
1.476  17.706353
1.475  17.698012
1.474  17.674695
1.473  17.645012
1.472  17.666817
1.471  17.683256
1.470  17.679293
1.469  17.672368
1.468  17.689248
1.467  17.683341
1.466  17.597549
1.465  17.659087
1.464  17.595789
1.463  17.599690
1.462  17.605282
1.461  17.623769
1.460  17.639613
1.459  17.625193
1.458  17.627913
1.457  17.596114
1.456  17.611064
1.455  17.671695
1.454  17.572720
1.453  17.629016
1.452  17.633009
1.451  17.634405
1.450  17.590494
1.449  17.704602
1.448  17.573078
1.447  17.605342
1.446  17.526679
1.445  17.534260
1.444  17.559394
1.443  17.588662
1.442  17.556726
1.441  17.584946
1.440  17.582266
1.439  17.641924
1.438  17.583057
1.437  17.618471
1.436  17.573773
1.435  17.557666
1.434  17.572331
1.433  17.630162
1.432  17.555295
1.431  17.569994
1.430  17.525606
