Name: Pyrolusite MnO_2
Type: Mineral
Class: Oxides
Subclass: 
Particle Size: <0-45um
Sample No.: O-6A
Owner: JPL
Wavelength range: IR
Origin: Mexico, Chihuahua
Collected by Grieger's Inc.
Description: 





Measurement: Hemispherical reflectance
First Column: X
Second Column: Y
X Units:  Wavelength (micrometers)
Y Units:  Reflectance (percent)
First X Value: 15.3853
Last X Value: 2.00032
Number of X Values: 2256
Additional information: o06aa.txt
 
15.3853	10.1617
15.3397	10.1434
15.2945	10.1146
15.2495	10.0569
15.2048	10.1006
15.1603	9.90697
15.1161	9.66013
15.0722	9.65395
15.0285	9.46152
14.9851	9.13664
14.9419	8.89508
14.8989	8.79185
14.8563	8.54619
14.8138	8.35587
14.7716	8.35694
14.7296	8.13062
14.6879	7.86175
14.6464	7.72356
14.6052	7.63713
14.5641	7.29786
14.5233	6.99597
14.4828	6.99222
14.4424	6.87348
14.4023	6.68532
14.3624	6.50359
14.3227	6.39004
14.2833	6.1314
14.244	5.77011
14.205	5.50804
14.1662	5.30105
14.1276	5.0148
14.0892	4.85123
14.051	4.56497
14.0131	4.34224
13.9753	4.19693
13.9377	3.95508
13.9004	3.58087
13.8632	3.38392
13.8262	3.36666
13.7895	3.16921
13.7529	3.00465
13.7165	3.02477
13.6803	2.90238
13.6443	2.83662
13.6085	2.80072
13.5729	2.83526
13.5374	2.74192
13.5022	2.54783
13.4671	2.3659
13.4322	2.27011
13.3975	2.27982
13.363	2.39002
13.3286	2.38063
13.2944	2.06286
13.2604	1.75027
13.2266	1.70359
13.193	1.83048
13.1595	1.96609
13.1262	2.03921
13.093	1.92435
13.06	1.9775
13.0272	2.12198
12.9946	2.18859
12.9621	2.26927
12.9298	2.34793
12.8976	2.65652
12.8656	2.9507
12.8337	3.15272
12.8021	3.20426
12.7705	3.27825
12.7391	3.30279
12.7079	3.44907
12.6769	3.5566
12.6459	3.74091
12.6152	4.03935
12.5845	4.20842
12.5541	4.30634
12.5238	4.55013
12.4936	4.66374
12.4635	4.92901
12.4337	5.14655
12.4039	5.20991
12.3743	5.36723
12.3448	5.57375
12.3155	5.69382
12.2863	5.8437
12.2573	5.92527
12.2284	5.98099
12.1996	6.20071
12.171	6.39396
12.1425	6.499
12.1141	6.71499
12.0859	6.91373
12.0578	6.8409
12.0298	6.84499
12.0019	6.99928
11.9742	7.10308
11.9466	7.2589
11.9192	7.45352
11.8918	7.52125
11.8646	7.57699
11.8375	7.6881
11.8106	7.74966
11.7837	7.82838
11.757	7.97598
11.7304	8.15906
11.7039	8.21562
11.6776	8.28289
11.6513	8.25017
11.6252	8.2179
11.5992	8.36773
11.5733	8.52991
11.5475	8.61303
11.5219	8.77784
11.4963	8.90962
11.4709	8.94104
11.4455	9.04988
11.4203	9.11901
11.3952	9.08798
11.3702	9.1544
11.3454	9.20617
11.3206	9.25742
11.2959	9.43597
11.2714	9.53348
11.2469	9.62994
11.2226	9.72916
11.1983	9.69462
11.1742	9.69418
11.1502	9.73636
11.1263	9.83022
11.1024	9.91089
11.0787	9.97818
11.0551	10.0156
11.0316	10.0573
11.0081	10.1542
10.9848	10.3357
10.9616	10.3795
10.9385	10.4562
10.9154	10.4846
10.8925	10.3712
10.8697	10.427
10.8469	10.5352
10.8243	10.6253
10.8017	10.7014
10.7793	10.6408
10.7569	10.6079
10.7346	10.7226
10.7125	10.9036
10.6904	11.0176
10.6684	11.0189
10.6465	11.0246
10.6247	11.0488
10.6029	11.0989
10.5813	11.1515
10.5597	11.2904
10.5383	11.2643
10.5169	11.2206
10.4956	11.3593
10.4744	11.4095
10.4533	11.4158
10.4323	11.4716
10.4113	11.4689
10.3904	11.3607
10.3697	11.3296
10.349	11.4486
10.3284	11.4061
10.3078	11.3066
10.2874	11.3299
10.267	11.3764
10.2467	11.3882
10.2265	11.3893
10.2064	11.4889
10.1863	11.6537
10.1663	11.6674
10.1464	11.6103
10.1266	11.719
10.1069	11.7193
10.0872	11.6217
10.0676	11.6615
10.0481	11.7281
10.0287	11.774
10.0093	11.7182
9.99005	11.6891
9.97084	11.8116
9.95169	11.8827
9.93263	11.961
9.91364	12.0634
9.89472	12.1882
9.87587	12.1747
9.8571	12.1924
9.83839	12.3641
9.81976	12.4573
9.80119	12.516
9.78271	12.3842
9.76428	12.428
9.74592	12.5882
9.72764	12.5752
9.70943	12.6303
9.69128	12.6071
9.6732	12.6097
9.65518	12.6285
9.63724	12.5532
9.61935	12.5353
9.60155	12.4974
9.5838	12.5552
9.56611	12.5467
9.5485	12.4728
9.53094	12.4321
9.51345	12.3592
9.49604	12.3483
9.47867	12.2957
9.46137	12.2762
9.44414	12.2226
9.42697	12.1908
9.40986	12.1432
9.39281	12.0334
9.37583	11.966
9.35891	11.9171
9.34204	11.7862
9.32524	11.6969
9.3085	11.7329
9.29182	11.8067
9.27519	11.7245
9.25863	11.5451
9.24213	11.4236
9.22568	11.1773
9.2093	10.9618
9.19297	10.9363
9.17669	10.8795
9.16048	10.7639
9.14433	10.5914
9.12823	10.442
9.11218	10.3725
9.0962	10.2631
9.08027	10.1748
9.06439	9.95554
9.04858	9.58975
9.03281	9.48036
9.0171	9.6066
9.00145	9.68744
8.98585	9.71408
8.9703	9.67059
8.9548	9.73023
8.93937	9.86883
8.92398	10.0247
8.90865	10.1894
8.89337	10.4331
8.87814	10.4822
8.86296	10.425
8.84784	10.4278
8.83277	10.6547
8.81774	10.8702
8.80277	10.8289
8.78786	10.8581
8.77298	10.9866
8.75816	11.054
8.7434	11.0197
8.72868	11.0526
8.714	11.1574
8.69938	11.1276
8.68481	11.1744
8.67029	11.3184
8.65581	11.4741
8.64139	11.6647
8.62701	11.7049
8.61268	11.7453
8.5984	11.8508
8.58416	11.9228
8.56997	12.0672
8.55583	12.171
8.54174	12.2892
8.52769	12.3478
8.51368	12.4742
8.49973	12.579
8.48582	12.5264
8.47195	12.6601
8.45813	12.8034
8.44436	12.8721
8.43062	13.0388
8.41693	13.0924
8.4033	13.1246
8.3897	13.2149
8.37614	13.4035
8.36264	13.6119
8.34917	13.7331
8.33574	13.8016
8.32236	13.8481
8.30903	13.8214
8.29573	13.921
8.28248	14.0974
8.26927	14.1655
8.2561	14.2215
8.24298	14.2724
8.2299	14.2827
8.21685	14.1995
8.20385	14.2729
8.19089	14.5251
8.17797	14.5894
8.16509	14.5638
8.15225	14.525
8.13946	14.5449
8.1267	14.694
8.11398	14.7278
8.10131	14.7949
8.08867	14.9386
8.07606	14.9161
8.0635	14.9071
8.05099	14.9669
8.0385	15.0552
8.02606	15.066
8.01366	15.0621
8.00129	15.0534
7.98896	15.039
7.97667	15.0156
7.96442	15.0852
7.9522	15.1236
7.94002	15.0654
7.92788	15.0235
7.91578	15.0786
7.90371	15.1419
7.89168	15.1018
7.87969	15.0165
7.86773	14.9448
7.85581	14.9528
7.84392	14.927
7.83207	14.9559
7.82026	14.9704
7.80849	14.9262
7.79674	14.7894
7.78503	14.6758
7.77337	14.6999
7.76173	14.6887
7.75012	14.5898
7.73856	14.567
7.72703	14.5468
7.71553	14.4781
7.70406	14.4614
7.69263	14.568
7.68123	14.6869
7.66987	14.7432
7.65855	14.7608
7.64725	14.783
7.63598	14.7955
7.62475	14.8793
7.61356	14.9888
7.60239	15.0548
7.59126	15.1347
7.58017	15.1669
7.5691	15.3179
7.55806	15.4692
7.54707	15.457
7.5361	15.4549
7.52516	15.6553
7.51425	15.7328
7.50338	15.7366
7.49253	15.8639
7.48172	16.0271
7.47094	16.1868
7.46019	16.2945
7.44947	16.3376
7.43879	16.4184
7.42813	16.4107
7.4175	16.4015
7.4069	16.4803
7.39634	16.6261
7.3858	16.6917
7.37529	16.7105
7.36482	16.7882
7.35437	16.8721
7.34396	16.9629
7.33357	16.9806
7.32321	16.9766
7.31288	17.0499
7.30258	17.0241
7.29231	16.9979
7.28207	17.0743
7.27185	17.1459
7.26167	17.1062
7.25152	17.1025
7.24139	17.1611
7.23129	17.2003
7.22122	17.1724
7.21117	17.3079
7.20116	17.4222
7.19117	17.431
7.18121	17.4468
7.17128	17.535
7.16137	17.4595
7.1515	17.49
7.14164	17.5498
7.13182	17.5005
7.12203	17.5455
7.11225	17.5561
7.10251	17.477
7.0928	17.4971
7.08311	17.5001
7.07344	17.5195
7.06381	17.5582
7.0542	17.7539
7.04461	17.9955
7.03506	17.7671
7.02552	17.5949
7.01601	17.6287
7.00653	17.6138
6.99708	17.5519
6.98765	17.5483
6.97824	17.6009
6.96886	17.7229
6.95951	17.8478
6.95018	17.6739
6.94087	17.6094
6.9316	17.6592
6.92234	17.6903
6.91311	17.7512
6.90391	17.7806
6.89473	17.6641
6.88557	17.6609
6.87644	17.7946
6.86733	18.1543
6.85824	18.1675
6.84918	17.8507
6.84015	17.7342
6.83114	17.866
6.82215	17.88
6.81319	17.7975
6.80424	17.9108
6.79532	18.1255
6.78643	18.1599
6.77756	18.0317
6.76871	17.9971
6.75989	17.9486
6.75109	17.9439
6.74231	17.9025
6.73355	17.9536
6.72482	18.0619
6.71611	18.1608
6.70742	18.1981
6.69875	18.0811
6.69011	18.1525
6.68149	18.3166
6.67289	18.2345
6.66431	18.0876
6.65576	17.9762
6.64722	18.2202
6.63871	18.7389
6.63022	18.6079
6.62175	18.32
6.61331	18.2827
6.60488	18.1959
6.59648	18.2813
6.5881	18.3692
6.57974	18.5314
6.5714	18.7104
6.56308	18.5166
6.55478	18.4543
6.54651	18.3898
6.53825	18.3384
6.53001	18.4131
6.5218	18.5416
6.51361	18.3219
6.50544	18.3692
6.49729	18.8451
6.48915	18.9139
6.48104	18.5302
6.47295	18.2826
6.46488	18.197
6.45683	18.1414
6.4488	18.1423
6.44079	18.2417
6.4328	18.4485
6.42482	18.6173
6.41687	18.9695
6.40894	18.8358
6.40103	18.3306
6.39314	18.1752
6.38526	18.1668
6.37741	18.2453
6.36957	18.333
6.36176	18.073
6.35396	18.0494
6.34618	18.3223
6.33843	18.1382
6.33069	17.798
6.32297	17.6797
6.31527	17.646
6.30758	17.6796
6.29992	17.6974
6.29227	17.655
6.28465	17.6051
6.27704	17.6064
6.26945	17.7311
6.26188	17.796
6.25432	17.6956
6.24679	17.5862
6.23927	17.504
6.23177	17.4914
6.22429	17.427
6.21683	17.309
6.20938	17.3282
6.20195	17.4235
6.19454	17.5794
6.18715	17.9489
6.17978	17.9132
6.17242	17.7612
6.16508	17.9731
6.15776	18.0652
6.15045	17.9713
6.14317	17.984
6.1359	17.9999
6.12864	18.0331
6.12141	18.1687
6.11419	18.4093
6.10699	18.3019
6.0998	18.0722
6.09263	18.0068
6.08549	18.0995
6.07835	18.3362
6.07123	18.4283
6.06413	18.3206
6.05705	18.5512
6.04998	19.1149
6.04293	18.7649
6.0359	18.2573
6.02888	18.1891
6.02187	18.2973
6.01489	18.4211
6.00792	18.3368
6.00096	18.3067
5.99403	18.5313
5.98711	18.5384
5.9802	18.3843
5.97331	18.5073
5.96644	18.5725
5.95958	18.3838
5.95274	18.4371
5.94591	18.5588
5.9391	18.8806
5.9323	18.7614
5.92552	18.4668
5.91876	18.5076
5.91201	18.4221
5.90528	18.4141
5.89856	18.8305
5.89186	18.8834
5.88517	18.9408
5.8785	19.0186
5.87184	18.618
5.8652	18.5907
5.85857	18.5969
5.85196	18.5681
5.84536	18.5449
5.83878	18.5909
5.83221	18.7373
5.82566	19.0443
5.81912	19.1157
5.81259	18.744
5.80608	18.5989
5.79959	18.5934
5.79311	18.5809
5.78665	18.6669
5.78019	18.673
5.77376	18.8093
5.76734	19.0709
5.76093	18.8495
5.75453	18.6512
5.74815	18.7309
5.74179	18.6996
5.73543	18.6587
5.7291	18.6391
5.72277	18.7462
5.71646	18.8357
5.71017	18.7757
5.70389	18.5883
5.69762	18.5596
5.69136	18.6464
5.68513	18.6178
5.6789	18.6757
5.67268	18.6584
5.66648	18.5605
5.6603	18.6407
5.65413	18.6675
5.64797	18.7477
5.64182	18.875
5.63569	18.7055
5.62957	18.5573
5.62347	18.5671
5.61737	18.6186
5.61129	18.5614
5.60522	18.496
5.59917	18.5012
5.59313	18.6072
5.5871	18.6805
5.58109	18.7368
5.57509	18.7035
5.5691	18.5982
5.56312	18.5624
5.55716	18.5663
5.55121	18.5547
5.54528	18.5095
5.53935	18.5356
5.53344	18.5561
5.52754	18.5803
5.52166	18.5255
5.51578	18.5056
5.50992	18.5335
5.50407	18.5389
5.49823	18.5579
5.49241	18.5709
5.4866	18.6004
5.4808	18.6276
5.47501	18.5862
5.46923	18.6108
5.46347	18.6326
5.45772	18.5353
5.45198	18.4973
5.44625	18.4925
5.44054	18.4966
5.43484	18.5275
5.42914	18.5962
5.42347	18.7002
5.4178	18.6843
5.41214	18.6341
5.4065	18.64
5.40087	18.614
5.39525	18.5639
5.38964	18.5018
5.38404	18.4234
5.37846	18.3996
5.37288	18.4584
5.36732	18.4458
5.36177	18.4326
5.35623	18.5739
5.35071	18.6903
5.34519	18.586
5.33968	18.5249
5.33419	18.5344
5.32871	18.549
5.32324	18.5605
5.31778	18.5249
5.31233	18.5245
5.30689	18.4923
5.30147	18.4627
5.29605	18.5093
5.29065	18.567
5.28525	18.5627
5.27987	18.5397
5.2745	18.5081
5.26914	18.5036
5.26379	18.5321
5.25845	18.5329
5.25312	18.5314
5.24781	18.5392
5.2425	18.5061
5.23721	18.5351
5.23192	18.5345
5.22665	18.5016
5.22138	18.4574
5.21613	18.4853
5.21089	18.5601
5.20566	18.4713
5.20044	18.3578
5.19522	18.3812
5.19002	18.4637
5.18483	18.4447
5.17965	18.4607
5.17448	18.5427
5.16933	18.5584
5.16418	18.474
5.15904	18.393
5.15391	18.4335
5.14879	18.4806
5.14368	18.4433
5.13859	18.4085
5.1335	18.4423
5.12842	18.4682
5.12335	18.4865
5.1183	18.5227
5.11325	18.5803
5.10821	18.5312
5.10318	18.4399
5.09817	18.4235
5.09316	18.4188
5.08816	18.4759
5.08317	18.5211
5.07819	18.5094
5.07322	18.4824
5.06826	18.4464
5.06331	18.4046
5.05837	18.4787
5.05344	18.5079
5.04852	18.4182
5.04361	18.4047
5.03871	18.4396
5.03382	18.4435
5.02894	18.4298
5.02406	18.3919
5.0192	18.3967
5.01435	18.3902
5.0095	18.3863
5.00467	18.4032
4.99984	18.4365
4.99502	18.4868
4.99021	18.4709
4.98542	18.4502
4.98063	18.4454
4.97585	18.4571
4.97108	18.4259
4.96632	18.3522
4.96156	18.3485
4.95682	18.3692
4.95209	18.3985
4.94736	18.4358
4.94264	18.4645
4.93794	18.3844
4.93324	18.3561
4.92855	18.4307
4.92387	18.4524
4.9192	18.3745
4.91453	18.3605
4.90988	18.339
4.90524	18.2843
4.9006	18.3253
4.89597	18.3571
4.89135	18.3662
4.88674	18.4046
4.88214	18.4169
4.87755	18.3958
4.87296	18.3506
4.86839	18.3302
4.86382	18.3569
4.85926	18.3732
4.85471	18.3724
4.85017	18.3957
4.84564	18.3288
4.84111	18.28
4.8366	18.3233
4.83209	18.3812
4.82759	18.3691
4.8231	18.3142
4.81862	18.3081
4.81415	18.3028
4.80968	18.3536
4.80522	18.344
4.80077	18.2701
4.79633	18.2499
4.7919	18.2909
4.78747	18.3292
4.78306	18.348
4.77865	18.2688
4.77425	18.2196
4.76986	18.263
4.76547	18.2707
4.7611	18.2822
4.75673	18.3021
4.75237	18.2956
4.74802	18.2691
4.74367	18.2693
4.73934	18.2701
4.73501	18.2497
4.73069	18.3208
4.72638	18.3792
4.72207	18.2693
4.71777	18.2166
4.71348	18.208
4.7092	18.2311
4.70493	18.2413
4.70066	18.2304
4.69641	18.271
4.69216	18.276
4.68791	18.2612
4.68368	18.1811
4.67945	18.2001
4.67523	18.2523
4.67102	18.1998
4.66682	18.1788
4.66262	18.2551
4.65843	18.2356
4.65425	18.2203
4.65007	18.2091
4.64591	18.1592
4.64175	18.1596
4.6376	18.2197
4.63345	18.2358
4.62932	18.234
4.62519	18.2047
4.62106	18.1818
4.61695	18.2023
4.61284	18.2104
4.60874	18.1694
4.60465	18.1672
4.60056	18.198
4.59648	18.1811
4.59241	18.1225
4.58835	18.1376
4.58429	18.1724
4.58024	18.1864
4.5762	18.2371
4.57216	18.2444
4.56814	18.1956
4.56411	18.224
4.5601	18.1982
4.55609	18.1556
4.55209	18.2386
4.5481	18.2524
4.54411	18.1522
4.54013	18.0887
4.53616	18.0443
4.5322	18.0961
4.52824	18.1755
4.52429	18.2156
4.52034	18.1866
4.51641	18.1338
4.51247	18.0872
4.50855	18.0727
4.50463	18.0901
4.50072	18.0563
4.49682	18.0493
4.49292	18.0589
4.48903	18.0365
4.48515	18.0756
4.48127	18.1764
4.4774	18.1763
4.47354	18.1224
4.46968	18.0905
4.46584	18.0757
4.46199	18.0788
4.45815	18.0773
4.45432	18.0607
4.4505	18.0228
4.44668	18.0376
4.44287	18.1003
4.43907	18.1157
4.43527	18.1167
4.43148	18.1026
4.4277	18.0787
4.42392	18.0741
4.42015	18.0313
4.41638	18.0095
4.41262	18.0104
4.40887	18.0429
4.40513	18.0248
4.40139	18.0146
4.39765	18.0331
4.39393	18.0341
4.39021	18.0554
4.38649	18.1128
4.38278	18.0978
4.37908	18.0982
4.37539	18.063
4.3717	17.9801
4.36801	17.9991
4.36434	18.0199
4.36067	18.0098
4.357	18.0381
4.35335	18.0391
4.34969	17.9943
4.34605	17.9682
4.34241	18.0248
4.33877	18.0292
4.33514	17.9588
4.33152	17.9797
4.32791	17.9904
4.3243	17.9857
4.32069	18.0253
4.3171	18.0875
4.31351	18.0641
4.30992	17.999
4.30634	17.9297
4.30277	17.9051
4.2992	17.9274
4.29564	17.9396
4.29208	17.8961
4.28853	17.9417
4.28499	17.9889
4.28145	17.9474
4.27792	17.8915
4.27439	17.9098
4.27087	17.9587
4.26735	17.9203
4.26384	17.8611
4.26034	17.8916
4.25684	17.9099
4.25335	17.9555
4.24986	17.9426
4.24638	17.8552
4.24291	17.8267
4.23944	17.9167
4.23598	17.9718
4.23252	17.9723
4.22906	18.0209
4.22562	17.9758
4.22218	17.9098
4.21874	17.8394
4.21531	17.8557
4.21189	17.9238
4.20847	17.9033
4.20506	17.8923
4.20165	17.8795
4.19825	17.8923
4.19485	17.8993
4.19146	17.8235
4.18807	17.7712
4.18469	17.8299
4.18132	17.8345
4.17795	17.848
4.17458	17.9394
4.17123	17.962
4.16787	17.8429
4.16453	17.7798
4.16118	17.8281
4.15785	17.8785
4.15451	17.9128
4.15119	17.957
4.14787	17.9654
4.14455	17.9255
4.14124	17.9103
4.13794	17.9301
4.13464	17.872
4.13134	17.8328
4.12805	17.8087
4.12477	17.8068
4.12149	17.7998
4.11822	17.7946
4.11495	17.7985
4.11168	17.8046
4.10843	17.8339
4.10517	17.8774
4.10192	17.8876
4.09868	17.8201
4.09545	17.7915
4.09221	17.8219
4.08899	17.8523
4.08576	17.894
4.08255	17.8855
4.07933	17.8619
4.07613	17.8256
4.07292	17.7594
4.06973	17.7145
4.06654	17.7325
4.06335	17.8045
4.06017	17.7964
4.05699	17.8146
4.05382	17.7578
4.05065	17.7073
4.04749	17.7739
4.04433	17.8234
4.04118	17.8381
4.03803	17.8047
4.03489	17.754
4.03175	17.7226
4.02862	17.7199
4.02549	17.663
4.02237	17.7023
4.01925	17.7097
4.01614	17.7118
4.01303	17.745
4.00993	17.7456
4.00683	17.7238
4.00373	17.7383
4.00064	17.7958
3.99756	17.7911
3.99448	17.7489
3.9914	17.7044
3.98833	17.6872
3.98527	17.6527
3.98221	17.6898
3.97915	17.7623
3.9761	17.7468
3.97305	17.7383
3.97001	17.7097
3.96697	17.629
3.96394	17.6655
3.96091	17.7082
3.95789	17.6347
3.95487	17.6751
3.95186	17.744
3.94885	17.7174
3.94584	17.6231
3.94284	17.587
3.93984	17.6517
3.93685	17.7195
3.93386	17.6554
3.93088	17.6316
3.9279	17.622
3.92493	17.5555
3.92196	17.6096
3.919	17.6802
3.91604	17.6318
3.91308	17.592
3.91013	17.5885
3.90718	17.5724
3.90424	17.5766
3.9013	17.6635
3.89837	17.6461
3.89544	17.5625
3.89252	17.5495
3.8896	17.5387
3.88668	17.4432
3.88377	17.4434
3.88086	17.5456
3.87796	17.525
3.87506	17.5082
3.87217	17.5284
3.86928	17.4878
3.86639	17.5332
3.86351	17.5805
3.86064	17.6069
3.85776	17.5606
3.8549	17.5163
3.85203	17.4999
3.84917	17.5107
3.84631	17.543
3.84346	17.5394
3.84062	17.4893
3.83777	17.4353
3.83494	17.4327
3.8321	17.4458
3.82927	17.4192
3.82644	17.4482
3.82362	17.5222
3.82081	17.5273
3.81799	17.4904
3.81518	17.4887
3.81238	17.5102
3.80958	17.5021
3.80678	17.4882
3.80399	17.5036
3.8012	17.5278
3.79841	17.5283
3.79563	17.4091
3.79286	17.2942
3.79008	17.2927
3.78731	17.3977
3.78455	17.4261
3.78179	17.4076
3.77903	17.2573
3.77628	17.2176
3.77353	17.3765
3.77079	17.4697
3.76805	17.4174
3.76531	17.3638
3.76258	17.4056
3.75985	17.3779
3.75713	17.3629
3.7544	17.3161
3.75169	17.3204
3.74898	17.3706
3.74627	17.3203
3.74356	17.31
3.74086	17.3669
3.73816	17.366
3.73547	17.3847
3.73278	17.358
3.7301	17.3548
3.72741	17.3529
3.72474	17.2457
3.72206	17.1966
3.71939	17.278
3.71673	17.3017
3.71406	17.2552
3.71141	17.2203
3.70875	17.2323
3.7061	17.2128
3.70345	17.2137
3.70081	17.2013
3.69817	17.1764
3.69553	17.1772
3.6929	17.1566
3.69027	17.1204
3.68765	17.1734
3.68503	17.2154
3.68241	17.2086
3.6798	17.2525
3.67719	17.2866
3.67458	17.2773
3.67198	17.3192
3.66938	17.2111
3.66678	17.0424
3.66419	17.0318
3.66161	17.16
3.65902	17.1615
3.65644	17.0729
3.65387	17.0569
3.65129	17.1122
3.64872	17.138
3.64616	17.1423
3.64359	17.1234
3.64103	17.0265
3.63848	17.0279
3.63593	17.1168
3.63338	17.0743
3.63084	17.0335
3.6283	17.0818
3.62576	17.0012
3.62322	16.8856
3.62069	16.936
3.61817	17.0335
3.61564	17.095
3.61312	17.1204
3.61061	17.0599
3.6081	17.0179
3.60559	16.9951
3.60308	16.9647
3.60058	16.9322
3.59808	16.9123
3.59558	16.9536
3.59309	16.9757
3.59061	16.9688
3.58812	16.9613
3.58564	16.9709
3.58316	16.9597
3.58069	16.9488
3.57822	16.9278
3.57575	16.9089
3.57328	16.9329
3.57082	16.9295
3.56836	16.9282
3.56591	17.001
3.56346	16.9065
3.56101	16.8008
3.55857	16.8252
3.55613	16.8711
3.55369	16.8927
3.55126	16.8962
3.54883	16.8303
3.5464	16.8576
3.54397	16.8922
3.54155	16.8575
3.53914	16.8661
3.53672	16.8112
3.53431	16.8008
3.5319	16.8063
3.5295	16.8391
3.5271	16.9116
3.5247	16.8592
3.52231	16.7589
3.51991	16.7776
3.51753	16.7902
3.51514	16.7263
3.51276	16.7251
3.51038	16.7289
3.50801	16.7171
3.50563	16.7203
3.50327	16.7362
3.5009	16.7456
3.49854	16.7901
3.49618	16.7802
3.49382	16.6984
3.49147	16.673
3.48912	16.5998
3.48677	16.5718
3.48443	16.6209
3.48209	16.7487
3.47975	16.7964
3.47742	16.801
3.47509	16.6913
3.47276	16.5275
3.47044	16.5341
3.46812	16.6354
3.4658	16.5885
3.46348	16.54
