Name: Phyllite
Type: Rock
Class: Metamorphic
Subclass:  Phyllite 
Particle Size: Solid surface
Sample No.: Ward85.txt
Owner: JPL
Wavelength range:  VNIR SWIR IR 
Origin: Ward's Collection of American Rocks.  Sample locality - Woodbridge, Connecticut.  Collected by - JPL.
Collected by:  Ward's Natural Science
Description: A fine-grained, gray, lustrous schistose rock.





Measurement: Hemispherical reflectance
First Column: X
Second Column: Y
X Units: Wavelength (micrometers)
Y Units: Reflectance (percent)
First X Value: 2.500
Last X Value: 0.400
Number of X Values: 2101
Additional information: None

2.500  15.529790
2.499  15.501853
2.498  15.423980
2.497  15.931498
2.496  15.096756
2.495  15.806658
2.494  15.522777
2.493  15.702320
2.492  15.560623
2.491  15.786979
2.490  15.318525
2.489  15.827693
2.488  15.635297
2.487  15.750266
2.486  15.489784
2.485  15.955595
2.484  15.717314
2.483  15.874117
2.482  15.680697
2.481  15.909575
2.480  15.892887
2.479  15.753377
2.478  15.921016
2.477  16.079049
2.476  15.825952
2.475  16.227077
2.474  15.873912
2.473  16.260836
2.472  16.202036
2.471  16.134586
2.470  16.091326
2.469  16.154281
2.468  16.140641
2.467  16.410889
2.466  16.202612
2.465  16.395989
2.464  16.270074
2.463  16.444442
2.462  16.320220
2.461  16.535138
2.460  16.333943
2.459  16.425724
2.458  16.395632
2.457  16.471866
2.456  16.544554
2.455  16.629283
2.454  16.515022
2.453  16.633785
2.452  16.469537
2.451  16.599346
2.450  16.622553
2.449  16.632563
2.448  16.591256
2.447  16.759678
2.446  16.597588
2.445  16.785997
2.444  16.726308
2.443  16.724430
2.442  16.704053
2.441  16.807496
2.440  16.729160
2.439  16.813214
2.438  16.760377
2.437  16.844358
2.436  16.823153
2.435  16.908113
2.434  16.903519
2.433  16.997180
2.432  16.867653
2.431  16.915455
2.430  16.940134
2.429  17.016667
2.428  17.050124
2.427  17.150709
2.426  17.125407
2.425  17.144200
2.424  17.127807
2.423  17.209619
2.422  17.113514
2.421  17.199294
2.420  17.049339
2.419  17.167643
2.418  17.187011
2.417  17.187142
2.416  17.182963
2.415  17.252008
2.414  17.184993
2.413  17.292039
2.412  17.179405
2.411  17.337256
2.410  17.189435
2.409  17.298227
2.408  17.243898
2.407  17.287041
2.406  17.262691
2.405  17.323986
2.404  17.274847
2.403  17.338387
2.402  17.208230
2.401  17.265510
2.400  17.243153
2.399  17.227504
2.398  17.152109
2.397  17.200901
2.396  17.156026
2.395  17.169231
2.394  17.101093
2.393  17.146797
2.392  17.136688
2.391  17.092375
2.390  17.031938
2.389  17.009263
2.388  16.922967
2.387  16.884787
2.386  16.849110
2.385  16.833183
2.384  16.692069
2.383  16.640533
2.382  16.572552
2.381  16.572444
2.380  16.446117
2.379  16.394327
2.378  16.318876
2.377  16.249894
2.376  16.111936
2.375  16.049509
2.374  15.957418
2.373  15.844059
2.372  15.697934
2.371  15.572343
2.370  15.521792
2.369  15.431115
2.368  15.350115
2.367  15.275639
2.366  15.180576
2.365  15.114416
2.364  14.973928
2.363  14.871711
2.362  14.789820
2.361  14.784436
2.360  14.695603
2.359  14.620372
2.358  14.560746
2.357  14.482449
2.356  14.428532
2.355  14.400543
2.354  14.329271
2.353  14.229894
2.352  14.247896
2.351  14.192554
2.350  14.197516
2.349  14.179171
2.348  14.097579
2.347  14.119573
2.346  14.167703
2.345  14.120385
2.344  14.147500
2.343  14.126179
2.342  14.161430
2.341  14.193561
2.340  14.208724
2.339  14.278925
2.338  14.321571
2.337  14.370288
2.336  14.420962
2.335  14.440897
2.334  14.556504
2.333  14.639891
2.332  14.722106
2.331  14.769776
2.330  14.849932
2.329  14.878667
2.328  14.994496
2.327  15.036937
2.326  15.127707
2.325  15.225689
2.324  15.317113
2.323  15.369536
2.322  15.458349
2.321  15.528434
2.320  15.680011
2.319  15.726990
2.318  15.887930
2.317  15.897435
2.316  16.017616
2.315  16.040928
2.314  16.128395
2.313  16.211016
2.312  16.339439
2.311  16.392863
2.310  16.539268
2.309  16.545271
2.308  16.678341
2.307  16.717488
2.306  16.848131
2.305  16.925017
2.304  17.017329
2.303  17.099260
2.302  17.259393
2.301  17.315594
2.300  17.428204
2.299  17.452302
2.298  17.599160
2.297  17.658804
2.296  17.726943
2.295  17.833423
2.294  17.975640
2.293  17.956837
2.292  18.058513
2.291  18.092959
2.290  18.199530
2.289  18.184577
2.288  18.360321
2.287  18.361300
2.286  18.386002
2.285  18.390121
2.284  18.442537
2.283  18.450348
2.282  18.424604
2.281  18.356950
2.280  18.503397
2.279  18.381723
2.278  18.416720
2.277  18.333523
2.276  18.338036
2.275  18.300520
2.274  18.234404
2.273  18.198578
2.272  18.101742
2.271  17.971304
2.270  17.951394
2.269  17.799807
2.268  17.751488
2.267  17.570323
2.266  17.538337
2.265  17.405096
2.264  17.327303
2.263  17.162576
2.262  17.091644
2.261  16.948651
2.260  16.946603
2.259  16.841282
2.258  16.874742
2.257  16.662360
2.256  16.762324
2.255  16.668955
2.254  16.738293
2.253  16.774735
2.252  16.892861
2.251  16.841695
2.250  17.022400
2.249  17.140990
2.248  17.288790
2.247  17.412607
2.246  17.575493
2.245  17.740433
2.244  18.005199
2.243  18.077212
2.242  18.308289
2.241  18.500805
2.240  18.782857
2.239  18.834946
2.238  19.050352
2.237  19.159203
2.236  19.380158
2.235  19.393367
2.234  19.528067
2.233  19.603705
2.232  19.723587
2.231  19.512679
2.230  19.718489
2.229  19.592330
2.228  19.657512
2.227  19.392687
2.226  19.547906
2.225  19.388346
2.224  19.330364
2.223  19.241251
2.222  19.320973
2.221  19.078736
2.220  19.285478
2.219  19.006767
2.218  19.078620
2.217  19.037545
2.216  19.064745
2.215  19.170386
2.214  19.156341
2.213  19.141845
2.212  19.336605
2.211  19.207114
2.210  19.590899
2.209  19.542335
2.208  19.849661
2.207  19.900077
2.206  20.173882
2.205  20.260357
2.204  20.503446
2.203  20.568275
2.202  20.984349
2.201  21.073186
2.200  21.398614
2.199  21.547399
2.198  21.909004
2.197  22.045049
2.196  22.383640
2.195  22.549374
2.194  22.925332
2.193  23.128892
2.192  23.447748
2.191  23.614046
2.190  23.997734
2.189  24.188923
2.188  24.494645
2.187  24.738214
2.186  25.000949
2.185  25.203210
2.184  25.444851
2.183  25.577777
2.182  25.901180
2.181  25.969936
2.180  26.261552
2.179  26.282565
2.178  26.460833
2.177  26.702920
2.176  26.813594
2.175  26.851123
2.174  27.066115
2.173  27.121492
2.172  27.285494
2.171  27.342413
2.170  27.464835
2.169  27.422949
2.168  27.600608
2.167  27.610418
2.166  27.796127
2.165  27.803120
2.164  27.809392
2.163  27.810980
2.162  27.993352
2.161  27.973235
2.160  28.061516
2.159  28.071051
2.158  28.100445
2.157  28.089478
2.156  28.219245
2.155  28.129733
2.154  28.207478
2.153  28.219468
2.152  28.287580
2.151  28.208621
2.150  28.282779
2.149  28.317268
2.148  28.333743
2.147  28.246792
2.146  28.290798
2.145  28.296985
2.144  28.295114
2.143  28.287358
2.142  28.334504
2.141  28.295872
2.140  28.346738
2.139  28.249692
2.138  28.264393
2.137  28.185442
2.136  28.231037
2.135  28.218524
2.134  28.199726
2.133  28.103471
2.132  28.150586
2.131  28.113215
2.130  28.112565
2.129  28.036256
2.128  28.069665
2.127  28.033638
2.126  28.027853
2.125  27.939800
2.124  27.935425
2.123  27.929079
2.122  27.995452
2.121  28.030176
2.120  27.985007
2.119  27.911274
2.118  27.994138
2.117  28.000592
2.116  28.047028
2.115  28.038743
2.114  28.043844
2.113  28.063876
2.112  28.142687
2.111  28.139442
2.110  28.212804
2.109  28.214869
2.108  28.273903
2.107  28.285121
2.106  28.360348
2.105  28.337058
2.104  28.381856
2.103  28.466740
2.102  28.478943
2.101  28.527764
2.100  28.589695
2.099  28.593670
2.098  28.683354
2.097  28.670709
2.096  28.709576
2.095  28.720338
2.094  28.795116
2.093  28.804529
2.092  28.861909
2.091  28.938323
2.090  28.947865
2.089  28.913332
2.088  28.942426
2.087  28.950322
2.086  28.985071
2.085  28.979424
2.084  29.030991
2.083  28.986290
2.082  28.953428
2.081  29.004988
2.080  29.047843
2.079  29.026458
2.078  29.027047
2.077  29.005873
2.076  28.990667
2.075  28.911350
2.074  28.911820
2.073  28.983634
2.072  28.979223
2.071  28.936004
2.070  28.910288
2.069  28.853815
2.068  28.839164
2.067  28.849821
2.066  28.871221
2.065  28.821778
2.064  28.727446
2.063  28.775755
2.062  28.740429
2.061  28.653492
2.060  28.652205
2.059  28.660945
2.058  28.570841
2.057  28.523337
2.056  28.518177
2.055  28.485236
2.054  28.422014
2.053  28.396533
2.052  28.351390
2.051  28.275749
2.050  28.229079
2.049  28.186623
2.048  28.142791
2.047  28.102471
2.046  28.041757
2.045  27.971426
2.044  27.884942
2.043  27.861651
2.042  27.767696
2.041  27.713612
2.040  27.638656
2.039  27.579502
2.038  27.506111
2.037  27.487651
2.036  27.382493
2.035  27.290921
2.034  27.171922
2.033  27.128263
2.032  27.022092
2.031  26.926504
2.030  26.870635
2.029  26.827659
2.028  26.711523
2.027  26.624793
2.026  26.529912
2.025  26.503560
2.024  26.417756
2.023  26.347503
2.022  26.238770
2.021  26.158290
2.020  26.078672
2.019  26.097537
2.018  25.950325
2.017  25.929796
2.016  25.857222
2.015  25.840767
2.014  25.831203
2.013  25.731830
2.012  25.675056
2.011  25.675771
2.010  25.670201
2.009  25.647943
2.008  25.610366
2.007  25.627916
2.006  25.492798
2.005  25.514161
2.004  25.467538
2.003  25.485711
2.002  25.452928
2.001  25.491947
2.000  25.388276
1.999  25.456471
1.998  25.413277
1.997  25.480495
1.996  25.414297
1.995  25.493235
1.994  25.448476
1.993  25.517625
1.992  25.477089
1.991  25.573593
1.990  25.551158
1.989  25.651229
1.988  25.634173
1.987  25.711051
1.986  25.670507
1.985  25.744813
1.984  25.721953
1.983  25.839599
1.982  25.825575
1.981  25.869582
1.980  25.873556
1.979  25.979183
1.978  25.973022
1.977  26.029674
1.976  26.053854
1.975  26.077023
1.974  26.006436
1.973  26.118328
1.972  26.090460
1.971  26.133208
1.970  26.105044
1.969  26.195283
1.968  26.080475
1.967  26.158348
1.966  26.152352
1.965  26.188800
1.964  26.150148
1.963  26.171616
1.962  26.070609
1.961  26.185670
1.960  26.143323
1.959  26.231823
1.958  26.112260
1.957  26.203266
1.956  26.118362
1.955  26.255935
1.954  26.105049
1.953  26.256116
1.952  26.245350
1.951  26.267445
1.950  26.206064
1.949  26.295591
1.948  26.272940
1.947  26.314641
1.946  26.299130
1.945  26.384307
1.944  26.386000
1.943  26.409350
1.942  26.367086
1.941  26.497871
1.940  26.465676
1.939  26.535876
1.938  26.445102
1.937  26.544674
1.936  26.492074
1.935  26.522158
1.934  26.483908
1.933  26.500662
1.932  26.455621
1.931  26.546089
1.930  26.535534
1.929  26.546232
1.928  26.538042
1.927  26.677384
1.926  26.315324
1.925  26.605711
1.924  26.427706
1.923  26.495685
1.922  26.470710
1.921  26.559452
1.920  26.384646
1.919  26.499071
1.918  26.451749
1.917  26.520647
1.916  26.409602
1.915  26.560850
1.914  26.542326
1.913  26.521757
1.912  26.409132
1.911  26.521197
1.910  26.454752
1.909  26.548607
1.908  26.409075
1.907  26.438311
1.906  26.441977
1.905  26.522373
1.904  26.398702
1.903  26.604795
1.902  26.531059
1.901  26.620449
1.900  26.511986
1.899  26.480897
1.898  26.585779
1.897  26.572327
1.896  26.569657
1.895  26.636148
1.894  26.486300
1.893  26.696331
1.892  26.627812
1.891  26.689439
1.890  26.640310
1.889  26.692347
1.888  26.733657
1.887  26.726025
1.886  26.760637
1.885  26.766828
1.884  26.697716
1.883  26.752677
1.882  26.734557
1.881  26.814390
1.880  26.788433
1.879  26.776215
1.878  26.787563
1.877  26.919851
1.876  26.908048
1.875  26.976929
1.874  26.861903
1.873  26.935038
1.872  26.899996
1.871  27.007877
1.870  26.977491
1.869  27.109848
1.868  27.092396
1.867  27.108849
1.866  27.120147
1.865  27.175461
1.864  27.184096
1.863  27.190292
1.862  27.153816
1.861  27.235537
1.860  27.197359
1.859  27.205467
1.858  27.169150
1.857  27.259525
1.856  27.245696
1.855  27.221755
1.854  27.238324
1.853  27.250632
1.852  27.227032
1.851  27.312598
1.850  27.328126
1.849  27.406125
1.848  27.353863
1.847  27.336548
1.846  27.321196
1.845  27.383315
1.844  27.360779
1.843  27.385930
1.842  27.355807
1.841  27.359694
1.840  27.291113
1.839  27.391522
1.838  27.377418
1.837  27.373606
1.836  27.329128
1.835  27.360646
1.834  27.328886
1.833  27.408113
1.832  27.333403
1.831  27.348836
1.830  27.314851
1.829  27.349218
1.828  27.377853
1.827  27.402859
1.826  27.313326
1.825  27.358179
1.824  27.330525
1.823  27.300337
1.822  27.262504
1.821  27.258757
1.820  27.203809
1.819  27.227374
1.818  27.209099
1.817  27.281247
1.816  27.186587
1.815  27.189222
1.814  27.224885
1.813  27.177146
1.812  27.126310
1.811  27.160855
1.810  27.128815
1.809  27.152184
1.808  27.131409
1.807  27.151624
1.806  27.131257
1.805  27.079133
1.804  27.064880
1.803  27.100807
1.802  27.023596
1.801  26.978891
1.800  26.974289
1.799  26.970634
1.798  26.979697
1.797  27.008822
1.796  26.968005
1.795  26.877278
1.794  26.856465
1.793  26.908890
1.792  26.875311
1.791  26.793624
1.790  26.825609
1.789  26.826835
1.788  26.774318
1.787  26.769702
1.786  26.762402
1.785  26.724696
1.784  26.690533
1.783  26.705127
1.782  26.691554
1.781  26.619116
1.780  26.579702
1.779  26.557997
1.778  26.530677
1.777  26.488819
1.776  26.508675
1.775  26.483203
1.774  26.439482
1.773  26.373850
1.772  26.373202
1.771  26.380078
1.770  26.385711
1.769  26.374940
1.768  26.346593
1.767  26.297939
1.766  26.250158
1.765  26.173302
1.764  26.155691
1.763  26.162521
1.762  26.163272
1.761  26.144862
1.760  26.118471
1.759  26.045599
1.758  26.079044
1.757  26.063294
1.756  25.984453
1.755  25.947336
1.754  25.997952
1.753  25.959130
1.752  25.991985
1.751  25.886189
1.750  25.894634
1.749  25.844234
1.748  25.825978
1.747  25.838929
1.746  25.858370
1.745  25.788248
1.744  25.741722
1.743  25.736850
1.742  25.714591
1.741  25.673849
1.740  25.663523
1.739  25.596938
1.738  25.592734
1.737  25.536832
1.736  25.528443
1.735  25.489717
1.734  25.533596
1.733  25.418864
1.732  25.458016
1.731  25.422507
1.730  25.355623
1.729  25.368359
1.728  25.337205
1.727  25.272057
1.726  25.254133
1.725  25.240667
1.724  25.278992
1.723  25.176336
1.722  25.203261
1.721  25.127091
1.720  25.083924
1.719  25.064873
1.718  25.092176
1.717  24.970039
1.716  25.035084
1.715  24.935246
1.714  24.993241
1.713  24.886735
1.712  24.908579
1.711  24.829920
1.710  24.839552
1.709  24.738534
1.708  24.742006
1.707  24.716217
1.706  24.730072
1.705  24.667032
1.704  24.655118
1.703  24.535881
1.702  24.588353
1.701  24.486397
1.700  24.501263
1.699  24.410147
1.698  24.429516
1.697  24.427096
1.696  24.387191
1.695  24.357938
1.694  24.375819
1.693  24.240377
1.692  24.297036
1.691  24.209574
1.690  24.204694
1.689  24.118733
1.688  24.182717
1.687  24.056086
1.686  24.150885
1.685  24.018766
1.684  23.950589
1.683  23.945855
1.682  23.938097
1.681  23.906696
1.680  23.910731
1.679  23.834872
1.678  23.794223
1.677  23.766672
1.676  23.891234
1.675  23.684919
1.674  23.713036
1.673  23.624389
1.672  23.712452
1.671  23.512714
1.670  23.593854
1.669  23.642080
1.668  23.350077
1.667  23.492368
1.666  23.457696
1.665  23.445248
1.664  23.379122
1.663  23.313825
1.662  23.348239
1.661  23.160155
1.660  23.308417
1.659  23.223916
1.658  23.269434
1.657  23.091876
1.656  23.168880
1.655  22.974800
1.654  23.061901
1.653  22.896560
1.652  23.032023
1.651  22.862691
1.650  23.044629
1.649  22.810924
1.648  22.900472
1.647  22.764642
1.646  22.898052
1.645  22.705589
1.644  22.772047
1.643  22.749428
1.642  22.806306
1.641  22.399884
1.640  22.715919
1.639  22.502275
1.638  22.497994
1.637  22.457682
1.636  22.397368
1.635  22.422639
1.634  22.460066
1.633  22.301443
1.632  22.410796
1.631  22.268781
1.630  22.314204
1.629  22.162850
1.628  22.223910
1.627  22.127713
1.626  22.115691
1.625  22.102540
1.624  22.118265
1.623  21.946722
1.622  22.009242
1.621  21.908258
1.620  22.006111
1.619  21.811564
1.618  21.839512
1.617  21.835717
1.616  21.837954
1.615  21.737322
1.614  21.693720
1.613  21.646002
1.612  21.676429
1.611  21.521555
1.610  21.562964
1.609  21.519886
1.608  21.593385
1.607  21.473817
1.606  21.484266
1.605  21.410370
1.604  21.444963
1.603  21.320532
1.602  21.333367
1.601  21.265288
1.600  21.313751
1.599  21.204930
1.598  21.186823
1.597  21.122493
1.596  21.185143
1.595  21.100149
1.594  21.172611
1.593  20.999767
1.592  20.996080
1.591  20.909099
1.590  20.918613
1.589  20.892558
1.588  20.836241
1.587  20.810127
1.586  20.885445
1.585  20.814384
1.584  20.743379
1.583  20.713876
1.582  20.707561
1.581  20.582645
1.580  20.576896
1.579  20.631302
1.578  20.574788
1.577  20.459997
1.576  20.485130
1.575  20.470870
1.574  20.454699
1.573  20.400155
1.572  20.431886
1.571  20.360123
1.570  20.314180
1.569  20.234565
1.568  20.310197
1.567  20.231617
1.566  20.281315
1.565  20.211707
1.564  20.157715
1.563  20.141058
1.562  20.126808
1.561  20.078827
1.560  20.092680
1.559  20.033960
1.558  20.030111
1.557  19.979977
1.556  19.992338
1.555  19.907055
1.554  19.916376
1.553  19.826932
1.552  19.849594
1.551  19.852676
1.550  19.835380
1.549  19.867078
1.548  19.774914
1.547  19.677090
1.546  19.742705
1.545  19.702075
1.544  19.662713
1.543  19.658485
1.542  19.704341
1.541  19.637827
1.540  19.636319
1.539  19.569112
1.538  19.545021
1.537  19.496345
1.536  19.496317
1.535  19.448704
1.534  19.458313
1.533  19.491914
1.532  19.477526
1.531  19.401015
1.530  19.425430
1.529  19.396173
1.528  19.392064
1.527  19.322278
1.526  19.326034
1.525  19.279439
1.524  19.311910
1.523  19.322742
1.522  19.252349
1.521  19.223940
1.520  19.183334
1.519  19.200239
1.518  19.233847
1.517  19.159251
1.516  19.141621
1.515  19.163574
1.514  19.196063
1.513  19.133726
1.512  19.136091
1.511  19.051154
1.510  19.057017
1.509  19.075713
1.508  19.012508
1.507  18.978134
1.506  19.010607
1.505  18.972296
1.504  18.913181
1.503  18.892471
1.502  18.896275
1.501  18.891252
1.500  18.845526
1.499  18.797313
1.498  18.806923
1.497  18.822522
1.496  18.769364
1.495  18.740221
1.494  18.713173
1.493  18.683278
1.492  18.627193
1.491  18.659705
1.490  18.657264
1.489  18.591107
1.488  18.557040
1.487  18.537711
1.486  18.511572
1.485  18.509632
1.484  18.516587
1.483  18.465753
1.482  18.418611
1.481  18.394764
1.480  18.321365
1.479  18.361696
1.478  18.328223
1.477  18.347998
1.476  18.301335
1.475  18.307360
1.474  18.255314
1.473  18.209802
1.472  18.198278
1.471  18.166692
1.470  18.103421
1.469  18.102913
1.468  18.084003
1.467  18.031431
1.466  17.974067
1.465  17.980189
1.464  17.880488
1.463  17.902559
1.462  17.902427
1.461  17.890437
1.460  17.833471
1.459  17.833045
1.458  17.742635
1.457  17.713942
1.456  17.704820
1.455  17.656897
1.454  17.647224
1.453  17.741475
1.452  17.631205
1.451  17.543264
1.450  17.557818
1.449  17.541363
1.448  17.506742
1.447  17.536011
1.446  17.460696
1.445  17.515050
1.444  17.431982
1.443  17.456741
1.442  17.425699
1.441  17.431259
1.440  17.358053
1.439  17.386632
1.438  17.260451
1.437  17.279009
1.436  17.251379
1.435  17.290106
1.434  17.241050
1.433  17.147861
1.432  17.121681
1.431  17.146762
1.430  17.081031
1.429  16.987231
1.428  16.976532
1.427  16.993813
1.426  16.828368
