Name: Quartz Conglomerate
Type: Rock
Class: Sedimentary
Subclass:  Conglomerate 
Particle Size: Solid surface
Sample No.: Ward48.txt
Owner: JPL
Wavelength range:  VNIR SWIR IR
Origin: Ward's Collection of American Rocks.  Sample locality - Nanticoke, Luzerne County, Pennsylvania.
Collected by:  Ward's Natural Science
Description: The gray hand specimen consists of subangular to rounde
pebbles of milky quartz of varying size with coarser sand grains filling
the interstices between the large pebbles.  The cement is silica.
Geologic age - Pennsylvanian.


Measurement: Hemispherical reflectance
First Column: X
Second Column: Y
X Units: Wavelength (micrometers)
Y Units: Reflectance (percent)
First X Value: 2.500
Last X Value: 0.400
Number of X Values: 2101
Additional information: None

2.500  21.891695
2.499  21.570430
2.498  21.932028
2.497  21.982817
2.496  21.773439
2.495  22.010240
2.494  22.091974
2.493  21.783729
2.492  22.156468
2.491  21.801918
2.490  22.212875
2.489  22.035900
2.488  22.175863
2.487  22.010323
2.486  22.187541
2.485  22.107921
2.484  22.250872
2.483  22.313495
2.482  22.441150
2.481  22.221417
2.480  22.429230
2.479  22.394708
2.478  22.497364
2.477  22.654613
2.476  22.790497
2.475  22.497536
2.474  22.827972
2.473  22.715328
2.472  22.892639
2.471  22.683397
2.470  22.903219
2.469  22.837337
2.468  23.144265
2.467  23.004140
2.466  23.190600
2.465  23.095531
2.464  23.386389
2.463  23.163734
2.462  23.348002
2.461  23.277283
2.460  23.494491
2.459  23.356116
2.458  23.537658
2.457  23.419789
2.456  23.550254
2.455  23.529061
2.454  23.581539
2.453  23.569022
2.452  23.669425
2.451  23.665218
2.450  23.801174
2.449  23.680607
2.448  23.875418
2.447  23.723367
2.446  23.854685
2.445  23.838489
2.444  23.844940
2.443  23.888169
2.442  23.914852
2.441  23.846109
2.440  24.044896
2.439  24.021490
2.438  24.106077
2.437  24.155855
2.436  24.240539
2.435  24.161993
2.434  24.209409
2.433  24.292036
2.432  24.541844
2.431  24.390648
2.430  24.623844
2.429  24.567443
2.428  24.671198
2.427  24.609810
2.426  24.790176
2.425  24.935369
2.424  25.102134
2.423  25.009409
2.422  25.130801
2.421  25.203179
2.420  25.292418
2.419  25.318359
2.418  25.416959
2.417  25.400575
2.416  25.512313
2.415  25.547268
2.414  25.643320
2.413  25.635731
2.412  25.676476
2.411  25.749253
2.410  25.862828
2.409  25.876461
2.408  25.924080
2.407  25.861722
2.406  25.911815
2.405  25.985131
2.404  26.047830
2.403  26.030359
2.402  26.080938
2.401  26.119941
2.400  26.221493
2.399  26.120097
2.398  26.166400
2.397  26.124624
2.396  26.153202
2.395  26.150664
2.394  26.114686
2.393  26.034026
2.392  26.164211
2.391  26.096140
2.390  26.044563
2.389  26.002903
2.388  25.980373
2.387  25.912956
2.386  26.035005
2.385  25.964242
2.384  25.972103
2.383  25.976146
2.382  26.024223
2.381  25.937836
2.380  25.977038
2.379  26.033726
2.378  26.043931
2.377  26.010016
2.376  26.093186
2.375  26.166228
2.374  26.229200
2.373  26.303014
2.372  26.340983
2.371  26.390450
2.370  26.459644
2.369  26.545736
2.368  26.678318
2.367  26.706432
2.366  26.792047
2.365  26.877071
2.364  26.945046
2.363  26.993852
2.362  26.985321
2.361  27.109218
2.360  27.230841
2.359  27.233098
2.358  27.225659
2.357  27.225422
2.356  27.278269
2.355  27.297289
2.354  27.338163
2.353  27.386789
2.352  27.409223
2.351  27.392724
2.350  27.349388
2.349  27.440830
2.348  27.540466
2.347  27.608154
2.346  27.575137
2.345  27.621844
2.344  27.679879
2.343  27.742038
2.342  27.817313
2.341  27.950793
2.340  28.020515
2.339  28.076848
2.338  28.150949
2.337  28.219761
2.336  28.297123
2.335  28.432252
2.334  28.438818
2.333  28.455778
2.332  28.559413
2.331  28.647022
2.330  28.674556
2.329  28.798125
2.328  28.799860
2.327  28.835964
2.326  28.883432
2.325  28.942079
2.324  28.936553
2.323  28.978278
2.322  28.994683
2.321  29.060864
2.320  29.129378
2.319  29.150705
2.318  29.125142
2.317  29.135822
2.316  29.233822
2.315  29.335719
2.314  29.269812
2.313  29.346361
2.312  29.323760
2.311  29.318210
2.310  29.315421
2.309  29.442195
2.308  29.483463
2.307  29.481416
2.306  29.408502
2.305  29.469752
2.304  29.468051
2.303  29.583842
2.302  29.547719
2.301  29.609003
2.300  29.651286
2.299  29.769680
2.298  29.727647
2.297  29.884642
2.296  29.827823
2.295  29.881265
2.294  30.012465
2.293  30.182821
2.292  30.231288
2.291  30.320078
2.290  30.327670
2.289  30.554114
2.288  30.577206
2.287  30.725986
2.286  30.814872
2.285  31.007451
2.284  31.011798
2.283  31.222056
2.282  31.262064
2.281  31.394086
2.280  31.458370
2.279  31.640562
2.278  31.672987
2.277  31.766483
2.276  31.851586
2.275  31.968745
2.274  32.025494
2.273  32.073607
2.272  32.117461
2.271  32.196563
2.270  32.193769
2.269  32.285281
2.268  32.324119
2.267  32.394819
2.266  32.329719
2.265  32.375080
2.264  32.294347
2.263  32.400354
2.262  32.323307
2.261  32.371554
2.260  32.339811
2.259  32.384400
2.258  32.386957
2.257  32.474273
2.256  32.352267
2.255  32.439288
2.254  32.361367
2.253  32.556193
2.252  32.575692
2.251  32.618394
2.250  32.581852
2.249  32.827373
2.248  32.674141
2.247  32.888580
2.246  32.864263
2.245  33.086200
2.244  33.027220
2.243  33.190104
2.242  33.203768
2.241  33.312714
2.240  33.225887
2.239  33.307274
2.238  33.318558
2.237  33.370305
2.236  33.391560
2.235  33.375395
2.234  33.301626
2.233  33.393887
2.232  33.260229
2.231  33.267506
2.230  33.072073
2.229  33.038472
2.228  32.881920
2.227  32.739450
2.226  32.594996
2.225  32.414776
2.224  32.156446
2.223  32.066623
2.222  31.714117
2.221  31.580445
2.220  31.224693
2.219  30.986030
2.218  30.462984
2.217  30.327356
2.216  29.905936
2.215  29.592668
2.214  29.184192
2.213  28.971592
2.212  28.568270
2.211  28.139909
2.210  27.941855
2.209  27.632113
2.208  27.351802
2.207  27.193551
2.206  26.991258
2.205  27.013611
2.204  26.964197
2.203  27.075754
2.202  27.158260
2.201  27.487559
2.200  27.632204
2.199  27.991725
2.198  28.141923
2.197  28.473132
2.196  28.558005
2.195  28.880655
2.194  28.870732
2.193  29.084000
2.192  28.969593
2.191  29.015301
2.190  28.842737
2.189  28.839293
2.188  28.681992
2.187  28.557367
2.186  28.354299
2.185  28.376549
2.184  28.072259
2.183  28.026388
2.182  27.916889
2.181  27.861691
2.180  27.751901
2.179  27.728350
2.178  27.716182
2.177  27.815362
2.176  27.696955
2.175  27.908105
2.174  27.896131
2.173  28.071614
2.172  28.154897
2.171  28.344655
2.170  28.407216
2.169  28.714255
2.168  28.862958
2.167  29.068406
2.166  29.247523
2.165  29.557487
2.164  29.748389
2.163  30.041412
2.162  30.257087
2.161  30.550523
2.160  30.809035
2.159  31.130049
2.158  31.309103
2.157  31.620487
2.156  31.791283
2.155  32.080773
2.154  32.254793
2.153  32.513191
2.152  32.666808
2.151  32.801891
2.150  32.915932
2.149  33.128092
2.148  33.141352
2.147  33.273016
2.146  33.352957
2.145  33.444037
2.144  33.539850
2.143  33.656257
2.142  33.718635
2.141  33.829889
2.140  33.897299
2.139  34.055437
2.138  34.183182
2.137  34.341394
2.136  34.386897
2.135  34.556100
2.134  34.569541
2.133  34.688670
2.132  34.784936
2.131  34.924904
2.130  34.992203
2.129  35.097512
2.128  35.105184
2.127  35.226822
2.126  35.317910
2.125  35.325130
2.124  35.272339
2.123  35.420854
2.122  35.371685
2.121  35.352177
2.120  35.323523
2.119  35.322441
2.118  35.208459
2.117  35.183966
2.116  35.115372
2.115  35.101599
2.114  35.033881
2.113  35.055915
2.112  34.913155
2.111  34.938186
2.110  34.975065
2.109  34.999899
2.108  34.983931
2.107  35.036408
2.106  35.085228
2.105  35.147137
2.104  35.136083
2.103  35.210741
2.102  35.237448
2.101  35.236549
2.100  35.259687
2.099  35.297927
2.098  35.262469
2.097  35.335591
2.096  35.302187
2.095  35.316904
2.094  35.348195
2.093  35.368619
2.092  35.417175
2.091  35.429208
2.090  35.395815
2.089  35.410598
2.088  35.411807
2.087  35.469066
2.086  35.479426
2.085  35.548595
2.084  35.586964
2.083  35.580717
2.082  35.618555
2.081  35.650221
2.080  35.630742
2.079  35.644471
2.078  35.651438
2.077  35.659996
2.076  35.653184
2.075  35.682948
2.074  35.737133
2.073  35.778239
2.072  35.761223
2.071  35.751281
2.070  35.732358
2.069  35.704301
2.068  35.706773
2.067  35.735597
2.066  35.769703
2.065  35.768703
2.064  35.756934
2.063  35.728366
2.062  35.777675
2.061  35.756884
2.060  35.745866
2.059  35.687802
2.058  35.625798
2.057  35.679431
2.056  35.661167
2.055  35.585809
2.054  35.617914
2.053  35.658335
2.052  35.675456
2.051  35.663760
2.050  35.677498
2.049  35.637668
2.048  35.680028
2.047  35.648108
2.046  35.638614
2.045  35.596502
2.044  35.626516
2.043  35.616781
2.042  35.623234
2.041  35.575119
2.040  35.555982
2.039  35.483055
2.038  35.492079
2.037  35.478549
2.036  35.454801
2.035  35.378246
2.034  35.444671
2.033  35.385604
2.032  35.303684
2.031  35.241949
2.030  35.273004
2.029  35.208453
2.028  35.158304
2.027  35.078002
2.026  35.061690
2.025  35.028201
2.024  35.001790
2.023  34.948458
2.022  34.879741
2.021  34.857281
2.020  34.804387
2.019  34.695732
2.018  34.705162
2.017  34.633197
2.016  34.576976
2.015  34.510628
2.014  34.496876
2.013  34.394015
2.012  34.402685
2.011  34.372030
2.010  34.273523
2.009  34.245478
2.008  34.250657
2.007  34.129404
2.006  34.149176
2.005  34.099362
2.004  34.030060
2.003  33.914689
2.002  33.900881
2.001  33.801141
2.000  33.841709
1.999  33.655047
1.998  33.607423
1.997  33.489092
1.996  33.532007
1.995  33.434416
1.994  33.353743
1.993  33.234522
1.992  33.207933
1.991  33.117579
1.990  33.175253
1.989  33.059785
1.988  33.045067
1.987  32.894236
1.986  32.955426
1.985  32.783556
1.984  32.772377
1.983  32.666061
1.982  32.661948
1.981  32.536989
1.980  32.405500
1.979  32.360896
1.978  32.327376
1.977  32.240208
1.976  32.197518
1.975  32.087580
1.974  32.078832
1.973  31.896071
1.972  31.924441
1.971  31.783612
1.970  31.876069
1.969  31.738569
1.968  31.712557
1.967  31.562821
1.966  31.700914
1.965  31.485346
1.964  31.440108
1.963  31.355340
1.962  31.393854
1.961  31.318415
1.960  31.227988
1.959  31.146728
1.958  31.179681
1.957  31.001268
1.956  31.049258
1.955  30.873680
1.954  30.924210
1.953  30.918823
1.952  30.800398
1.951  30.717518
1.950  30.744774
1.949  30.672271
1.948  30.745471
1.947  30.669237
1.946  30.626657
1.945  30.436587
1.944  30.554615
1.943  30.418984
1.942  30.590189
1.941  30.358174
1.940  30.395793
1.939  30.408632
1.938  30.412567
1.937  30.335481
1.936  30.391496
1.935  30.205441
1.934  30.359732
1.933  30.210780
1.932  30.334784
1.931  30.169607
1.930  30.225300
1.929  30.070110
1.928  30.220588
1.927  30.184221
1.926  30.021278
1.925  30.178599
1.924  30.160598
1.923  30.087995
1.922  30.177916
1.921  30.001949
1.920  30.170231
1.919  30.087564
1.918  30.099407
1.917  30.031415
1.916  30.229368
1.915  30.125857
1.914  30.289855
1.913  30.217319
1.912  30.378831
1.911  30.295520
1.910  30.584853
1.909  30.541682
1.908  30.753404
1.907  30.874720
1.906  31.087638
1.905  31.247718
1.904  31.554177
1.903  31.703836
1.902  32.099107
1.901  32.243647
1.900  32.669272
1.899  32.967905
1.898  33.394111
1.897  33.768324
1.896  34.227929
1.895  34.522021
1.894  35.068847
1.893  35.411512
1.892  35.858727
1.891  36.280092
1.890  36.719374
1.889  37.016808
1.888  37.502929
1.887  37.795733
1.886  38.303394
1.885  38.562137
1.884  38.880036
1.883  39.192147
1.882  39.529517
1.881  39.763224
1.880  40.094172
1.879  40.399150
1.878  40.741583
1.877  40.851774
1.876  41.236128
1.875  41.351530
1.874  41.585107
1.873  41.742336
1.872  41.930480
1.871  42.052792
1.870  42.188362
1.869  42.227128
1.868  42.392763
1.867  42.421640
1.866  42.644026
1.865  42.735782
1.864  42.941802
1.863  42.938173
1.862  43.109700
1.861  43.133714
1.860  43.310304
1.859  43.319309
1.858  43.354146
1.857  43.454950
1.856  43.430379
1.855  43.408287
1.854  43.519728
1.853  43.521893
1.852  43.587259
1.851  43.596174
1.850  43.646066
1.849  43.518857
1.848  43.520952
1.847  43.463196
1.846  43.527409
1.845  43.461704
1.844  43.437081
1.843  43.504264
1.842  43.564549
1.841  43.483891
1.840  43.517657
1.839  43.406060
1.838  43.453677
1.837  43.374778
1.836  43.387577
1.835  43.406197
1.834  43.389039
1.833  43.394031
1.832  43.444066
1.831  43.396761
1.830  43.409475
1.829  43.405650
1.828  43.423028
1.827  43.377481
1.826  43.344700
1.825  43.339677
1.824  43.474878
1.823  43.435967
1.822  43.453941
1.821  43.465591
1.820  43.457351
1.819  43.490615
1.818  43.567984
1.817  43.566119
1.816  43.611788
1.815  43.608071
1.814  43.585108
1.813  43.544145
1.812  43.615816
1.811  43.565234
1.810  43.551853
1.809  43.501350
1.808  43.472696
1.807  43.483097
1.806  43.548173
1.805  43.494749
1.804  43.457928
1.803  43.523524
1.802  43.510829
1.801  43.508065
1.800  43.513152
1.799  43.502664
1.798  43.577480
1.797  43.625012
1.796  43.643773
1.795  43.619206
1.794  43.687642
1.793  43.747658
1.792  43.773077
1.791  43.816259
1.790  43.857746
1.789  43.849457
1.788  43.908220
1.787  43.944482
1.786  43.975666
1.785  43.969104
1.784  44.019123
1.783  44.078006
1.782  44.100703
1.781  44.133307
1.780  44.102155
1.779  44.149061
1.778  44.172097
1.777  44.203965
1.776  44.265316
1.775  44.309279
1.774  44.293674
1.773  44.333189
1.772  44.381697
1.771  44.442597
1.770  44.447792
1.769  44.425010
1.768  44.467712
1.767  44.506455
1.766  44.525609
1.765  44.551707
1.764  44.523536
1.763  44.623156
1.762  44.700451
1.761  44.663459
1.760  44.632218
1.759  44.708143
1.758  44.756506
1.757  44.750145
1.756  44.710282
1.755  44.804196
1.754  44.806560
1.753  44.826804
1.752  44.866786
1.751  44.886287
1.750  44.879084
1.749  44.901621
1.748  44.899963
1.747  44.916136
1.746  44.918791
1.745  44.992872
1.744  44.939977
1.743  44.945375
1.742  45.022873
1.741  45.017914
1.740  45.060798
1.739  45.113579
1.738  45.086650
1.737  45.123730
1.736  45.105265
1.735  45.179839
1.734  45.226472
1.733  45.230326
1.732  45.182167
1.731  45.222176
1.730  45.204560
1.729  45.317468
1.728  45.271792
1.727  45.326153
1.726  45.283436
1.725  45.338791
1.724  45.305686
1.723  45.360500
1.722  45.363485
1.721  45.413872
1.720  45.358702
1.719  45.456229
1.718  45.372651
1.717  45.417597
1.716  45.411737
1.715  45.434966
1.714  45.428216
1.713  45.451649
1.712  45.407071
1.711  45.449370
1.710  45.486569
1.709  45.448892
1.708  45.389837
1.707  45.452705
1.706  45.414684
1.705  45.476352
1.704  45.470658
1.703  45.468564
1.702  45.489194
1.701  45.491306
1.700  45.477337
1.699  45.526558
1.698  45.439926
1.697  45.489390
1.696  45.490104
1.695  45.476897
1.694  45.546406
1.693  45.552952
1.692  45.436927
1.691  45.538873
1.690  45.505774
1.689  45.552902
1.688  45.520993
1.687  45.490744
1.686  45.520688
1.685  45.558803
1.684  45.500811
1.683  45.476317
1.682  45.526341
1.681  45.544886
1.680  45.499650
1.679  45.522417
1.678  45.559066
1.677  45.464276
1.676  45.516979
1.675  45.573869
1.674  45.590521
1.673  45.528765
1.672  45.514636
1.671  45.528528
1.670  45.419842
1.669  45.558947
1.668  45.416411
1.667  45.583061
1.666  45.454482
1.665  45.560192
1.664  45.495358
1.663  45.498593
1.662  45.509451
1.661  45.552180
1.660  45.514769
1.659  45.485911
1.658  45.440612
1.657  45.517109
1.656  45.452571
1.655  45.545568
1.654  45.495005
1.653  45.498888
1.652  45.517657
1.651  45.557541
1.650  45.336972
1.649  45.522662
1.648  45.431996
1.647  45.500665
1.646  45.478619
1.645  45.407020
1.644  45.512159
1.643  45.571277
1.642  45.428211
1.641  45.398637
1.640  45.465686
1.639  45.496618
1.638  45.367487
1.637  45.447523
1.636  45.364276
1.635  45.526304
1.634  45.430512
1.633  45.554167
1.632  45.458358
1.631  45.510930
1.630  45.368999
1.629  45.492386
1.628  45.414134
1.627  45.473205
1.626  45.384241
1.625  45.402458
1.624  45.360851
1.623  45.475621
1.622  45.373733
1.621  45.428906
1.620  45.357308
1.619  45.421765
1.618  45.369529
1.617  45.375833
1.616  45.294048
1.615  45.421217
1.614  45.357682
1.613  45.412644
1.612  45.275109
1.611  45.344173
1.610  45.326519
1.609  45.273186
1.608  45.272714
1.607  45.332477
1.606  45.320248
1.605  45.327967
1.604  45.254265
1.603  45.305889
1.602  45.253758
1.601  45.308084
1.600  45.314585
1.599  45.188992
1.598  45.174403
1.597  45.243085
1.596  45.164238
1.595  45.242458
1.594  45.124299
1.593  45.187336
1.592  45.111885
1.591  45.090875
1.590  45.086773
1.589  45.138596
1.588  45.106606
1.587  45.006457
1.586  44.961248
1.585  45.112683
1.584  44.942022
1.583  45.010782
1.582  44.976507
1.581  44.907629
1.580  44.911383
1.579  44.951571
1.578  44.946052
1.577  44.979333
1.576  44.918016
1.575  44.870804
1.574  44.837152
1.573  44.809468
1.572  44.759307
1.571  44.806929
1.570  44.706136
1.569  44.743141
1.568  44.672679
1.567  44.721703
1.566  44.728238
1.565  44.662157
1.564  44.613145
1.563  44.627402
1.562  44.571422
1.561  44.580306
1.560  44.590016
1.559  44.540188
1.558  44.416361
1.557  44.432177
1.556  44.468290
1.555  44.527514
1.554  44.423295
1.553  44.428491
1.552  44.380111
1.551  44.356838
1.550  44.335218
1.549  44.290379
1.548  44.264625
1.547  44.285324
1.546  44.231141
1.545  44.217802
1.544  44.165532
1.543  44.165377
1.542  44.114262
1.541  44.053390
1.540  44.066967
1.539  44.086170
1.538  44.041939
1.537  44.039056
1.536  43.988268
1.535  43.952857
1.534  43.897419
1.533  43.897275
1.532  43.896700
1.531  43.861002
1.530  43.796673
1.529  43.786113
1.528  43.722884
1.527  43.726684
1.526  43.664019
1.525  43.615074
1.524  43.568644
1.523  43.607168
1.522  43.543366
1.521  43.542177
1.520  43.504044
1.519  43.487728
1.518  43.417067
1.517  43.409860
1.516  43.354379
1.515  43.316680
1.514  43.282209
1.513  43.209268
1.512  43.201882
1.511  43.221768
1.510  43.106478
1.509  43.020197
1.508  42.995377
1.507  42.950139
1.506  42.932397
1.505  42.931647
1.504  42.881811
1.503  42.854763
1.502  42.791872
1.501  42.737902
1.500  42.722510
1.499  42.710444
1.498  42.650512
1.497  42.573696
1.496  42.448294
1.495  42.410112
1.494  42.453865
1.493  42.413147
1.492  42.366937
1.491  42.282071
1.490  42.244089
1.489  42.232437
1.488  42.219638
1.487  42.159549
1.486  42.110202
1.485  42.052361
1.484  42.002100
1.483  41.924453
1.482  41.932885
1.481  41.852542
1.480  41.817253
1.479  41.726097
1.478  41.670142
1.477  41.666546
1.476  41.625338
1.475  41.574747
1.474  41.540082
1.473  41.448311
1.472  41.377507
1.471  41.340804
1.470  41.345466
1.469  41.251135
1.468  41.285234
1.467  41.260499
1.466  41.178135
1.465  41.159593
1.464  41.142512
1.463  41.118774
1.462  41.100651
1.461  41.111020
1.460  41.108484
1.459  41.036002
1.458  41.087906
1.457  41.061856
1.456  40.991550
1.455  40.929122
1.454  40.989931
1.453  40.940344
1.452  40.807169
1.451  40.771722
1.450  40.801091
1.449  40.748305
1.448  40.766214
1.447  40.705219
1.446  40.697484
1.445  40.599869
1.444  40.615573
1.443  40.638666
1.442  40.602266
1.441  40.526978
1.440  40.565413
1.439  40.500919
1.438  40.533439
1.437  40.371519
1.436  40.347333
