Name: Olivine Basalt Porphyry
Type: Rock
Class: Igneous
Subclass:  Mafic 
Particle Size: Solid surface
Sample No.: Ward36.txt
Owner: JPL
Wavelength range:  IR 
Origin: Ward's Collection of American Rocks.  Sample locality - Valmont, Boulder county, Colorado.
Collected by:  Ward's Natural Science
Description: A black, fine-grained, porphyritic rock with phenocrysts of
augite and olivine in a fine crystalline groundmass.
Geologic Age - Tertiary (Eocene).



Measurement: Hemispherical reflectance
First Column: X
Second Column: Y
X Units: Wavelength (micrometers)
Y Units: Reflectance (percent)
First X Value: 15.3871
Last X Value: 1.9998
Number of X Values: 2257
Additional information: None

15.3871   4.41119
15.3416   4.38461
15.2964   3.88102
15.2514   3.40337
15.2066   3.19731
15.1622   3.31185
15.1180   3.42572
15.0740   3.09310
15.0303   2.26851
14.9869   2.36180
14.9437   3.00859
14.9008   3.25057
14.8581   3.58700
14.8156   3.52989
14.7734   3.78222
14.7314   3.88408
14.6897   3.61231
14.6482   4.13032
14.6069   4.02269
14.5659   3.98563
14.5251   4.69115
14.4845   4.19305
14.4442   3.88307
14.4041   4.30816
14.3642   3.93675
14.3245   3.72155
14.2850   3.80156
14.2458   3.64245
14.2068   3.80341
14.1679   4.21742
14.1293   3.99360
14.0909   3.91441
14.0528   4.04522
14.0148   4.05215
13.9770   4.06153
13.9394   4.26359
13.9021   4.50118
13.8649   4.46493
13.8279   4.07887
13.7911   4.02878
13.7546   3.99402
13.7182   3.47470
13.6820   3.17011
13.6460   3.75109
13.6101   4.43530
13.5745   4.62080
13.5391   4.69012
13.5038   4.59226
13.4687   4.27650
13.4339   4.23145
13.3991   4.19785
13.3646   4.29700
13.3302   4.18753
13.2961   3.96998
13.2621   3.69741
13.2282   3.90570
13.1946   4.13964
13.1611   4.06305
13.1278   3.94041
13.0946   4.19934
13.0616   4.18575
13.0288   4.10706
12.9962   3.96888
12.9637   3.72304
12.9313   3.59102
12.8992   4.17181
12.8672   4.63526
12.8353   4.50653
12.8036   4.59285
12.7721   4.65744
12.7407   4.23443
12.7095   4.11062
12.6784   3.92646
12.6475   3.80699
12.6167   4.02750
12.5861   4.32817
12.5556   4.31156
12.5253   4.39966
12.4951   4.80216
12.4651   4.81121
12.4352   4.71258
12.4054   4.91701
12.3758   5.02232
12.3463   4.82188
12.3170   4.86585
12.2878   5.19078
12.2588   5.32419
12.2299   5.37970
12.2011   5.20605
12.1725   5.56202
12.1439   5.83327
12.1156   5.85516
12.0873   6.05742
12.0592   6.36322
12.0312   6.27860
12.0034   5.82393
11.9757   6.02857
11.9481   6.44762
11.9206   6.47726
11.8933   6.38935
11.8661   6.27833
11.8390   6.42213
11.8120   6.78451
11.7852   6.90628
11.7584   7.03995
11.7318   7.09270
11.7053   7.12825
11.6790   7.55542
11.6527   7.78661
11.6266   7.50358
11.6006   7.76989
11.5747   8.34913
11.5489   8.54035
11.5233   8.33805
11.4977   8.22946
11.4723   8.09681
11.4469   8.20000
11.4217   8.61935
11.3966   8.86862
11.3716   8.86135
11.3468   8.98705
11.3220   9.33074
11.2973   9.66158
11.2728   9.69277
11.2483   9.91290
11.2240   9.86359
11.1997   9.89718
11.1756   9.99524
11.1515  10.03480
11.1276  10.07260
11.1038   9.96828
11.0801   9.57091
11.0564  10.00430
11.0329  10.75120
11.0095  10.64920
10.9862  10.70120
10.9629  10.86070
10.9398  10.91670
10.9168  10.90210
10.8938  10.88180
10.8710  10.54770
10.8483  10.70920
10.8256  11.26910
10.8031  11.40790
10.7806  11.50900
10.7582  11.67470
10.7360  11.40960
10.7138  11.43640
10.6917  11.67250
10.6697  11.53340
10.6478  11.52130
10.6260  11.97940
10.6042  12.15580
10.5826  12.15800
10.5610  12.07300
10.5396  11.75140
10.5182  11.84190
10.4969  11.95400
10.4757  12.38410
10.4546  12.84000
10.4335  12.87780
10.4126  12.92690
10.3917  13.16970
10.3709  13.30560
10.3502  13.15820
10.3296  13.35570
10.3091  13.49170
10.2886  13.66050
10.2683  13.99000
10.2480  14.06310
10.2277  14.24510
10.2076  14.64850
10.1876  14.73650
10.1676  14.76170
10.1477  14.85750
10.1279  14.80390
10.1081  15.10160
10.0885  15.75820
10.0689  16.05850
10.0494  16.01030
10.0299  16.08790
10.0106  16.60620
 9.9913  16.94010
 9.9720  16.87210
 9.9529  16.97100
 9.9338  17.26270
 9.9148  17.64610
 9.8959  17.75690
 9.8771  17.78060
 9.8583  18.00020
 9.8396  17.84100
 9.8210  17.89770
 9.8024  18.01180
 9.7839  17.88370
 9.7655  18.23770
 9.7471  18.48580
 9.7288  18.21380
 9.7106  18.62440
 9.6925  19.02350
 9.6744  19.07090
 9.6564  18.84090
 9.6384  18.90230
 9.6205  18.72360
 9.6027  18.60940
 9.5850  19.26260
 9.5673  19.69240
 9.5497  19.39040
 9.5321  19.09840
 9.5146  18.94630
 9.4972  18.99520
 9.4798  18.78610
 9.4625  18.77110
 9.4453  18.66170
 9.4281  18.34010
 9.4110  18.00720
 9.3940  17.59540
 9.3770  17.37140
 9.3600  16.97700
 9.3432  16.31410
 9.3264  16.13160
 9.3096  16.19120
 9.2930  15.67090
 9.2763  15.16510
 9.2598  14.85180
 9.2432  14.77410
 9.2268  14.98880
 9.2104  14.96240
 9.1941  14.56730
 9.1778  14.41360
 9.1616  14.18830
 9.1454  14.07550
 9.1293  14.13140
 9.1133  14.11700
 9.0973  13.83520
 9.0814  13.89480
 9.0655  14.10210
 9.0497  13.81160
 9.0339  13.59400
 9.0182  13.42790
 9.0025  13.36200
 8.9870  13.31840
 8.9714  13.32800
 8.9559  13.21960
 8.9405  13.02400
 8.9251  12.74410
 8.9097  12.61620
 8.8945  12.28410
 8.8792  12.18220
 8.8641  12.47420
 8.8489  12.42450
 8.8338  12.42670
 8.8188  12.35470
 8.8039  12.21180
 8.7889  12.26550
 8.7741  12.34700
 8.7592  12.35700
 8.7445  12.23120
 8.7297  12.00730
 8.7151  11.94310
 8.7005  12.25660
 8.6859  12.32630
 8.6714  11.80050
 8.6569  11.52640
 8.6425  11.57700
 8.6281  11.36520
 8.6137  11.07890
 8.5994  11.10550
 8.5852  11.11290
 8.5710  10.85180
 8.5569  10.92260
 8.5428  10.62610
 8.5287  10.25360
 8.5147  10.05110
 8.5008   9.96108
 8.4869   9.73816
 8.4730   9.46531
 8.4592   9.33363
 8.4454   9.39490
 8.4316   9.36163
 8.4180   9.13704
 8.4043   8.80241
 8.3907   8.42872
 8.3772   8.10119
 8.3637   8.15163
 8.3502   8.12258
 8.3368   7.69507
 8.3234   6.89428
 8.3100   6.36279
 8.2967   6.28735
 8.2835   6.07976
 8.2703   5.95689
 8.2571   5.57792
 8.2440   4.74443
 8.2309   4.19842
 8.2179   3.95637
 8.2049   3.70946
 8.1919   3.58643
 8.1790   3.51113
 8.1661   3.10978
 8.1532   2.86120
 8.1404   2.71230
 8.1277   2.74441
 8.1150   2.63588
 8.1023   2.55341
 8.0897   2.74796
 8.0770   2.91615
 8.0645   2.47720
 8.0520   2.04369
 8.0395   2.04697
 8.0270   1.96990
 8.0146   1.76428
 8.0023   1.60170
 7.9899   1.77711
 7.9776   2.10147
 7.9654   2.00578
 7.9532   2.05066
 7.9410   1.96336
 7.9288   1.99589
 7.9167   2.20920
 7.9047   2.19660
 7.8926   1.93526
 7.8807   1.73426
 7.8687   1.74085
 7.8568   1.91052
 7.8449   1.86997
 7.8330   1.72654
 7.8212   1.77554
 7.8094   1.82227
 7.7977   1.67593
 7.7860   1.70192
 7.7743   1.89928
 7.7627   1.77069
 7.7511   1.67833
 7.7395   1.86047
 7.7280   1.90509
 7.7165   1.72071
 7.7050   1.71970
 7.6936   1.74069
 7.6822   1.76222
 7.6708   1.77768
 7.6595   1.69459
 7.6482   1.68635
 7.6369   1.75383
 7.6257   1.81803
 7.6145   1.92679
 7.6033   1.87912
 7.5922   1.76021
 7.5811   1.76693
 7.5700   1.76230
 7.5590   1.89370
 7.5480   2.08852
 7.5370   2.07876
 7.5261   1.86388
 7.5152   1.89575
 7.5043   2.18725
 7.4935   2.26135
 7.4826   2.14501
 7.4718   1.96584
 7.4611   1.99052
 7.4504   2.09606
 7.4397   2.11537
 7.4290   2.21158
 7.4184   2.07204
 7.4078   2.06425
 7.3972   2.12797
 7.3867   2.13228
 7.3762   2.06616
 7.3657   1.81803
 7.3553   1.84656
 7.3449   2.00842
 7.3345   2.16112
 7.3241   2.13479
 7.3138   2.14858
 7.3035   2.24920
 7.2932   2.30054
 7.2830   2.28712
 7.2727   2.10537
 7.2626   2.25792
 7.2524   2.39019
 7.2423   2.28918
 7.2322   2.25108
 7.2221   2.44638
 7.2120   2.64810
 7.2020   2.76382
 7.1921   2.45869
 7.1821   2.03500
 7.1722   2.28931
 7.1623   2.49573
 7.1524   2.27782
 7.1425   2.39542
 7.1327   2.74556
 7.1229   2.85327
 7.1131   2.90371
 7.1034   2.88443
 7.0937   2.86997
 7.0840   2.57620
 7.0743   2.35420
 7.0647   2.52603
 7.0551   2.62777
 7.0455   2.69493
 7.0359   2.76569
 7.0264   2.83662
 7.0169   2.54635
 7.0074   2.38170
 6.9979   2.62846
 6.9885   2.56616
 6.9791   2.69677
 6.9697   2.66652
 6.9604   2.59763
 6.9510   2.79235
 6.9417   2.69364
 6.9324   2.81145
 6.9232   2.96514
 6.9140   2.85092
 6.9047   2.58709
 6.8956   2.54646
 6.8864   2.61343
 6.8773   2.86934
 6.8682   3.02936
 6.8591   3.00385
 6.8500   2.82964
 6.8410   2.90075
 6.8320   3.10021
 6.8230   3.01681
 6.8140   2.87611
 6.8051   2.70499
 6.7962   2.75289
 6.7873   2.91376
 6.7784   2.84515
 6.7695   2.85138
 6.7607   2.91453
 6.7519   2.83160
 6.7431   2.85118
 6.7344   3.12584
 6.7256   3.10153
 6.7169   2.84892
 6.7082   2.88592
 6.6996   2.96572
 6.6909   3.04177
 6.6823   3.11150
 6.6737   3.04161
 6.6651   2.82253
 6.6566   2.69158
 6.6480   2.83934
 6.6395   3.07675
 6.6310   3.15491
 6.6226   2.99671
 6.6141   2.87740
 6.6057   3.03123
 6.5973   3.11209
 6.5889   3.07929
 6.5805   3.06635
 6.5722   3.13103
 6.5639   3.17949
 6.5556   3.05718
 6.5473   2.93779
 6.5390   2.94388
 6.5308   3.08725
 6.5226   2.96293
 6.5144   2.83520
 6.5062   3.08261
 6.4981   3.26938
 6.4900   3.14781
 6.4818   2.89289
 6.4737   2.99421
 6.4657   3.06030
 6.4576   2.91258
 6.4496   2.90397
 6.4416   2.90554
 6.4336   3.00686
 6.4256   3.19642
 6.4177   3.45788
 6.4097   3.35445
 6.4018   3.11256
 6.3939   3.00563
 6.3860   2.96248
 6.3782   2.97316
 6.3704   3.18969
 6.3625   3.25948
 6.3547   3.12395
 6.3470   2.85949
 6.3392   2.84497
 6.3315   3.11050
 6.3237   3.39623
 6.3160   3.47823
 6.3083   3.17764
 6.3007   3.01800
 6.2930   3.15761
 6.2854   3.27598
 6.2778   3.24734
 6.2702   3.21125
 6.2626   3.34884
 6.2551   3.25220
 6.2476   3.28277
 6.2400   3.22023
 6.2325   3.07954
 6.2251   2.99523
 6.2176   2.97266
 6.2101   3.06756
 6.2027   3.15852
 6.1953   3.21106
 6.1879   3.14373
 6.1805   2.99173
 6.1732   2.90559
 6.1658   3.04349
 6.1585   3.23565
 6.1512   3.17434
 6.1439   2.90779
 6.1367   2.97850
 6.1294   3.14705
 6.1222   3.10684
 6.1149   3.14704
 6.1077   3.03816
 6.1006   2.92572
 6.0934   3.02349
 6.0862   3.12804
 6.0791   3.15541
 6.0720   3.05419
 6.0649   3.04564
 6.0578   2.75153
 6.0507   2.61418
 6.0437   3.00199
 6.0366   3.08862
 6.0296   3.22846
 6.0226   3.22935
 6.0156   3.55447
 6.0087   3.60174
 6.0017   3.30153
 5.9948   3.26336
 5.9878   3.37779
 5.9809   3.46920
 5.9740   3.50960
 5.9672   3.29322
 5.9603   3.07146
 5.9535   3.07565
 5.9466   3.18251
 5.9398   3.27090
 5.9330   3.22960
 5.9262   3.22552
 5.9195   3.31864
 5.9127   3.37809
 5.9060   3.42015
 5.8993   3.47094
 5.8926   3.34489
 5.8859   3.29087
 5.8792   3.60876
 5.8726   3.75763
 5.8659   3.49624
 5.8593   3.59120
 5.8527   3.79247
 5.8461   3.43771
 5.8395   3.35910
 5.8329   3.58193
 5.8264   3.61167
 5.8198   3.43515
 5.8133   3.58465
 5.8068   3.73208
 5.8003   3.55935
 5.7938   3.54993
 5.7874   3.64641
 5.7809   3.74585
 5.7745   3.82636
 5.7680   3.75809
 5.7616   3.62614
 5.7552   3.76557
 5.7489   3.89341
 5.7425   3.78423
 5.7361   3.88825
 5.7298   3.84173
 5.7235   3.69178
 5.7172   3.78891
 5.7109   4.02679
 5.7046   3.91097
 5.6983   3.79269
 5.6921   3.86861
 5.6858   3.86021
 5.6796   3.87249
 5.6734   3.75062
 5.6672   3.64956
 5.6610   3.74924
 5.6548   3.91175
 5.6487   3.94908
 5.6425   3.86396
 5.6364   3.81340
 5.6303   3.98824
 5.6242   3.85320
 5.6181   3.83475
 5.6120   4.07325
 5.6059   4.25632
 5.5999   4.26972
 5.5938   4.11432
 5.5878   4.04494
 5.5818   3.96589
 5.5758   4.07324
 5.5698   4.04804
 5.5638   3.77730
 5.5578   3.91715
 5.5519   4.18527
 5.5460   4.14904
 5.5400   4.06601
 5.5341   4.08715
 5.5282   4.12355
 5.5223   4.02564
 5.5164   3.95791
 5.5106   4.02544
 5.5047   4.16686
 5.4989   4.26636
 5.4931   4.32388
 5.4873   4.26734
 5.4815   4.07245
 5.4757   3.85746
 5.4699   3.91270
 5.4641   4.12450
 5.4584   4.21607
 5.4527   4.29037
 5.4469   4.27709
 5.4412   4.27473
 5.4355   4.38003
 5.4298   4.41115
 5.4241   4.36450
 5.4185   4.12867
 5.4128   3.92886
 5.4072   3.96275
 5.4015   4.18607
 5.3959   4.39626
 5.3903   4.42850
 5.3847   4.42330
 5.3791   4.42882
 5.3735   4.53106
 5.3680   4.33552
 5.3624   4.04716
 5.3569   4.24713
 5.3514   4.52083
 5.3458   4.56002
 5.3403   4.46801
 5.3348   4.54689
 5.3294   4.65634
 5.3239   4.54813
 5.3184   4.49374
 5.3130   4.48353
 5.3075   4.54896
 5.3021   4.55987
 5.2967   4.61334
 5.2913   4.53338
 5.2859   4.45440
 5.2805   4.64927
 5.2751   4.63168
 5.2698   4.59228
 5.2644   4.63615
 5.2591   4.63855
 5.2538   4.44331
 5.2485   4.44003
 5.2431   4.47445
 5.2378   4.54334
 5.2326   4.61255
 5.2273   4.78897
 5.2220   5.00812
 5.2168   4.87937
 5.2115   4.66576
 5.2063   4.70430
 5.2011   4.66068
 5.1959   4.75114
 5.1907   5.01184
 5.1855   4.86704
 5.1803   4.78500
 5.1751   4.93189
 5.1700   4.90444
 5.1648   4.87678
 5.1597   4.90828
 5.1545   5.02558
 5.1494   5.04877
 5.1443   4.85086
 5.1392   4.66399
 5.1341   4.79952
 5.1291   4.90827
 5.1240   4.88183
 5.1189   4.81671
 5.1139   4.84478
 5.1088   4.95141
 5.1038   5.03556
 5.0988   4.87343
 5.0938   4.74580
 5.0888   5.06980
 5.0838   5.29688
 5.0788   5.16921
 5.0738   4.90246
 5.0689   4.82619
 5.0639   4.91791
 5.0590   4.87334
 5.0541   4.84611
 5.0491   4.93080
 5.0442   5.07086
 5.0393   5.17338
 5.0344   4.98424
 5.0296   4.99950
 5.0247   5.09235
 5.0198   5.24353
 5.0150   5.32042
 5.0101   5.31396
 5.0053   5.30550
 5.0004   5.18308
 4.9956   5.21145
 4.9908   5.29243
 4.9860   5.30273
 4.9812   5.18865
 4.9765   5.03094
 4.9717   5.07393
 4.9669   5.22541
 4.9622   5.35219
 4.9574   5.39192
 4.9527   5.42542
 4.9480   5.38299
 4.9432   5.36485
 4.9385   5.20396
 4.9338   5.17829
 4.9291   5.27305
 4.9245   5.35570
 4.9198   5.31380
 4.9151   5.25005
 4.9105   5.26078
 4.9058   5.10613
 4.9012   5.05819
 4.8966   5.20141
 4.8919   5.45706
 4.8873   5.44169
 4.8827   5.26651
 4.8781   5.41308
 4.8736   5.42534
 4.8690   5.26783
 4.8644   5.26365
 4.8599   5.41439
 4.8553   5.53941
 4.8508   5.54276
 4.8462   5.40832
 4.8417   5.38347
 4.8372   5.59874
 4.8327   5.78323
 4.8282   5.75943
 4.8237   5.64365
 4.8192   5.33853
 4.8147   5.24476
 4.8103   5.48101
 4.8058   5.61867
 4.8014   5.67988
 4.7969   5.63706
 4.7925   5.58036
 4.7881   5.55041
 4.7836   5.67428
 4.7792   5.61411
 4.7748   5.51834
 4.7704   5.56237
 4.7660   5.46159
 4.7617   5.44758
 4.7573   5.47200
 4.7530   5.52647
 4.7486   5.49120
 4.7443   5.67405
 4.7399   5.72329
 4.7356   5.78897
 4.7313   5.77111
 4.7270   5.56635
 4.7226   5.59102
 4.7184   5.81506
 4.7141   5.86705
 4.7098   5.58763
 4.7055   5.68491
 4.7012   5.72014
 4.6970   5.70211
 4.6927   5.80743
 4.6885   5.80171
 4.6842   5.84470
 4.6800   5.89036
 4.6758   5.87254
 4.6716   5.94472
 4.6674   5.80214
 4.6632   5.68724
 4.6590   5.67558
 4.6548   5.60842
 4.6506   5.76876
 4.6465   6.00748
 4.6423   5.86440
 4.6382   5.74091
 4.6340   5.87694
 4.6299   5.97222
 4.6258   5.90551
 4.6216   5.78567
 4.6175   5.83560
 4.6134   5.97517
 4.6093   6.23189
 4.6052   6.33979
 4.6011   6.04997
 4.5971   5.85936
 4.5930   6.07749
 4.5889   6.28026
 4.5849   6.42861
 4.5808   6.34786
 4.5768   6.18978
 4.5727   6.11539
 4.5687   5.98227
 4.5647   6.11258
 4.5607   5.97047
 4.5567   5.96727
 4.5526   6.30259
 4.5487   6.21772
 4.5447   6.19275
 4.5407   6.35064
 4.5367   6.44319
 4.5328   6.44123
 4.5288   6.13723
 4.5248   6.19729
 4.5209   6.29387
 4.5170   6.25626
 4.5130   6.21690
 4.5091   6.32167
 4.5052   6.27922
 4.5013   6.23493
 4.4974   6.08571
 4.4935   6.05604
 4.4896   6.30407
 4.4857   6.28983
 4.4818   6.17078
 4.4779   6.15662
 4.4741   6.15238
 4.4702   6.26602
 4.4664   6.47304
 4.4625   6.60358
 4.4587   6.52405
 4.4549   6.35474
 4.4510   6.26265
 4.4472   6.30675
 4.4434   6.27671
 4.4396   6.32387
 4.4358   6.35781
 4.4320   6.50204
 4.4282   6.62284
 4.4245   6.44534
 4.4207   6.34832
 4.4169   6.42499
 4.4132   6.42338
 4.4094   6.37523
 4.4057   6.44979
 4.4019   6.64048
 4.3982   6.66034
 4.3945   6.67671
 4.3907   6.87478
 4.3870   6.73954
 4.3833   6.57468
 4.3796   6.48884
 4.3759   6.49630
 4.3722   6.53336
 4.3685   6.77363
 4.3649   6.77742
 4.3612   6.46767
 4.3575   6.53426
 4.3539   6.70243
 4.3502   6.78957
 4.3466   6.75623
 4.3429   6.75689
 4.3393   7.10668
 4.3357   7.13205
 4.3320   6.88298
 4.3284   6.81259
 4.3248   6.98705
 4.3212   6.96488
 4.3176   6.67657
 4.3140   6.75991
 4.3105   6.97381
 4.3069   6.95641
 4.3033   6.73487
 4.2997   6.66186
 4.2962   6.75229
 4.2926   6.83296
 4.2890   6.96649
 4.2855   7.06450
 4.2820   7.05282
 4.2784   6.98225
 4.2749   6.88581
 4.2714   6.79519
 4.2679   6.90898
 4.2644   7.02127
 4.2609   7.07762
 4.2574   7.13717
 4.2539   6.88319
 4.2504   6.87690
 4.2469   7.19387
 4.2434   7.10135
 4.2400   6.97195
 4.2365   6.97991
 4.2330   6.97475
 4.2296   6.96592
 4.2261   7.03449
 4.2227   7.15455
 4.2193   7.15805
 4.2158   7.23626
 4.2124   7.27563
 4.2090   7.34122
 4.2056   7.33185
 4.2022   7.36149
 4.1988   7.43460
 4.1954   7.59293
 4.1920   7.95189
 4.1886   7.90467
 4.1852   7.52645
 4.1818   7.42454
 4.1785   7.51613
 4.1751   7.62412
 4.1717   7.70346
 4.1684   7.57066
 4.1650   7.48852
 4.1617   7.72892
 4.1584   7.69968
 4.1550   7.59083
 4.1517   7.50605
 4.1484   7.57054
 4.1451   7.53876
 4.1418   7.59172
 4.1384   7.80555
 4.1351   7.87427
 4.1319   7.90445
 4.1286   7.85476
 4.1253   7.61058
 4.1220   7.45154
 4.1187   7.46468
 4.1155   7.89307
 4.1122   8.00656
 4.1089   7.66750
 4.1057   7.80172
 4.1024   7.85020
 4.0992   7.61854
 4.0959   7.63908
 4.0927   7.61514
 4.0895   7.97015
 4.0863   7.99414
 4.0830   7.86951
 4.0798   7.58917
 4.0766   7.27771
 4.0734   7.32038
 4.0702   7.67986
 4.0670   7.88998
 4.0639   7.90430
 4.0607   7.89196
 4.0575   8.05709
 4.0543   7.90196
 4.0511   7.77084
 4.0480   7.77656
 4.0448   7.88100
 4.0417   8.00743
 4.0385   8.05670
 4.0354   7.96951
 4.0323   7.83595
 4.0291   7.84245
 4.0260   7.96465
 4.0229   8.06834
 4.0197   8.20897
 4.0166   8.30985
 4.0135   8.08668
 4.0104   8.07554
 4.0073   8.00000
 4.0042   7.66640
 4.0011   7.74262
 3.9981   8.22881
 3.9950   8.27874
 3.9919   7.88463
 3.9888   7.72159
 3.9857   7.81871
 3.9827   8.02502
 3.9796   8.12138
 3.9766   8.11639
 3.9735   8.19795
 3.9705   8.25135
 3.9675   8.16033
 3.9644   7.94395
 3.9614   8.11114
 3.9584   8.08917
 3.9554   8.02408
 3.9523   8.25106
 3.9493   8.16870
 3.9463   8.01097
 3.9433   7.97759
 3.9403   8.08018
 3.9373   7.99171
 3.9343   7.97889
 3.9314   8.13263
 3.9284   7.99849
 3.9254   8.00764
 3.9224   8.11588
 3.9195   7.99883
 3.9165   8.20837
 3.9136   8.20457
 3.9106   8.16047
 3.9077   8.04769
 3.9047   7.81302
 3.9018   7.98710
 3.8988   8.28172
 3.8959   8.05223
 3.8930   8.06319
 3.8901   8.25720
 3.8872   8.23283
 3.8842   8.21311
 3.8813   7.97568
 3.8784   8.03482
 3.8755   8.15964
 3.8726   8.18363
 3.8697   8.34669
 3.8669   8.34078
 3.8640   8.15664
 3.8611   8.21745
 3.8582   8.52382
 3.8554   8.45846
 3.8525   8.74878
 3.8496   8.82621
 3.8468   8.36850
 3.8439   8.19760
 3.8411   8.13587
