Name: Vesuvianite Ca_10(Mg,Fe^2+)_2Al_4(Si_2O_7)_2(SiO_4)_5(OH,F)_4
Type: Mineral
Class: Silicates
Subclass: Sorosilicate
Particle Size: 0-45um
Sample No.: SS-3A
Owner: JPL
Wavelength range: IR
Origin: USA, California, Riverside County, Crestmore Quarry
Collected by Burminco
Description: 





Measurement: Hemispherical reflectance
First Column: X
Second Column: Y
X Units:  Wavelength (micrometers)
Y Units:  Reflectance (percent)
First X Value: 15.3853
Last X Value: 2.00032
Number of X Values: 2256
Additional information: ss03aa.txt
 
15.3853	2.64742
15.3397	2.58666
15.2945	2.59813
15.2495	2.43977
15.2048	2.4762
15.1603	2.63033
15.1161	2.52971
15.0722	2.57917
15.0285	2.62604
14.9851	2.58015
14.9419	2.82514
14.8989	3.06777
14.8563	2.78706
14.8138	2.62541
14.7716	2.85895
14.7296	3.24214
14.6879	3.47684
14.6464	3.43627
14.6052	3.01127
14.5641	2.92342
14.5233	3.21802
14.4828	3.32992
14.4424	3.30271
14.4023	3.32443
14.3624	3.54821
14.3227	3.85074
14.2833	3.87837
14.244	3.94306
14.205	4.04083
14.1662	4.10915
14.1276	4.04436
14.0892	3.64632
14.051	3.25047
14.0131	2.97258
13.9753	2.8897
13.9377	3.43547
13.9004	4.11814
13.8632	4.50372
13.8262	4.7454
13.7895	4.91479
13.7529	5.07328
13.7165	5.15755
13.6803	5.20861
13.6443	5.23519
13.6085	5.13401
13.5729	4.97529
13.5374	4.86154
13.5022	5.03323
13.4671	5.10816
13.4322	5.04271
13.3975	5.04488
13.363	5.22542
13.3286	5.25797
13.2944	5.33591
13.2604	5.49122
13.2266	5.52907
13.193	5.55789
13.1595	5.59626
13.1262	5.70434
13.093	5.84974
13.06	5.87353
13.0272	5.7023
12.9946	5.6195
12.9621	5.59257
12.9298	5.60595
12.8976	5.58384
12.8656	5.43914
12.8337	5.40729
12.8021	5.33586
12.7705	5.24367
12.7391	5.25679
12.7079	5.30617
12.6769	5.3154
12.6459	5.11646
12.6152	5.08448
12.5845	5.11826
12.5541	4.9734
12.5238	4.88925
12.4936	5.05939
12.4635	5.10255
12.4337	5.16874
12.4039	5.20396
12.3743	5.07484
12.3448	4.98268
12.3155	5.04501
12.2863	5.05944
12.2573	5.07427
12.2284	5.07939
12.1996	5.11657
12.171	5.29303
12.1425	5.35663
12.1141	5.33878
12.0859	5.51735
12.0578	5.74497
12.0298	5.89329
12.0019	5.71893
11.9742	5.68439
11.9466	5.8301
11.9192	5.83564
11.8918	5.81407
11.8646	5.80492
11.8375	5.8484
11.8106	5.62116
11.7837	5.49462
11.757	5.72221
11.7304	5.89935
11.7039	5.95622
11.6776	5.88232
11.6513	5.87832
11.6252	5.88336
11.5992	5.80424
11.5733	5.7384
11.5475	5.75259
11.5219	5.73932
11.4963	5.63881
11.4709	5.48107
11.4455	5.46696
11.4203	5.57349
11.3952	5.69045
11.3702	5.89693
11.3454	5.96392
11.3206	6.02075
11.2959	6.19375
11.2714	6.32769
11.2469	6.19614
11.2226	5.96894
11.1983	5.99261
11.1742	5.97901
11.1502	5.9118
11.1263	5.76942
11.1024	5.64905
11.0787	5.6874
11.0551	5.78159
11.0316	5.8684
11.0081	6.09286
10.9848	6.26758
10.9616	6.39743
10.9385	6.48405
10.9154	6.42877
10.8925	6.41716
10.8697	6.48823
10.8469	6.38776
10.8243	6.25184
10.8017	6.06475
10.7793	5.84856
10.7569	5.75478
10.7346	5.82779
10.7125	5.86554
10.6904	5.67072
10.6684	5.57698
10.6465	5.66946
10.6247	5.67629
10.6029	5.76616
10.5813	5.72911
10.5597	5.5606
10.5383	5.62932
10.5169	5.9417
10.4956	6.16968
10.4744	6.33159
10.4533	6.45862
10.4323	6.52302
10.4113	6.626
10.3904	6.64107
10.3697	6.58556
10.349	6.63399
10.3284	6.75276
10.3078	6.74299
10.2874	6.67396
10.267	6.59108
10.2467	6.4884
10.2265	6.48546
10.2064	6.49476
10.1863	6.46951
10.1663	6.38833
10.1464	6.19571
10.1266	6.11369
10.1069	6.09511
10.0872	5.9927
10.0676	5.89093
10.0481	5.87465
10.0287	5.91137
10.0093	6.24336
9.99005	6.60486
9.97084	6.8565
9.95169	7.26516
9.93263	7.71085
9.91364	8.03641
9.89472	8.37632
9.87587	8.83047
9.8571	9.42586
9.83839	9.85459
9.81976	10.1516
9.80119	10.3281
9.78271	10.5215
9.76428	10.8208
9.74592	11.1374
9.72764	11.1912
9.70943	11.2011
9.69128	11.3412
9.6732	11.6204
9.65518	11.8605
9.63724	11.7982
9.61935	11.7072
9.60155	11.7541
9.5838	11.7881
9.56611	11.7904
9.5485	11.6217
9.53094	11.4441
9.51345	11.2202
9.49604	10.9492
9.47867	10.8059
9.46137	10.4466
9.44414	10.0294
9.42697	9.70791
9.40986	9.15203
9.39281	8.61439
9.37583	8.18476
9.35891	7.86512
9.34204	7.61355
9.32524	7.46353
9.3085	7.4265
9.29182	7.3274
9.27519	7.07902
9.25863	6.7953
9.24213	6.61683
9.22568	6.49105
9.2093	6.40435
9.19297	6.41142
9.17669	6.39957
9.16048	6.31782
9.14433	6.26142
9.12823	6.29231
9.11218	6.3124
9.0962	6.29159
9.08027	6.40497
9.06439	6.46543
9.04858	6.52039
9.03281	6.46737
9.0171	6.39986
9.00145	6.5495
8.98585	6.68381
8.9703	6.70794
8.9548	6.72296
8.93937	6.83479
8.92398	6.83909
8.90865	6.91859
8.89337	7.03728
8.87814	7.08471
8.86296	7.1261
8.84784	7.35447
8.83277	7.46958
8.81774	7.57259
8.80277	7.85014
8.78786	7.94773
8.77298	7.93964
8.75816	7.97803
8.7434	8.00568
8.72868	8.0902
8.714	8.09551
8.69938	8.18599
8.68481	8.31502
8.67029	8.37063
8.65581	8.28781
8.64139	8.29911
8.62701	8.4939
8.61268	8.52395
8.5984	8.42249
8.58416	8.59504
8.56997	8.89905
8.55583	9.16983
8.54174	9.50969
8.52769	9.72102
8.51368	9.84897
8.49973	9.89492
8.48582	9.92173
8.47195	10.0098
8.45813	10.2809
8.44436	10.6385
8.43062	11.0162
8.41693	11.2999
8.4033	11.6416
8.3897	12.029
8.37614	12.4002
8.36264	12.7675
8.34917	13.0927
8.33574	13.3899
8.32236	13.657
8.30903	13.8675
8.29573	14.1227
8.28248	14.358
8.26927	14.4064
8.2561	14.5309
8.24298	14.7748
8.2299	15.0125
8.21685	15.1973
8.20385	15.3538
8.19089	15.6083
8.17797	15.6636
8.16509	15.6007
8.15225	15.6443
8.13946	15.6817
8.1267	15.7483
8.11398	15.713
8.10131	15.7424
8.08867	15.9248
8.07606	15.9821
8.0635	15.9497
8.05099	16.1683
8.0385	16.5567
8.02606	16.842
8.01366	16.9245
8.00129	16.9623
7.98896	17.0515
7.97667	17.2255
7.96442	17.3404
7.9522	17.3388
7.94002	17.3342
7.92788	17.2702
7.91578	17.1046
7.90371	16.9874
7.89168	16.9893
7.87969	17.0799
7.86773	17.2107
7.85581	17.4063
7.84392	17.4838
7.83207	17.4368
7.82026	17.4565
7.80849	17.4945
7.79674	17.5789
7.78503	17.7049
7.77337	17.8467
7.76173	18.0216
7.75012	18.1275
7.73856	18.1248
7.72703	17.9975
7.71553	17.7711
7.70406	17.6141
7.69263	17.5496
7.68123	17.4574
7.66987	17.3542
7.65855	17.0519
7.64725	16.7505
7.63598	16.5995
7.62475	16.4512
7.61356	16.2745
7.60239	16.1745
7.59126	16.1446
7.58017	16.1912
7.5691	16.2033
7.55806	16.1847
7.54707	16.1516
7.5361	16.1775
7.52516	16.2307
7.51425	16.24
7.50338	16.1936
7.49253	16.1802
7.48172	16.131
7.47094	15.9878
7.46019	15.7449
7.44947	15.5556
7.43879	15.3165
7.42813	15.0506
7.4175	14.8068
7.4069	14.5104
7.39634	14.2126
7.3858	13.9611
7.37529	13.7757
7.36482	13.5368
7.35437	13.1474
7.34396	12.7852
7.33357	12.5244
7.32321	12.2093
7.31288	11.8928
7.30258	11.6523
7.29231	11.4827
7.28207	11.3828
7.27185	11.3202
7.26167	11.21
7.25152	11.1294
7.24139	11.0489
7.23129	10.932
7.22122	10.8367
7.21117	10.7785
7.20116	10.6702
7.19117	10.6174
7.18121	10.6046
7.17128	10.6469
7.16137	10.5703
7.1515	10.4545
7.14164	10.4252
7.13182	10.5169
7.12203	10.82
7.11225	11.1433
7.10251	11.3721
7.0928	11.5295
7.08311	11.5363
7.07344	11.4853
7.06381	11.4639
7.0542	11.4279
7.04461	11.3808
7.03506	11.1622
7.02552	11.0755
7.01601	11.0523
7.00653	10.9178
6.99708	10.8323
6.98765	10.8269
6.97824	10.8294
6.96886	10.9497
6.95951	11.042
6.95018	10.7008
6.94087	10.522
6.9316	10.6302
6.92234	10.7212
6.91311	10.8124
6.90391	10.8846
6.89473	10.8001
6.88557	10.6224
6.87644	10.5106
6.86733	10.6017
6.85824	10.3393
6.84918	9.79778
6.84015	9.41552
6.83114	9.32
6.82215	9.29984
6.81319	9.20742
6.80424	9.34423
6.79532	9.82497
6.78643	10.0683
6.77756	10.0363
6.76871	10.1773
6.75989	10.482
6.75109	10.9119
6.74231	11.2589
6.73355	11.7197
6.72482	12.288
6.71611	12.87
6.70742	13.1937
6.69875	13.4059
6.69011	13.8885
6.68149	14.3113
6.67289	14.4876
6.66431	14.7568
6.65576	15.0316
6.64722	15.7306
6.63871	16.6517
6.63022	16.7051
6.62175	16.5439
6.61331	16.7936
6.60488	17.116
6.59648	17.6311
6.5881	18.0439
6.57974	18.519
6.5714	19.0127
6.56308	18.9953
6.55478	19.1032
6.54651	19.1676
6.53825	19.1897
6.53001	19.2683
6.5218	19.4716
6.51361	19.2843
6.50544	19.3472
6.49729	19.979
6.48915	19.9568
6.48104	19.4483
6.47295	19.1605
6.46488	18.8219
6.45683	18.5425
6.4488	18.1745
6.44079	17.6247
6.4328	17.0037
6.42482	16.4237
6.41687	16.3315
6.40894	15.6897
6.40103	14.8903
6.39314	14.8318
6.38526	15.2501
6.37741	16.076
6.36957	17.1249
6.36176	17.9189
6.35396	19.0373
6.34618	20.5458
6.33843	21.1715
6.33069	21.3678
6.32297	22.0291
6.31527	22.5731
6.30758	22.9671
6.29992	23.3089
6.29227	23.7717
6.28465	24.3758
6.27704	24.8604
6.26945	25.1793
6.26188	25.3665
6.25432	25.4733
6.24679	25.6607
6.23927	25.6915
6.23177	25.6291
6.22429	25.6596
6.21683	25.7608
6.20938	25.6877
6.20195	25.4937
6.19454	25.5545
6.18715	26.0532
6.17978	25.747
6.17242	25.2654
6.16508	25.3787
6.15776	25.3998
6.15045	25.2006
6.14317	25.1763
6.1359	25.0467
6.12864	24.9669
6.12141	25.3202
6.11419	25.7993
6.10699	25.4381
6.0998	24.9987
6.09263	24.8611
6.08549	24.974
6.07835	25.5241
6.07123	25.7731
6.06413	25.4195
6.05705	25.9123
6.04998	27.0979
6.04293	26.4952
6.0359	25.6913
6.02888	25.5468
6.02187	25.7592
6.01489	26.2042
6.00792	26.214
6.00096	26.2712
5.99403	26.7048
5.98711	26.9317
5.9802	26.8374
5.97331	27.059
5.96644	27.2288
5.95958	27.0076
5.95274	27.1164
5.94591	27.5216
5.9391	28.4277
5.9323	28.4043
5.92552	27.7641
5.91876	27.7024
5.91201	27.7377
5.90528	27.9893
5.89856	28.7527
5.89186	28.6961
5.88517	28.9179
5.8785	29.0714
5.87184	28.259
5.8652	28.2635
5.85857	28.1533
5.85196	27.903
5.84536	27.7719
5.83878	27.7873
5.83221	28.0244
5.82566	28.45
5.81912	28.2837
5.81259	27.5881
5.80608	27.3149
5.79959	27.1609
5.79311	26.9617
5.78665	26.8863
5.78019	26.8301
5.77376	27.0297
5.76734	27.4584
5.76093	26.9139
5.75453	26.5024
5.74815	26.6151
5.74179	26.4727
5.73543	26.3672
5.7291	26.3039
5.72277	26.3919
5.71646	26.4871
5.71017	26.5213
5.70389	26.1717
5.69762	26.0256
5.69136	26.0783
5.68513	25.9347
5.6789	26.0632
5.67268	26.1442
5.66648	25.9999
5.6603	26.1584
5.65413	26.2748
5.64797	26.3674
5.64182	26.4891
5.63569	26
5.62957	25.498
5.62347	25.2401
5.61737	24.9221
5.61129	24.3707
5.60522	23.6689
5.59917	22.5854
5.59313	20.9067
5.5871	18.8612
5.58109	17.1711
5.57509	16.3961
5.5691	16.1711
5.56312	16.2894
5.55716	17.1657
5.55121	19.0208
5.54528	21.2595
5.53935	23.0709
5.53344	24.2388
5.52754	25.1038
5.52166	25.7466
5.51578	26.1909
5.50992	26.5606
5.50407	26.9192
5.49823	27.2045
5.49241	27.5084
5.4866	27.7467
5.4808	28.1373
5.47501	28.3618
5.46923	28.5972
5.46347	28.8535
5.45772	28.8444
5.45198	28.9061
5.44625	29.1305
5.44054	29.3146
5.43484	29.4542
5.42914	29.7878
5.42347	30.2857
5.4178	30.2429
5.41214	30.0821
5.4065	30.1366
5.40087	30.251
5.39525	30.3886
5.38964	30.5088
5.38404	30.5978
5.37846	30.6914
5.37288	30.8067
5.36732	30.9294
5.36177	31.1037
5.35623	31.4107
5.35071	31.6343
5.34519	31.5586
5.33968	31.567
5.33419	31.6892
5.32871	31.8237
5.32324	31.9769
5.31778	32.1373
5.31233	32.3074
5.30689	32.5068
5.30147	32.6822
5.29605	32.8742
5.29065	33.0561
5.28525	33.1914
5.27987	33.4777
5.2745	33.6842
5.26914	33.8022
5.26379	33.977
5.25845	34.2558
5.25312	34.4977
5.24781	34.6934
5.2425	34.9592
5.23721	35.2268
5.23192	35.3955
5.22665	35.601
5.22138	35.8565
5.21613	36.2849
5.21089	36.5233
5.20566	36.6306
5.20044	36.8736
5.19522	37.0781
5.19002	37.2917
5.18483	37.5182
5.17965	37.7274
5.17448	37.944
5.16933	38.2107
5.16418	38.4558
5.15904	38.7339
5.15391	39.0043
5.14879	39.2401
5.14368	39.4073
5.13859	39.6007
5.1335	39.8317
5.12842	40.0412
5.12335	40.2112
5.1183	40.3763
5.11325	40.5778
5.10821	40.631
5.10318	40.6362
5.09817	40.7672
5.09316	41.2494
5.08816	41.8035
5.08317	42.1583
5.07819	42.2737
5.07322	42.4426
5.06826	42.694
5.06331	42.9272
5.05837	43.1867
5.05344	43.5162
5.04852	43.7293
5.04361	43.9251
5.03871	44.132
5.03382	44.3859
5.02894	44.6302
5.02406	44.9166
5.0192	45.1698
5.01435	45.2803
5.0095	45.4376
5.00467	45.7142
4.99984	45.9839
4.99502	46.2157
4.99021	46.3745
4.98542	46.5221
4.98063	46.7105
4.97585	46.94
4.97108	47.1033
4.96632	47.2941
4.96156	47.5083
4.95682	47.6877
4.95209	47.8598
4.94736	48.0865
4.94264	48.2969
4.93794	48.4423
4.93324	48.6248
4.92855	48.8202
4.92387	48.9773
4.9192	49.1571
4.91453	49.3575
4.90988	49.4995
4.90524	49.6988
4.9006	49.968
4.89597	50.1085
4.89135	50.2491
4.88674	50.3556
4.88214	50.5089
4.87755	50.7097
4.87296	50.8381
4.86839	50.9726
4.86382	51.1514
4.85926	51.3429
4.85471	51.4913
4.85017	51.5838
4.84564	51.7269
4.84111	51.8192
4.8366	51.8876
4.83209	52.0352
4.82759	52.2436
4.8231	52.3877
4.81862	52.5312
4.81415	52.6816
4.80968	52.776
4.80522	52.848
4.80077	52.9445
4.79633	53.0837
4.7919	53.2314
4.78747	53.3729
4.78306	53.4687
4.77865	53.5633
4.77425	53.6461
4.76986	53.6689
4.76547	53.7596
4.7611	53.816
4.75673	53.8357
4.75237	53.8606
4.74802	53.8869
4.74367	53.8777
4.73934	53.9272
4.73501	53.957
4.73069	53.9953
4.72638	53.9382
4.72207	53.7995
4.71777	53.5879
4.71348	53.3225
4.7092	53.0374
4.70493	52.7788
4.70066	52.5311
4.69641	52.2783
4.69216	52.0674
4.68791	51.9574
4.68368	51.8528
4.67945	51.811
4.67523	51.836
4.67102	51.9257
4.66682	51.9881
4.66262	52.0585
4.65843	52.1723
4.65425	52.3979
4.65007	52.6798
4.64591	53.009
4.64175	53.3377
4.6376	53.6027
4.63345	53.8455
4.62932	53.9777
4.62519	54.1627
4.62106	54.3723
4.61695	54.4816
4.61284	54.5784
4.60874	54.6595
4.60465	54.7362
4.60056	54.8001
4.59648	54.8591
4.59241	54.9154
4.58835	54.9329
4.58429	54.9297
4.58024	55.0198
4.5762	55.0646
4.57216	55.0618
4.56814	55.1756
4.56411	55.2547
4.5601	55.1699
4.55609	55.2067
4.55209	55.2681
4.5481	55.2565
4.54411	55.2172
4.54013	55.2237
4.53616	55.2434
4.5322	55.2845
4.52824	55.3384
4.52429	55.3339
4.52034	55.4026
4.51641	55.4641
4.51247	55.4707
4.50855	55.4734
4.50463	55.5081
4.50072	55.6057
4.49682	55.7296
4.49292	55.8363
4.48903	55.9198
4.48515	55.9695
4.48127	56.0037
4.4774	56.035
4.47354	56.1291
4.46968	56.2317
4.46584	56.2955
4.46199	56.3387
4.45815	56.3716
4.45432	56.4558
4.4505	56.5261
4.44668	56.5912
4.44287	56.6209
4.43907	56.7007
4.43527	56.7935
4.43148	56.7978
4.4277	56.8425
4.42392	56.9327
4.42015	56.9949
4.41638	57.0477
4.41262	57.0644
4.40887	57.1316
4.40513	57.1729
4.40139	57.1217
4.39765	57.099
4.39393	57.1807
4.39021	57.3
4.38649	57.3829
4.38278	57.365
4.37908	57.3267
4.37539	57.3034
4.3717	57.3214
4.36801	57.3292
4.36434	57.3819
4.36067	57.3944
4.357	57.3302
4.35335	57.2638
4.34969	57.2319
4.34605	57.3008
4.34241	57.2911
4.33877	57.2388
4.33514	57.2846
4.33152	57.3383
4.32791	57.3324
4.3243	57.3318
4.32069	57.2774
4.3171	57.2281
4.31351	57.259
4.30992	57.2244
4.30634	57.1837
4.30277	57.2258
4.2992	57.2693
4.29564	57.263
4.29208	57.1679
4.28853	57.1133
4.28499	57.127
4.28145	57.1366
4.27792	57.1434
4.27439	57.2
4.27087	57.2735
4.26735	57.2863
4.26384	57.3946
4.26034	57.4534
4.25684	57.4368
4.25335	57.4494
4.24986	57.3025
4.24638	57.1094
4.24291	57.0301
4.23944	56.9602
4.23598	56.9174
4.23252	56.9732
4.22906	57.0637
4.22562	57.0344
4.22218	57.09
4.21874	57.2242
4.21531	57.265
4.21189	57.3252
4.20847	57.3864
4.20506	57.3781
4.20165	57.3945
4.19825	57.3868
4.19485	57.4018
4.19146	57.4643
4.18807	57.4644
4.18469	57.397
4.18132	57.3427
4.17795	57.3052
4.17458	57.2999
4.17123	57.2549
4.16787	57.2289
4.16453	57.206
4.16118	57.1834
4.15785	57.1174
4.15451	57.0636
4.15119	57.0391
4.14787	57.0071
4.14455	56.9563
4.14124	56.9224
4.13794	56.856
4.13464	56.6942
4.13134	56.5856
4.12805	56.5767
4.12477	56.5478
4.12149	56.4865
4.11822	56.3827
4.11495	56.1963
4.11168	56.0377
4.10843	55.9403
4.10517	55.8982
4.10192	55.9061
4.09868	55.8554
4.09545	55.7158
4.09221	55.5286
4.08899	55.374
4.08576	55.2449
4.08255	55.103
4.07933	54.902
4.07613	54.7421
4.07292	54.6223
4.06973	54.4182
4.06654	54.1738
4.06335	53.9958
4.06017	53.6996
4.05699	53.3349
4.05382	53.0533
4.05065	52.5845
4.04749	51.9119
4.04433	51.216
4.04118	50.3892
4.03803	49.4047
4.03489	48.5299
4.03175	47.8169
4.02862	47.0639
4.02549	46.2468
4.02237	45.4462
4.01925	44.6212
4.01614	43.5156
4.01303	42.1093
4.00993	40.4384
4.00683	38.653
4.00373	36.9778
4.00064	35.5124
3.99756	34.191
3.99448	33.0806
3.9914	32.1485
3.98833	31.3081
3.98527	30.7921
3.98221	30.5832
3.97915	30.6148
3.9761	30.8116
3.97305	31.0338
3.97001	31.2486
3.96697	31.601
3.96394	32.0561
3.96091	32.6874
3.95789	33.5203
3.95487	34.6029
3.95186	35.7607
3.94885	36.9242
3.94584	38.0847
3.94284	39.3297
3.93984	40.5894
3.93685	41.3389
3.93386	41.4673
3.93088	41.4678
3.9279	41.6472
3.92493	41.8615
3.92196	41.9913
3.919	42.1537
3.91604	42.3303
3.91308	42.4512
3.91013	42.3856
3.90718	42.3848
3.90424	42.5671
3.9013	42.6788
3.89837	42.6208
3.89544	42.6941
3.89252	42.8186
3.8896	42.861
3.88668	42.8932
3.88377	43.0351
3.88086	43.1787
3.87796	43.2821
3.87506	43.2732
3.87217	43.2512
3.86928	43.3609
3.86639	43.3986
3.86351	43.476
3.86064	43.5365
3.85776	43.6363
3.8549	43.7318
3.85203	43.8131
3.84917	43.9331
3.84631	44.1404
3.84346	44.3107
3.84062	44.4455
3.83777	44.8518
3.83494	45.4324
3.8321	45.9532
3.82927	46.4509
3.82644	46.953
3.82362	47.5252
3.82081	47.979
3.81799	48.4207
3.81518	48.9264
3.81238	49.3371
3.80958	49.7268
3.80678	50.1859
3.80399	50.658
3.8012	51.1145
3.79841	51.5484
3.79563	52.0087
3.79286	52.4011
3.79008	52.6456
3.78731	52.7403
3.78455	52.8054
3.78179	52.8343
3.77903	52.8885
3.77628	52.9461
3.77353	52.9107
3.77079	52.8974
3.76805	52.8648
3.76531	52.7741
3.76258	52.6776
3.75985	52.6159
3.75713	52.6086
3.7544	52.619
3.75169	52.606
3.74898	52.5582
3.74627	52.5221
3.74356	52.5254
3.74086	52.5415
3.73816	52.5703
3.73547	52.6231
3.73278	52.5448
3.7301	52.4605
3.72741	52.4464
3.72474	52.4161
3.72206	52.3427
3.71939	52.2803
3.71673	52.2281
3.71406	52.216
3.71141	52.1739
3.70875	52.0446
3.7061	51.9796
3.70345	51.951
3.70081	51.8636
3.69817	51.7505
3.69553	51.6489
3.6929	51.5379
3.69027	51.5278
3.68765	51.4872
3.68503	51.3266
3.68241	51.1735
3.6798	51.0612
3.67719	50.98
3.67458	50.8973
3.67198	50.8494
3.66938	50.7678
3.66678	50.6521
3.66419	50.5107
3.66161	50.3919
3.65902	50.3106
3.65644	50.2521
3.65387	50.1361
3.65129	50.0094
3.64872	49.8773
3.64616	49.8138
3.64359	49.7061
3.64103	49.5719
3.63848	49.4312
3.63593	49.3241
3.63338	49.2116
3.63084	49.0405
3.6283	48.8828
3.62576	48.7971
3.62322	48.7106
3.62069	48.6314
3.61817	48.555
3.61564	48.4552
3.61312	48.2366
3.61061	48.0658
3.6081	47.9923
3.60559	47.8554
3.60308	47.6793
3.60058	47.5075
3.59808	47.3977
3.59558	47.3231
3.59309	47.1161
3.59061	46.8283
3.58812	46.6279
3.58564	46.4537
3.58316	46.1811
3.58069	45.9746
3.57822	45.7746
3.57575	45.5396
3.57328	45.3584
3.57082	45.1673
3.56836	45.0116
3.56591	44.9745
3.56346	44.897
3.56101	44.7415
3.55857	44.6637
3.55613	44.4882
3.55369	44.2375
3.55126	44.0381
3.54883	43.8549
3.5464	43.6246
3.54397	43.398
3.54155	43.0964
3.53914	42.7513
3.53672	42.3592
3.53431	41.911
3.5319	41.3412
3.5295	40.7342
3.5271	40.0608
3.5247	39.3097
3.52231	38.4667
3.51991	37.6219
3.51753	36.8747
3.51514	36.2301
3.51276	35.6733
3.51038	35.1893
3.50801	34.8799
3.50563	34.4928
3.50327	34.0326
3.5009	33.6632
3.49854	33.3055
3.49618	32.8913
3.49382	32.4939
3.49147	32.1549
3.48912	31.8248
3.48677	31.4631
3.48443	31.0591
3.48209	30.6774
3.47975	30.4974
3.47742	30.44
3.47509	30.4909
3.47276	30.9345
