Name: Ferroaxinite Ca_2Fe^2+Al_2BSi_4O_15(OH)
Type: Mineral
Class: Silicates
Subclass: Cyclosilicates
Particle Size: 0-45um
Sample No.: CS-4A
Owner: JPL
Wavelength range: IR
Origin: Mexico, Baja California Norte, Los Gavelontos
Collected by Ward's
Description: 





Measurement: Hemispherical reflectance
First Column: X
Second Column: Y
X Units:  Wavelength (micrometers)
Y Units:  Reflectance (percent)
First X Value: 15.3853
Last X Value: 2.00032
Number of X Values: 2256
Additional information: cs04aa.txt
 
15.3853	1.70198
15.3397	1.97139
15.2945	2.10841
15.2495	2.06198
15.2048	2.16264
15.1603	2.57096
15.1161	2.87678
15.0722	2.97451
15.0285	3.02397
14.9851	3.00631
14.9419	2.86765
14.8989	2.60283
14.8563	2.35151
14.8138	2.03079
14.7716	1.91719
14.7296	2.0473
14.6879	2.2612
14.6464	2.3957
14.6052	2.43853
14.5641	2.67562
14.5233	2.96647
14.4828	3.30185
14.4424	3.56836
14.4023	3.97085
14.3624	4.31263
14.3227	4.68713
14.2833	5.28999
14.244	5.84037
14.205	6.03324
14.1662	6.36388
14.1276	6.59281
14.0892	6.4645
14.051	6.60298
14.0131	7.06544
13.9753	7.21629
13.9377	7.39632
13.9004	7.65044
13.8632	7.90062
13.8262	7.99297
13.7895	8.13432
13.7529	8.2705
13.7165	8.43324
13.6803	8.5431
13.6443	8.60617
13.6085	8.5733
13.5729	8.61859
13.5374	8.73299
13.5022	8.81862
13.4671	8.77771
13.4322	8.75872
13.3975	8.81305
13.363	8.82351
13.3286	8.6942
13.2944	8.43581
13.2604	8.2244
13.2266	8.06118
13.193	7.92703
13.1595	7.97989
13.1262	7.8686
13.093	7.64859
13.06	7.30304
13.0272	7.01882
12.9946	6.69837
12.9621	6.41943
12.9298	6.26501
12.8976	6.14033
12.8656	5.90781
12.8337	5.66028
12.8021	5.49081
12.7705	5.37531
12.7391	5.33179
12.7079	5.41795
12.6769	5.83082
12.6459	6.24257
12.6152	6.48665
12.5845	6.75901
12.5541	6.99795
12.5238	7.17244
12.4936	7.24505
12.4635	7.22299
12.4337	7.26129
12.4039	7.26797
12.3743	7.13812
12.3448	6.96075
12.3155	6.84385
12.2863	6.79596
12.2573	6.75016
12.2284	6.64326
12.1996	6.44673
12.171	6.29862
12.1425	6.16442
12.1141	6.18783
12.0859	6.22252
12.0578	6.01237
12.0298	5.86076
12.0019	5.93457
11.9742	5.96432
11.9466	6.13731
11.9192	6.40251
11.8918	6.51095
11.8646	6.59772
11.8375	6.82133
11.8106	7.1382
11.7837	7.38278
11.757	7.47309
11.7304	7.41449
11.7039	7.54683
11.6776	7.68068
11.6513	7.57988
11.6252	7.61038
11.5992	7.89302
11.5733	8.10867
11.5475	8.22501
11.5219	8.52876
11.4963	8.78949
11.4709	8.95869
11.4455	9.18723
11.4203	9.43087
11.3952	9.68345
11.3702	9.88199
11.3454	9.85266
11.3206	9.80279
11.2959	9.93268
11.2714	10.0515
11.2469	10.1244
11.2226	10.2306
11.1983	10.0274
11.1742	9.66997
11.1502	9.32236
11.1263	8.85171
11.1024	8.07536
11.0787	7.28888
11.0551	6.7877
11.0316	6.53866
11.0081	6.64137
10.9848	6.92358
10.9616	7.2141
10.9385	7.6354
10.9154	8.21062
10.8925	8.6268
10.8697	8.94793
10.8469	9.16573
10.8243	9.43073
10.8017	9.66245
10.7793	9.75683
10.7569	9.96619
10.7346	10.3226
10.7125	10.5995
10.6904	11.056
10.6684	11.6789
10.6465	12.0394
10.6247	12.3283
10.6029	12.5907
10.5813	12.7307
10.5597	12.7387
10.5383	12.645
10.5169	12.3404
10.4956	11.734
10.4744	11.0669
10.4533	10.3438
10.4323	9.48431
10.4113	8.62999
10.3904	7.99457
10.3697	7.47214
10.349	6.93969
10.3284	6.41688
10.3078	5.82886
10.2874	5.41387
10.267	5.07029
10.2467	4.80618
10.2265	4.58533
10.2064	4.44343
10.1863	4.54106
10.1663	4.72079
10.1464	4.76126
10.1266	4.78649
10.1069	4.82118
10.0872	4.76441
10.0676	4.56227
10.0481	4.46415
10.0287	4.45821
10.0093	4.67143
9.99005	5.22041
9.97084	5.60198
9.95169	5.6562
9.93263	5.71748
9.91364	5.55033
9.89472	5.25109
9.87587	4.95056
9.8571	4.73984
9.83839	4.48768
9.81976	4.09784
9.80119	3.64803
9.78271	3.45636
9.76428	3.43637
9.74592	3.57584
9.72764	3.87001
9.70943	4.42126
9.69128	4.91113
9.6732	5.43644
9.65518	6.21594
9.63724	6.86175
9.61935	7.50445
9.60155	8.13577
9.5838	8.53318
9.56611	8.79232
9.5485	8.98259
9.53094	9.17884
9.51345	9.11363
9.49604	9.01535
9.47867	8.88324
9.46137	8.76458
9.44414	8.89283
9.42697	9.24212
9.40986	9.67943
9.39281	10.4012
9.37583	11.0882
9.35891	11.4646
9.34204	11.6256
9.32524	11.7819
9.3085	11.8794
9.29182	11.6521
9.27519	11.4156
9.25863	11.25
9.24213	11.1956
9.22568	11.2863
9.2093	11.408
9.19297	11.6402
9.17669	12.0639
9.16048	12.4963
9.14433	12.6355
9.12823	12.5313
9.11218	12.4148
9.0962	12.1535
9.08027	11.7744
9.06439	11.2774
9.04858	10.6701
9.03281	10.0737
9.0171	9.58927
9.00145	9.10705
8.98585	8.64792
8.9703	8.34759
8.9548	8.00349
8.93937	7.63831
8.92398	7.37562
8.90865	7.01902
8.89337	6.71788
8.87814	6.42016
8.86296	6.18163
8.84784	5.84664
8.83277	5.5726
8.81774	5.43791
8.80277	5.36309
8.78786	5.28266
8.77298	5.29863
8.75816	5.30099
8.7434	5.33266
8.72868	5.31375
8.714	5.13728
8.69938	4.9158
8.68481	4.69233
8.67029	4.41853
8.65581	4.05075
8.64139	3.58387
8.62701	3.13749
8.61268	2.819
8.5984	2.38188
8.58416	2.059
8.56997	1.93639
8.55583	1.82104
8.54174	1.53215
8.52769	1.34352
8.51368	1.26831
8.49973	1.23125
8.48582	1.04305
8.47195	0.791493
8.45813	0.744194
8.44436	0.693718
8.43062	0.611442
8.41693	0.595256
8.4033	0.614266
8.3897	0.663799
8.37614	0.743271
8.36264	0.67708
8.34917	0.687374
8.33574	0.718154
8.32236	0.66429
8.30903	0.683993
8.29573	0.697098
8.28248	0.699252
8.26927	0.688372
8.2561	0.707478
8.24298	0.710224
8.2299	0.746516
8.21685	0.800313
8.20385	0.836118
8.19089	0.929864
8.17797	1.07421
8.16509	1.068
8.15225	1.13407
8.13946	1.21231
8.1267	1.28708
8.11398	1.37231
8.10131	1.45767
8.08867	1.54631
8.07606	1.70909
8.0635	1.65573
8.05099	1.58813
8.0385	1.62002
8.02606	1.92585
8.01366	2.13042
8.00129	2.18414
7.98896	2.23969
7.97667	2.46902
7.96442	2.61908
7.9522	2.70451
7.94002	2.80249
7.92788	3.03011
7.91578	3.16454
7.90371	3.19942
7.89168	3.31954
7.87969	3.52974
7.86773	3.69971
7.85581	3.85538
7.84392	4.05042
7.83207	4.20529
7.82026	4.32822
7.80849	4.61696
7.79674	4.81422
7.78503	4.90751
7.77337	5.03104
7.76173	5.24119
7.75012	5.40418
7.73856	5.59339
7.72703	5.8556
7.71553	6.10701
7.70406	6.35592
7.69263	6.49201
7.68123	6.65372
7.66987	6.88586
7.65855	6.9842
7.64725	7.11485
7.63598	7.37065
7.62475	7.50479
7.61356	7.69654
7.60239	8.06483
7.59126	8.2846
7.58017	8.34642
7.5691	8.4848
7.55806	8.7323
7.54707	8.98202
7.5361	9.20556
7.52516	9.46477
7.51425	9.69626
7.50338	9.89842
7.49253	10.1539
7.48172	10.3408
7.47094	10.5116
7.46019	10.7509
7.44947	10.9831
7.43879	11.1511
7.42813	11.1776
7.4175	11.2882
7.4069	11.5052
7.39634	11.7482
7.3858	11.9835
7.37529	12.1093
7.36482	12.1329
7.35437	12.2956
7.34396	12.5526
7.33357	12.6679
7.32321	12.7599
7.31288	12.8715
7.30258	12.9758
7.29231	13.0698
7.28207	13.2878
7.27185	13.5177
7.26167	13.6117
7.25152	13.7305
7.24139	13.9072
7.23129	14.0489
7.22122	14.1951
7.21117	14.4333
7.20116	14.5473
7.19117	14.5597
7.18121	14.7085
7.17128	14.9466
7.16137	15.0299
7.1515	15.1218
7.14164	15.2185
7.13182	15.3171
7.12203	15.4771
7.11225	15.5128
7.10251	15.544
7.0928	15.6125
7.08311	15.7176
7.07344	15.9329
7.06381	16.1156
7.0542	16.4156
7.04461	16.7146
7.03506	16.5409
7.02552	16.3757
7.01601	16.4012
7.00653	16.4975
6.99708	16.6205
6.98765	16.6578
6.97824	16.6723
6.96886	16.9525
6.95951	17.2253
6.95018	16.9716
6.94087	16.8487
6.9316	16.9188
6.92234	17.0264
6.91311	17.1755
6.90391	17.2132
6.89473	17.195
6.88557	17.3079
6.87644	17.5455
6.86733	18.2828
6.85824	18.2795
6.84918	17.7049
6.84015	17.6308
6.83114	17.9142
6.82215	17.9851
6.81319	17.829
6.80424	17.9319
6.79532	18.413
6.78643	18.5292
6.77756	18.2277
6.76871	18.2492
6.75989	18.211
6.75109	18.2269
6.74231	18.4174
6.73355	18.6569
6.72482	18.8281
6.71611	19.0689
6.70742	19.1097
6.69875	18.9179
6.69011	19.1734
6.68149	19.5033
6.67289	19.4163
6.66431	19.2401
6.65576	19.3131
6.64722	20.0371
6.63871	20.9137
6.63022	20.6413
6.62175	20.1221
6.61331	20.0419
6.60488	20.1446
6.59648	20.5884
6.5881	20.7992
6.57974	21.1808
6.5714	21.6342
6.56308	21.3579
6.55478	21.3082
6.54651	21.2256
6.53825	21.1703
6.53001	21.3182
6.5218	21.6252
6.51361	21.4238
6.50544	21.652
6.49729	22.6884
6.48915	22.8578
6.48104	22.3346
6.47295	22.0898
6.46488	21.8621
6.45683	21.9446
6.4488	22.0397
6.44079	22.1256
6.4328	22.4319
6.42482	22.8624
6.41687	23.8845
6.40894	23.6272
6.40103	22.5139
6.39314	22.2121
6.38526	22.2294
6.37741	22.5119
6.36957	22.8325
6.36176	22.6733
6.35396	22.9796
6.34618	23.7081
6.33843	23.515
6.33069	23.0932
6.32297	23.0686
6.31527	23.1049
6.30758	23.085
6.29992	23.066
6.29227	23.1558
6.28465	23.1703
6.27704	23.2157
6.26945	23.2374
6.26188	23.2281
6.25432	23.3009
6.24679	23.4345
6.23927	23.4459
6.23177	23.5568
6.22429	23.7242
6.21683	23.81
6.20938	23.9418
6.20195	24.0559
6.19454	24.3376
6.18715	25.0208
6.17978	24.8244
6.17242	24.4309
6.16508	24.6752
6.15776	24.8818
6.15045	24.7963
6.14317	24.9117
6.1359	24.9093
6.12864	24.8657
6.12141	25.381
6.11419	26.1492
6.10699	25.6967
6.0998	25.1452
6.09263	25.162
6.08549	25.4257
6.07835	26.0475
6.07123	26.2887
6.06413	25.8954
6.05705	26.4575
6.04998	27.8532
6.04293	27.0265
6.0359	25.9311
6.02888	25.7497
6.02187	25.8785
6.01489	26.0156
6.00792	25.7066
6.00096	25.555
5.99403	25.9317
5.98711	25.9504
5.9802	25.4555
5.97331	25.4266
5.96644	25.4586
5.95958	24.9453
5.95274	24.7857
5.94591	24.9643
5.9391	25.7099
5.9323	25.2117
5.92552	24.1595
5.91876	23.7176
5.91201	23.256
5.90528	23.0859
5.89856	23.529
5.89186	23.1461
5.88517	22.9483
5.8785	22.5401
5.87184	21.2602
5.8652	20.8265
5.85857	20.2075
5.85196	19.4901
5.84536	19.0337
5.83878	18.8223
5.83221	18.7554
5.82566	18.7827
5.81912	18.4092
5.81259	17.554
5.80608	17.0977
5.79959	16.8428
5.79311	16.573
5.78665	16.3569
5.78019	16.2352
5.77376	16.4021
5.76734	16.73
5.76093	16.2913
5.75453	16.0428
5.74815	16.2337
5.74179	16.1422
5.73543	16.1227
5.7291	16.3472
5.72277	16.7275
5.71646	17.0941
5.71017	17.4835
5.70389	17.5565
5.69762	17.8606
5.69136	18.3745
5.68513	18.7154
5.6789	19.2393
5.67268	19.6568
5.66648	19.9134
5.6603	20.415
5.65413	20.9578
5.64797	21.6022
5.64182	22.2879
5.63569	22.3007
5.62957	22.3284
5.62347	22.5446
5.61737	22.7405
5.61129	22.897
5.60522	23.0929
5.59917	23.1334
5.59313	23.1434
5.5871	23.46
5.58109	23.8974
5.57509	23.9611
5.5691	23.9077
5.56312	24.1527
5.55716	24.4715
5.55121	24.7328
5.54528	24.8503
5.53935	24.958
5.53344	25.0924
5.52754	25.2636
5.52166	25.3689
5.51578	25.3298
5.50992	25.2174
5.50407	25.2614
5.49823	25.3069
5.49241	25.2888
5.4866	25.2946
5.4808	25.4251
5.47501	25.3632
5.46923	25.3798
5.46347	25.4504
5.45772	25.2991
5.45198	25.2105
5.44625	25.2533
5.44054	25.2504
5.43484	25.2373
5.42914	25.4256
5.42347	25.8445
5.4178	25.834
5.41214	25.746
5.4065	25.8277
5.40087	25.9144
5.39525	26.0493
5.38964	26.1029
5.38404	26.1713
5.37846	26.3033
5.37288	26.4231
5.36732	26.4623
5.36177	26.5502
5.35623	26.7282
5.35071	26.8966
5.34519	26.8434
5.33968	26.8498
5.33419	26.9831
5.32871	27.1094
5.32324	27.3045
5.31778	27.4222
5.31233	27.6087
5.30689	27.8067
5.30147	27.9469
5.29605	28.2187
5.29065	28.4632
5.28525	28.498
5.27987	28.5871
5.2745	28.6595
5.26914	28.682
5.26379	28.7451
5.25845	28.8352
5.25312	28.7726
5.24781	28.789
5.2425	28.8752
5.23721	28.8751
5.23192	28.8195
5.22665	28.8137
5.22138	28.867
5.21613	28.9843
5.21089	28.993
5.20566	28.9293
5.20044	28.979
5.19522	28.9162
5.19002	28.8803
5.18483	28.9074
5.17965	28.9497
5.17448	29.0162
5.16933	29.0759
5.16418	29.1273
5.15904	29.1411
5.15391	29.2373
5.14879	29.4447
5.14368	29.5684
5.13859	29.6072
5.1335	29.7818
5.12842	29.9611
5.12335	30.1189
5.1183	30.3074
5.11325	30.4534
5.10821	30.5902
5.10318	30.7947
5.09817	30.9455
5.09316	31.0678
5.08816	31.1999
5.08317	31.3611
5.07819	31.4574
5.07322	31.5639
5.06826	31.6388
5.06331	31.7939
5.05837	31.9209
5.05344	32.0199
5.04852	32.1818
5.04361	32.3102
5.03871	32.4582
5.03382	32.632
5.02894	32.8175
5.02406	33.0596
5.0192	33.2557
5.01435	33.3181
5.0095	33.4641
5.00467	33.6541
4.99984	33.7469
4.99502	33.8054
4.99021	33.9088
4.98542	34.0454
4.98063	34.196
4.97585	34.2925
4.97108	34.381
4.96632	34.5447
4.96156	34.7418
4.95682	34.9352
4.95209	35.0827
4.94736	35.1535
4.94264	35.2106
4.93794	35.4037
4.93324	35.6846
4.92855	35.8876
4.92387	36.0137
4.9192	36.14
4.91453	36.2644
4.90988	36.4702
4.90524	36.6737
4.9006	36.9032
4.89597	37.1426
4.89135	37.3623
4.88674	37.6076
4.88214	37.8923
4.87755	38.1084
4.87296	38.297
4.86839	38.4916
4.86382	38.6558
4.85926	38.8218
4.85471	39.0787
4.85017	39.2937
4.84564	39.5141
4.84111	39.688
4.8366	39.7982
4.83209	39.9106
4.82759	40.0721
4.8231	40.2703
4.81862	40.4606
4.81415	40.619
4.80968	40.7467
4.80522	40.9297
4.80077	41.1148
4.79633	41.3001
4.7919	41.5374
4.78747	41.767
4.78306	42.0181
4.77865	42.2656
4.77425	42.5033
4.76986	42.7821
4.76547	43.012
4.7611	43.1804
4.75673	43.4017
4.75237	43.6045
4.74802	43.8033
4.74367	43.9994
4.73934	44.2159
4.73501	44.456
4.73069	44.6201
4.72638	44.7346
4.72207	44.9308
4.71777	45.1061
4.71348	45.222
4.7092	45.3821
4.70493	45.6567
4.70066	45.9306
4.69641	46.0582
4.69216	46.2284
4.68791	46.5164
4.68368	46.8401
4.67945	47.1135
4.67523	47.3526
4.67102	47.6382
4.66682	47.9483
4.66262	48.2236
4.65843	48.418
4.65425	48.6545
4.65007	48.9332
4.64591	49.1248
4.64175	49.3692
4.6376	49.6691
4.63345	49.9804
4.62932	50.2643
4.62519	50.4986
4.62106	50.7414
4.61695	50.909
4.61284	51.0991
4.60874	51.3719
4.60465	51.6178
4.60056	51.7528
4.59648	51.8489
4.59241	51.9157
4.58835	51.9875
4.58429	52.1505
4.58024	52.239
4.5762	52.2482
4.57216	52.2218
4.56814	52.253
4.56411	52.2928
4.5601	52.271
4.55609	52.275
4.55209	52.3751
4.5481	52.4501
4.54411	52.4347
4.54013	52.419
4.53616	52.4448
4.5322	52.5035
4.52824	52.4997
4.52429	52.4841
4.52034	52.4749
4.51641	52.43
4.51247	52.4447
4.50855	52.4957
4.50463	52.5124
4.50072	52.5937
4.49682	52.729
4.49292	52.8976
4.48903	53.0336
4.48515	53.2632
4.48127	53.5533
4.4774	53.8506
4.47354	54.0959
4.46968	54.2657
4.46584	54.4893
4.46199	54.78
4.45815	54.9456
4.45432	55.0973
4.4505	55.3357
4.44668	55.5646
4.44287	55.7417
4.43907	55.9895
4.43527	56.2937
4.43148	56.5899
4.4277	56.7989
4.42392	57.0196
4.42015	57.2038
4.41638	57.3381
4.41262	57.4857
4.40887	57.7396
4.40513	57.959
4.40139	58.1502
4.39765	58.4539
4.39393	58.7261
4.39021	58.941
4.38649	59.1482
4.38278	59.2877
4.37908	59.4066
4.37539	59.6601
4.3717	59.901
4.36801	60.0462
4.36434	60.2182
4.36067	60.4421
4.357	60.6394
4.35335	60.7643
4.34969	60.854
4.34605	60.9029
4.34241	60.9897
4.33877	61.1136
4.33514	61.2054
4.33152	61.302
4.32791	61.466
4.3243	61.5766
4.32069	61.7351
4.3171	61.8302
4.31351	61.8895
4.30992	61.9808
4.30634	61.9902
4.30277	62.0198
4.2992	62.2163
4.29564	62.3877
4.29208	62.491
4.28853	62.5529
4.28499	62.6255
4.28145	62.6668
4.27792	62.6483
4.27439	62.6414
4.27087	62.7354
4.26735	62.8151
4.26384	62.8258
4.26034	62.7812
4.25684	62.7969
4.25335	62.816
4.24986	62.906
4.24638	63.0364
4.24291	63.2078
4.23944	63.3578
4.23598	63.4187
4.23252	63.4183
4.22906	63.4257
4.22562	63.3733
4.22218	63.3226
4.21874	63.3443
4.21531	63.3417
4.21189	63.3278
4.20847	63.3118
4.20506	63.2367
4.20165	63.217
4.19825	63.2367
4.19485	63.2405
4.19146	63.2598
4.18807	63.3595
4.18469	63.4288
4.18132	63.4318
4.17795	63.4046
4.17458	63.4286
4.17123	63.4804
4.16787	63.5159
4.16453	63.5324
4.16118	63.5076
4.15785	63.5007
4.15451	63.5201
4.15119	63.5231
4.14787	63.5818
4.14455	63.5976
4.14124	63.5675
4.13794	63.5607
4.13464	63.533
4.13134	63.5105
4.12805	63.531
4.12477	63.4936
4.12149	63.4339
4.11822	63.3952
4.11495	63.4055
4.11168	63.3456
4.10843	63.3447
4.10517	63.3687
4.10192	63.3605
4.09868	63.3411
4.09545	63.3274
4.09221	63.2578
4.08899	63.154
4.08576	63.1514
4.08255	63.1174
4.07933	63.0019
4.07613	62.9753
4.07292	62.9883
4.06973	62.9271
4.06654	62.849
4.06335	62.8792
4.06017	62.9029
4.05699	62.8728
4.05382	62.8623
4.05065	62.8842
4.04749	62.8937
4.04433	62.8234
4.04118	62.7315
4.03803	62.6775
4.03489	62.6995
4.03175	62.7058
4.02862	62.6354
4.02549	62.6862
4.02237	62.6993
4.01925	62.7052
4.01614	62.8128
4.01303	62.8629
4.00993	62.8666
4.00683	62.8423
4.00373	62.7604
4.00064	62.7901
3.99756	62.7519
3.99448	62.6555
3.9914	62.4804
3.98833	62.305
3.98527	62.1053
3.98221	61.9272
3.97915	61.8408
3.9761	61.8684
3.97305	62.0268
3.97001	62.2652
3.96697	62.5154
3.96394	62.7337
3.96091	62.9041
3.95789	63.0112
3.95487	63.0466
3.95186	63.1862
3.94885	63.2539
3.94584	63.3567
3.94284	63.4226
3.93984	63.428
3.93685	63.4947
3.93386	63.5344
3.93088	63.602
3.9279	63.6381
3.92493	63.6637
3.92196	63.7021
3.919	63.7998
3.91604	63.9021
3.91308	64.0096
3.91013	64.0111
3.90718	63.9556
3.90424	64.0429
3.9013	64.1588
3.89837	64.1988
3.89544	64.1662
3.89252	64.1537
3.8896	64.2056
3.88668	64.1716
3.88377	64.1373
3.88086	64.1235
3.87796	64.1184
3.87506	64.1002
3.87217	64.0675
3.86928	63.9598
3.86639	63.7971
3.86351	63.7084
3.86064	63.6411
3.85776	63.5479
3.8549	63.4018
3.85203	63.2907
3.84917	63.2629
3.84631	63.2143
3.84346	63.0683
3.84062	62.8707
3.83777	62.7831
3.83494	62.7467
3.8321	62.6337
3.82927	62.5449
3.82644	62.4377
3.82362	62.3112
3.82081	62.2509
3.81799	62.206
3.81518	62.0965
3.81238	62.0178
3.80958	61.9873
3.80678	61.912
3.80399	61.9201
3.8012	61.9484
3.79841	61.9007
3.79563	61.8173
3.79286	61.777
3.79008	61.7952
3.78731	61.7355
3.78455	61.7483
3.78179	61.7995
3.77903	61.7647
3.77628	61.738
3.77353	61.8227
3.77079	61.9032
3.76805	61.9707
3.76531	62.0142
3.76258	62.0231
3.75985	62.0196
3.75713	62.0901
3.7544	62.1612
3.75169	62.1579
3.74898	62.1486
3.74627	62.188
3.74356	62.2456
3.74086	62.2457
3.73816	62.301
3.73547	62.3389
3.73278	62.2074
3.7301	62.1428
3.72741	62.2324
3.72474	62.2318
3.72206	62.1581
3.71939	62.0845
3.71673	62.0297
3.71406	61.9798
3.71141	61.9133
3.70875	61.7857
3.7061	61.7034
3.70345	61.6596
3.70081	61.6179
3.69817	61.4565
3.69553	61.2977
3.6929	61.2486
3.69027	61.1533
3.68765	61.0853
3.68503	60.9557
3.68241	60.7637
3.6798	60.5866
3.67719	60.5285
3.67458	60.4414
3.67198	60.3325
3.66938	60.2552
3.66678	60.1896
3.66419	60.1232
3.66161	60.105
3.65902	60.0123
3.65644	59.9001
3.65387	59.7914
3.65129	59.772
3.64872	59.899
3.64616	59.9543
3.64359	59.9316
3.64103	59.9027
3.63848	59.9337
3.63593	60.0067
3.63338	60.0593
3.63084	60.0821
3.6283	60.1686
3.62576	60.2425
3.62322	60.2641
3.62069	60.3182
3.61817	60.3654
3.61564	60.3746
3.61312	60.4057
3.61061	60.4653
3.6081	60.4776
3.60559	60.4598
3.60308	60.4381
3.60058	60.4631
3.59808	60.4811
3.59558	60.4069
3.59309	60.3238
3.59061	60.2999
3.58812	60.2642
3.58564	60.1887
3.58316	60.1466
3.58069	60.1262
3.57822	60.103
3.57575	60.0381
3.57328	59.9712
3.57082	59.8957
3.56836	59.7836
3.56591	59.704
3.56346	59.6557
3.56101	59.5922
3.55857	59.4597
3.55613	59.4136
3.55369	59.3904
3.55126	59.3158
3.54883	59.2655
3.5464	59.1657
3.54397	59.0127
3.54155	58.9041
3.53914	58.8186
3.53672	58.7324
3.53431	58.6643
3.5319	58.5605
3.5295	58.4446
3.5271	58.3999
3.5247	58.2778
3.52231	58.1315
3.51991	58.0005
3.51753	57.8417
3.51514	57.6886
3.51276	57.4449
3.51038	57.163
3.50801	56.9933
3.50563	56.7743
3.50327	56.5639
3.5009	56.453
3.49854	56.4211
3.49618	56.4175
3.49382	56.48
3.49147	56.5668
3.48912	56.5822
3.48677	56.6317
3.48443	56.6474
3.48209	56.5309
3.47975	56.4203
3.47742	56.3026
3.47509	56.212
3.47276	56.1324
