Name: Johannsenite Ca(Mn,Fe^2+)(SiO_3)_2
Type: Mineral
Class: Silicates
Subclass: Inosilicates
Particle Size: 45-125um
Sample No.: IN-12A
Owner: JPL
Wavelength range: IR
Origin: USA, Arizona, Graham County, Aravaipa
Collected by Burminco
Description: 





Measurement: Hemispherical reflectance
First Column: X
Second Column: Y
X Units:  Wavelength (micrometers)
Y Units:  Reflectance (percent)
First X Value: 15.3853
Last X Value: 2.00032
Number of X Values: 2256
Additional information: in12aa.txt
 
15.3853	2.32731
15.3397	2.65714
15.2945	2.76683
15.2495	2.50515
15.2048	2.49311
15.1603	2.69995
15.1161	2.71176
15.0722	2.61283
15.0285	2.78505
14.9851	2.84056
14.9419	2.82352
14.8989	2.50661
14.8563	2.19272
14.8138	2.2463
14.7716	2.33743
14.7296	2.29415
14.6879	2.33531
14.6464	2.31764
14.6052	2.31872
14.5641	2.37299
14.5233	2.37275
14.4828	2.50847
14.4424	2.67593
14.4023	2.68111
14.3624	2.64748
14.3227	2.75574
14.2833	2.76042
14.244	2.64373
14.205	2.8591
14.1662	3.00318
14.1276	2.90528
14.0892	2.96858
14.051	3.01447
14.0131	2.84337
13.9753	2.89604
13.9377	3.11122
13.9004	3.15958
13.8632	3.08101
13.8262	3.10646
13.7895	3.21901
13.7529	3.42434
13.7165	3.60004
13.6803	3.71411
13.6443	3.62866
13.6085	3.41876
13.5729	3.54099
13.5374	3.8083
13.5022	3.6546
13.4671	3.55543
13.4322	3.88116
13.3975	4.13205
13.363	4.04776
13.3286	3.81422
13.2944	3.69283
13.2604	3.83595
13.2266	3.93059
13.193	4.01332
13.1595	4.13533
13.1262	4.08753
13.093	4.1159
13.06	4.17247
13.0272	4.23738
12.9946	4.23885
12.9621	4.23238
12.9298	4.33011
12.8976	4.3656
12.8656	4.34226
12.8337	4.31973
12.8021	4.38387
12.7705	4.52494
12.7391	4.67997
12.7079	4.6984
12.6769	4.66877
12.6459	4.68905
12.6152	4.61633
12.5845	4.61726
12.5541	4.79392
12.5238	4.8193
12.4936	4.86419
12.4635	4.93317
12.4337	5.03589
12.4039	5.19604
12.3743	5.18442
12.3448	5.15445
12.3155	5.32754
12.2863	5.45448
12.2573	5.46104
12.2284	5.54873
12.1996	5.719
12.171	5.89113
12.1425	6.03145
12.1141	6.15962
12.0859	6.32169
12.0578	6.53259
12.0298	6.76164
12.0019	6.93092
11.9742	7.22655
11.9466	7.65851
11.9192	8.06723
11.8918	8.30416
11.8646	8.66451
11.8375	9.14124
11.8106	9.53109
11.7837	9.9672
11.757	10.4482
11.7304	10.8465
11.7039	11.0868
11.6776	11.2189
11.6513	11.3551
11.6252	11.4023
11.5992	11.4836
11.5733	11.5965
11.5475	11.6022
11.5219	11.566
11.4963	11.597
11.4709	11.6897
11.4455	11.6688
11.4203	11.732
11.3952	11.9576
11.3702	11.9383
11.3454	11.8634
11.3206	11.7737
11.2959	11.6091
11.2714	11.6322
11.2469	11.6871
11.2226	11.5583
11.1983	11.3145
11.1742	11.3091
11.1502	11.4015
11.1263	11.4823
11.1024	11.538
11.0787	11.4732
11.0551	11.4292
11.0316	11.5181
11.0081	11.543
10.9848	11.4507
10.9616	11.2359
10.9385	11.0625
10.9154	10.9275
10.8925	10.7061
10.8697	10.3427
10.8469	9.6506
10.8243	9.0197
10.8017	8.66266
10.7793	8.55105
10.7569	8.65797
10.7346	8.69829
10.7125	8.57096
10.6904	8.66742
10.6684	8.90562
10.6465	9.02044
10.6247	9.04315
10.6029	9.13239
10.5813	9.26209
10.5597	9.28747
10.5383	9.35275
10.5169	9.46896
10.4956	9.43814
10.4744	9.35437
10.4533	9.11157
10.4323	8.53948
10.4113	8.12216
10.3904	7.78358
10.3697	7.4004
10.349	7.01937
10.3284	6.4959
10.3078	5.96178
10.2874	5.45953
10.267	5.064
10.2467	4.7594
10.2265	4.51869
10.2064	4.42397
10.1863	4.42194
10.1663	4.49154
10.1464	4.45496
10.1266	4.47821
10.1069	4.74834
10.0872	4.90799
10.0676	4.92982
10.0481	4.87679
10.0287	4.96658
10.0093	5.16357
9.99005	5.22393
9.97084	5.17204
9.95169	5.19386
9.93263	5.25861
9.91364	5.1903
9.89472	5.06564
9.87587	5.18508
9.8571	5.14763
9.83839	5.12187
9.81976	5.29271
9.80119	5.44142
9.78271	5.42673
9.76428	5.45557
9.74592	5.71781
9.72764	5.86427
9.70943	5.93501
9.69128	6.04483
9.6732	6.3008
9.65518	6.49469
9.63724	6.67985
9.61935	7.16079
9.60155	7.53038
9.5838	7.64716
9.56611	7.92897
9.5485	8.19187
9.53094	8.49795
9.51345	9.05222
9.49604	9.51117
9.47867	9.73043
9.46137	10.0557
9.44414	10.5586
9.42697	10.8445
9.40986	10.9293
9.39281	11.0618
9.37583	11.1042
9.35891	10.9413
9.34204	10.9566
9.32524	11.0484
9.3085	11.0158
9.29182	10.9893
9.27519	10.943
9.25863	10.914
9.24213	10.9717
9.22568	11.098
9.2093	11.0481
9.19297	10.8514
9.17669	10.6875
9.16048	10.7623
9.14433	10.9175
9.12823	10.9455
9.11218	10.9896
9.0962	11.0573
9.08027	10.959
9.06439	10.9456
9.04858	10.9608
9.03281	10.8915
9.0171	10.8384
9.00145	10.8263
8.98585	10.6058
8.9703	10.4201
8.9548	10.3514
8.93937	10.0294
8.92398	9.30965
8.90865	8.65035
8.89337	8.10841
8.87814	7.51266
8.86296	7.01731
8.84784	6.57015
8.83277	6.17142
8.81774	5.70093
8.80277	5.29267
8.78786	4.9775
8.77298	4.57989
8.75816	4.23028
8.7434	3.98089
8.72868	3.78514
8.714	3.64451
8.69938	3.51736
8.68481	3.31223
8.67029	3.13732
8.65581	2.91427
8.64139	2.74062
8.62701	2.73823
8.61268	2.83228
8.5984	2.93632
8.58416	2.85766
8.56997	2.72076
8.55583	2.7319
8.54174	2.84151
8.52769	2.80692
8.51368	2.71587
8.49973	2.6569
8.48582	2.6652
8.47195	2.6742
8.45813	2.6792
8.44436	2.6263
8.43062	2.60786
8.41693	2.65721
8.4033	2.58942
8.3897	2.58047
8.37614	2.69916
8.36264	2.66149
8.34917	2.49171
8.33574	2.45955
8.32236	2.50756
8.30903	2.64335
8.29573	2.56225
8.28248	2.63396
8.26927	2.7202
8.2561	2.72854
8.24298	2.73931
8.2299	2.82342
8.21685	2.89751
8.20385	2.86282
8.19089	2.84397
8.17797	2.84504
8.16509	2.82585
8.15225	2.82043
8.13946	2.76903
8.1267	2.86831
8.11398	2.90651
8.10131	2.75873
8.08867	2.67679
8.07606	2.76105
8.0635	2.80289
8.05099	2.79157
8.0385	2.84335
8.02606	2.97067
8.01366	3.0462
8.00129	2.96393
7.98896	2.88818
7.97667	3.02302
7.96442	3.17249
7.9522	3.29299
7.94002	3.41181
7.92788	3.49936
7.91578	3.53301
7.90371	3.60228
7.89168	3.80206
7.87969	3.89563
7.86773	3.90119
7.85581	3.92939
7.84392	3.97736
7.83207	4.10105
7.82026	4.13886
7.80849	4.16975
7.79674	4.24415
7.78503	4.41578
7.77337	4.49338
7.76173	4.60016
7.75012	4.69957
7.73856	4.76088
7.72703	4.81074
7.71553	4.78403
7.70406	4.80159
7.69263	4.85575
7.68123	4.89081
7.66987	4.94265
7.65855	4.96358
7.64725	4.93377
7.63598	4.96326
7.62475	5.02333
7.61356	4.94412
7.60239	4.88338
7.59126	4.91914
7.58017	4.94277
7.5691	4.95845
7.55806	4.94033
7.54707	4.98751
7.5361	5.07221
7.52516	5.13924
7.51425	5.21693
7.50338	5.29568
7.49253	5.43696
7.48172	5.55568
7.47094	5.62027
7.46019	5.671
7.44947	5.72703
7.43879	5.73922
7.42813	5.63532
7.4175	5.6132
7.4069	5.62536
7.39634	5.6382
7.3858	5.66703
7.37529	5.64256
7.36482	5.62635
7.35437	5.64558
7.34396	5.65595
7.33357	5.58806
7.32321	5.53953
7.31288	5.54032
7.30258	5.48077
7.29231	5.46986
7.28207	5.5601
7.27185	5.60608
7.26167	5.61062
7.25152	5.71173
7.24139	5.7324
7.23129	5.68958
7.22122	5.70581
7.21117	5.83489
7.20116	5.93584
7.19117	5.93118
7.18121	5.90774
7.17128	5.96107
7.16137	6.00718
7.1515	5.99101
7.14164	5.99059
7.13182	5.87602
7.12203	5.82644
7.11225	5.9581
7.10251	6.0792
7.0928	6.10345
7.08311	6.02269
7.07344	6.00007
7.06381	6.00467
7.0542	5.98136
7.04461	5.99162
7.03506	5.90262
7.02552	5.85854
7.01601	5.89952
7.00653	5.93234
6.99708	5.95636
6.98765	5.899
6.97824	5.84285
6.96886	5.88044
6.95951	5.86589
6.95018	5.73156
6.94087	5.73177
6.9316	5.75887
6.92234	5.69174
6.91311	5.64663
6.90391	5.71439
6.89473	5.70822
6.88557	5.67624
6.87644	5.7154
6.86733	5.73849
6.85824	5.6814
6.84918	5.61456
6.84015	5.51713
6.83114	5.58794
6.82215	5.58381
6.81319	5.46062
6.80424	5.35846
6.79532	5.34971
6.78643	5.44147
6.77756	5.3339
6.76871	5.25486
6.75989	5.29601
6.75109	5.3908
6.74231	5.40266
6.73355	5.42497
6.72482	5.53986
6.71611	5.61937
6.70742	5.66459
6.69875	5.59027
6.69011	5.64373
6.68149	5.76169
6.67289	5.66881
6.66431	5.57303
6.65576	5.61986
6.64722	5.75217
6.63871	5.86404
6.63022	5.8144
6.62175	5.77999
6.61331	5.826
6.60488	5.83224
6.59648	5.83947
6.5881	5.844
6.57974	5.86324
6.5714	5.93108
6.56308	5.83475
6.55478	5.81216
6.54651	5.83905
6.53825	5.85871
6.53001	5.9401
6.5218	5.96854
6.51361	5.93689
6.50544	6.08668
6.49729	6.31227
6.48915	6.31562
6.48104	6.25327
6.47295	6.31205
6.46488	6.32882
6.45683	6.22062
6.4488	6.20105
6.44079	6.2944
6.4328	6.37709
6.42482	6.32476
6.41687	6.38787
6.40894	6.32434
6.40103	6.1609
6.39314	6.11386
6.38526	6.04989
6.37741	5.9867
6.36957	5.92396
6.36176	5.7763
6.35396	5.73221
6.34618	5.82867
6.33843	5.80773
6.33069	5.69426
6.32297	5.64286
6.31527	5.68238
6.30758	5.74604
6.29992	5.77191
6.29227	5.72304
6.28465	5.71853
6.27704	5.69535
6.26945	5.59004
6.26188	5.49684
6.25432	5.45664
6.24679	5.42205
6.23927	5.31089
6.23177	5.21065
6.22429	5.03281
6.21683	4.83476
6.20938	4.66982
6.20195	4.56105
6.19454	4.44977
6.18715	4.38739
6.17978	4.22719
6.17242	4.08417
6.16508	4.05466
6.15776	3.9848
6.15045	3.92215
6.14317	3.98432
6.1359	4.01008
6.12864	4.04284
6.12141	4.05277
6.11419	4.04872
6.10699	3.99687
6.0998	4.04992
6.09263	4.14971
6.08549	4.165
6.07835	4.1687
6.07123	4.31038
6.06413	4.39489
6.05705	4.59505
6.04998	4.86752
6.04293	4.80922
6.0359	4.82173
6.02888	5.05739
6.02187	5.30809
6.01489	5.56892
6.00792	5.68475
6.00096	5.85169
5.99403	6.19504
5.98711	6.44359
5.9802	6.5764
5.97331	6.78362
5.96644	7.03853
5.95958	7.26978
5.95274	7.55539
5.94591	7.81285
5.9391	8.15278
5.9323	8.3802
5.92552	8.53866
5.91876	8.75285
5.91201	8.86289
5.90528	9.07997
5.89856	9.49783
5.89186	9.83678
5.88517	10.2025
5.8785	10.4276
5.87184	10.4881
5.8652	10.8405
5.85857	11.0593
5.85196	11.2834
5.84536	11.6367
5.83878	11.9705
5.83221	12.2655
5.82566	12.6455
5.81912	12.8449
5.81259	12.955
5.80608	13.1188
5.79959	13.2083
5.79311	13.3081
5.78665	13.5564
5.78019	13.7641
5.77376	14.0418
5.76734	14.3882
5.76093	14.3739
5.75453	14.4502
5.74815	14.6676
5.74179	14.7363
5.73543	14.8134
5.7291	14.9378
5.72277	15.1304
5.71646	15.2686
5.71017	15.4098
5.70389	15.3703
5.69762	15.3833
5.69136	15.4788
5.68513	15.5176
5.6789	15.5553
5.67268	15.6187
5.66648	15.6119
5.6603	15.6706
5.65413	15.7484
5.64797	15.8271
5.64182	15.9074
5.63569	15.7465
5.62957	15.5029
5.62347	15.2837
5.61737	15.187
5.61129	15.0258
5.60522	14.7698
5.59917	14.4993
5.59313	14.1959
5.5871	14.0047
5.58109	13.8978
5.57509	13.6733
5.5691	13.489
5.56312	13.4216
5.55716	13.4626
5.55121	13.6081
5.54528	13.8361
5.53935	14.1562
5.53344	14.4224
5.52754	14.5921
5.52166	14.6526
5.51578	14.6427
5.50992	14.6186
5.50407	14.5858
5.49823	14.4612
5.49241	14.3126
5.4866	14.1617
5.4808	13.9951
5.47501	13.7916
5.46923	13.6896
5.46347	13.6157
5.45772	13.4847
5.45198	13.4781
5.44625	13.4085
5.44054	13.2496
5.43484	13.1859
5.42914	13.2046
5.42347	13.3291
5.4178	13.256
5.41214	13.029
5.4065	12.8683
5.40087	12.7809
5.39525	12.6839
5.38964	12.5851
5.38404	12.533
5.37846	12.4487
5.37288	12.3189
5.36732	12.2852
5.36177	12.3068
5.35623	12.2125
5.35071	12.1817
5.34519	12.1747
5.33968	12.1372
5.33419	12.1286
5.32871	12.1177
5.32324	12.1859
5.31778	12.3272
5.31233	12.3611
5.30689	12.3662
5.30147	12.4994
5.29605	12.6607
5.29065	12.7606
5.28525	12.8962
5.27987	13.066
5.2745	13.1658
5.26914	13.1958
5.26379	13.1943
5.25845	13.1911
5.25312	13.2172
5.24781	13.1918
5.2425	13.1573
5.23721	13.2309
5.23192	13.2053
5.22665	13.1351
5.22138	13.1041
5.21613	13.059
5.21089	12.9621
5.20566	12.9242
5.20044	12.7786
5.19522	12.613
5.19002	12.5094
5.18483	12.3651
5.17965	12.0914
5.17448	11.8065
5.16933	11.5308
5.16418	11.3844
5.15904	11.3254
5.15391	11.2198
5.14879	11.1085
5.14368	10.9997
5.13859	10.885
5.1335	10.8203
5.12842	10.7779
5.12335	10.8029
5.1183	10.8579
5.11325	10.8787
5.10821	10.8444
5.10318	10.8905
5.09817	10.9834
5.09316	11.0985
5.08816	11.2388
5.08317	11.42
5.07819	11.4607
5.07322	11.5441
5.06826	11.6961
5.06331	11.9548
5.05837	12.1148
5.05344	12.098
5.04852	12.2052
5.04361	12.3176
5.03871	12.4199
5.03382	12.5521
5.02894	12.5269
5.02406	12.5429
5.0192	12.6481
5.01435	12.6967
5.0095	12.7942
5.00467	12.8957
4.99984	12.8794
4.99502	12.8318
4.99021	12.8146
4.98542	12.8418
4.98063	12.8768
4.97585	12.9447
4.97108	12.9242
4.96632	13.021
4.96156	13.169
4.95682	13.2301
4.95209	13.2359
4.94736	13.2339
4.94264	13.2594
4.93794	13.2715
4.93324	13.3439
4.92855	13.4358
4.92387	13.416
4.9192	13.3089
4.91453	13.3231
4.90988	13.4819
4.90524	13.604
4.9006	13.6235
4.89597	13.6946
4.89135	13.7916
4.88674	13.8597
4.88214	13.9363
4.87755	13.9936
4.87296	14.1227
4.86839	14.1931
4.86382	14.2258
4.85926	14.3765
4.85471	14.6154
4.85017	14.7786
4.84564	14.9275
4.84111	15.0339
4.8366	15.1701
4.83209	15.3334
4.82759	15.4619
4.8231	15.5804
4.81862	15.7007
4.81415	15.769
4.80968	15.9162
4.80522	16.1097
4.80077	16.2889
4.79633	16.4549
4.7919	16.5959
4.78747	16.8166
4.78306	17.0515
4.77865	17.174
4.77425	17.2394
4.76986	17.4066
4.76547	17.5159
4.7611	17.5333
4.75673	17.5965
4.75237	17.7107
4.74802	17.7901
4.74367	17.9219
4.73934	18.0827
4.73501	18.1618
4.73069	18.2285
4.72638	18.3113
4.72207	18.4368
4.71777	18.5044
4.71348	18.5078
4.7092	18.5468
4.70493	18.572
4.70066	18.6003
4.69641	18.5639
4.69216	18.4956
4.68791	18.5352
4.68368	18.6017
4.67945	18.6471
4.67523	18.746
4.67102	18.8849
4.66682	19.0386
4.66262	19.2734
4.65843	19.3814
4.65425	19.4737
4.65007	19.728
4.64591	19.9126
4.64175	20.0154
4.6376	20.1817
4.63345	20.4001
4.62932	20.5137
4.62519	20.5745
4.62106	20.7516
4.61695	20.8974
4.61284	20.9962
4.60874	21.1018
4.60465	21.2154
4.60056	21.3137
4.59648	21.3851
4.59241	21.4232
4.58835	21.4283
4.58429	21.5404
4.58024	21.7387
4.5762	21.8885
4.57216	21.9684
4.56814	22.082
4.56411	22.2538
4.5601	22.3929
4.55609	22.4942
4.55209	22.5301
4.5481	22.5922
4.54411	22.708
4.54013	22.7961
4.53616	22.76
4.5322	22.7271
4.52824	22.7495
4.52429	22.8357
4.52034	22.8238
4.51641	22.8389
4.51247	22.9147
4.50855	22.9281
4.50463	22.9548
4.50072	22.999
4.49682	23.0813
4.49292	23.1393
4.48903	23.139
4.48515	23.0831
4.48127	23.0776
4.4774	23.1511
4.47354	23.1801
4.46968	23.2179
4.46584	23.3211
4.46199	23.3814
4.45815	23.3517
4.45432	23.3718
4.4505	23.4017
4.44668	23.4266
4.44287	23.5184
4.43907	23.5833
4.43527	23.5679
4.43148	23.5677
4.4277	23.5893
4.42392	23.6082
4.42015	23.619
4.41638	23.7101
4.41262	23.7402
4.40887	23.7521
4.40513	23.7918
4.40139	23.8686
4.39765	23.9396
4.39393	24.0314
4.39021	24.0424
4.38649	23.9838
4.38278	23.9437
4.37908	24.0188
4.37539	24.1265
4.3717	24.1489
4.36801	24.1782
4.36434	24.2461
4.36067	24.3424
4.357	24.3873
4.35335	24.39
4.34969	24.3332
4.34605	24.3617
4.34241	24.4663
4.33877	24.5614
4.33514	24.5973
4.33152	24.5725
4.32791	24.6349
4.3243	24.6917
4.32069	24.6648
4.3171	24.7286
4.31351	24.815
4.30992	24.8
4.30634	24.8388
4.30277	24.9182
4.2992	24.9883
4.29564	25.0489
4.29208	25.0838
4.28853	25.0865
4.28499	25.0454
4.28145	24.9409
4.27792	24.9596
4.27439	25.0901
4.27087	25.2225
4.26735	25.3101
4.26384	25.3716
4.26034	25.4414
4.25684	25.4994
4.25335	25.5711
4.24986	25.5795
4.24638	25.6359
4.24291	25.7258
4.23944	25.715
4.23598	25.6925
4.23252	25.6777
4.22906	25.7119
4.22562	25.7788
4.22218	25.8824
4.21874	26.0245
4.21531	26.058
4.21189	26.0417
4.20847	26.0794
4.20506	26.1883
4.20165	26.2637
4.19825	26.2814
4.19485	26.2749
4.19146	26.2695
4.18807	26.2934
4.18469	26.3794
4.18132	26.5127
4.17795	26.5508
4.17458	26.537
4.17123	26.571
4.16787	26.6109
4.16453	26.5785
4.16118	26.6602
4.15785	26.7204
4.15451	26.6634
4.15119	26.7097
4.14787	26.7674
4.14455	26.7166
4.14124	26.6446
4.13794	26.6285
4.13464	26.6938
4.13134	26.7389
4.12805	26.7274
4.12477	26.7514
4.12149	26.7719
4.11822	26.7854
4.11495	26.8119
4.11168	26.8205
4.10843	26.8401
4.10517	26.8053
4.10192	26.7115
4.09868	26.6865
4.09545	26.6783
4.09221	26.6589
4.08899	26.6979
4.08576	26.67
4.08255	26.6186
4.07933	26.6154
4.07613	26.5668
4.07292	26.4829
4.06973	26.4122
4.06654	26.3219
4.06335	26.2365
4.06017	26.1615
4.05699	26.0303
4.05382	25.9201
4.05065	25.8375
4.04749	25.7093
4.04433	25.5504
4.04118	25.3341
4.03803	25.063
4.03489	24.7911
4.03175	24.5643
4.02862	24.3927
4.02549	24.2272
4.02237	24.0945
4.01925	23.9052
4.01614	23.6814
4.01303	23.5844
4.00993	23.4711
4.00683	23.315
4.00373	23.1081
4.00064	22.9439
3.99756	22.8252
3.99448	22.6451
3.9914	22.4455
3.98833	22.3003
3.98527	22.2008
3.98221	22.0645
3.97915	21.9989
3.9761	21.9321
3.97305	21.8671
3.97001	21.8566
3.96697	21.8956
3.96394	21.935
3.96091	21.9876
3.95789	22.0877
3.95487	22.1137
3.95186	22.2979
3.94885	22.5106
3.94584	22.6056
3.94284	22.7149
3.93984	22.9018
3.93685	23.1023
3.93386	23.2112
3.93088	23.2586
3.9279	23.3529
3.92493	23.4578
3.92196	23.4071
3.919	23.3627
3.91604	23.3142
3.91308	23.2619
3.91013	23.2498
3.90718	23.2291
3.90424	23.2919
3.9013	23.2891
3.89837	23.1685
3.89544	23.1626
3.89252	23.1749
3.8896	23.1184
3.88668	22.9995
3.88377	22.9427
3.88086	22.9048
3.87796	22.952
3.87506	22.9841
3.87217	22.9457
3.86928	22.8975
3.86639	22.8644
3.86351	22.7611
3.86064	22.6698
3.85776	22.6501
3.8549	22.6159
3.85203	22.5424
3.84917	22.5245
3.84631	22.5253
3.84346	22.4567
3.84062	22.4474
3.83777	22.5029
3.83494	22.4996
3.8321	22.4611
3.82927	22.4986
3.82644	22.5034
3.82362	22.4715
3.82081	22.4197
3.81799	22.3997
3.81518	22.488
3.81238	22.6171
3.80958	22.6466
3.80678	22.5533
3.80399	22.5505
3.8012	22.6551
3.79841	22.6062
3.79563	22.5064
3.79286	22.5601
3.79008	22.7187
3.78731	22.7921
3.78455	22.6923
3.78179	22.5384
3.77903	22.4771
3.77628	22.4592
3.77353	22.4036
3.77079	22.3288
3.76805	22.2291
3.76531	22.1562
3.76258	22.19
3.75985	22.0664
3.75713	21.9379
3.7544	21.8557
3.75169	21.7732
3.74898	21.7372
3.74627	21.6605
3.74356	21.57
3.74086	21.446
3.73816	21.3415
3.73547	21.2563
3.73278	21.1374
3.7301	21.0504
3.72741	21.0773
3.72474	21.0716
3.72206	20.9138
3.71939	20.8254
3.71673	20.8054
3.71406	20.6986
3.71141	20.5642
3.70875	20.4953
3.7061	20.4191
3.70345	20.2884
3.70081	20.1857
3.69817	20.0726
3.69553	19.9823
3.6929	19.9323
3.69027	19.8523
3.68765	19.7968
3.68503	19.7195
3.68241	19.5723
3.6798	19.4975
3.67719	19.4441
3.67458	19.3419
3.67198	19.2488
3.66938	19.203
3.66678	19.1826
3.66419	19.0794
3.66161	18.942
3.65902	18.7975
3.65644	18.6882
3.65387	18.6098
3.65129	18.5603
3.64872	18.578
3.64616	18.4142
3.64359	18.2722
3.64103	18.2526
3.63848	18.233
3.63593	18.1251
3.63338	17.9575
3.63084	17.8842
3.6283	17.8132
3.62576	17.6739
3.62322	17.5773
3.62069	17.5209
3.61817	17.4682
3.61564	17.3904
3.61312	17.3161
3.61061	17.2247
3.6081	17.1353
3.60559	17.1003
3.60308	16.9816
3.60058	16.8431
3.59808	16.7915
3.59558	16.7436
3.59309	16.6689
3.59061	16.542
3.58812	16.4244
3.58564	16.241
3.58316	16.1367
3.58069	16.0724
3.57822	15.9548
3.57575	15.8824
3.57328	15.8578
3.57082	15.7022
3.56836	15.5446
3.56591	15.5536
3.56346	15.5448
3.56101	15.3456
3.55857	15.2047
3.55613	15.1717
3.55369	15.1611
3.55126	15.0357
3.54883	14.8079
3.5464	14.655
3.54397	14.6359
3.54155	14.7117
3.53914	14.6149
3.53672	14.3875
3.53431	14.2678
3.5319	14.1943
3.5295	14.04
3.5271	13.8957
3.5247	13.8005
3.52231	13.6297
3.51991	13.5427
3.51753	13.4499
3.51514	13.2624
3.51276	13.1818
3.51038	13.1431
3.50801	13.1342
3.50563	13.0292
3.50327	12.9186
3.5009	12.8508
3.49854	12.728
3.49618	12.6183
3.49382	12.5158
3.49147	12.4358
3.48912	12.3738
3.48677	12.3568
3.48443	12.2789
3.48209	12.0546
3.47975	11.9867
3.47742	11.9485
3.47509	11.9069
3.47276	11.8599
3.47044	11.8465
3.46812	11.9547
