Name: Nontronite Na_0.33Fe_2^3+(Si,Al)_4O_10(OH)_2.H_2O
Type: Mineral
Class: Silicates
Subclass: Phyllosilicates
Particle Size: 0-45um
Sample No.: PS-6B
Owner: JPL
Wavelength range: IR
Origin: Germany, Westphalia, Hohen Hagen
Collected by Clay Mineral Society
Description: 





Measurement: Hemispherical reflectance
First Column: X
Second Column: Y
X Units:  Wavelength (micrometers)
Y Units:  Reflectance (percent)
First X Value: 15.3853
Last X Value: 2.00032
Number of X Values: 2256
Additional information: ps06ba.txt
 
15.3853	1.96315
15.3397	1.84943
15.2945	2.14098
15.2495	1.93685
15.2048	1.61277
15.1603	1.85924
15.1161	2.1762
15.0722	2.45903
15.0285	2.21974
14.9851	2.13568
14.9419	2.30629
14.8989	2.0144
14.8563	1.90302
14.8138	2.02502
14.7716	1.92763
14.7296	2.01718
14.6879	2.142
14.6464	2.33559
14.6052	2.2502
14.5641	2.03886
14.5233	2.00251
14.4828	1.85997
14.4424	1.70425
14.4023	1.83467
14.3624	1.77142
14.3227	1.52676
14.2833	1.51307
14.244	1.66408
14.205	1.77254
14.1662	1.87432
14.1276	2.18118
14.0892	2.39913
14.051	2.36077
14.0131	2.22249
13.9753	2.40119
13.9377	2.46495
13.9004	2.31577
13.8632	2.27174
13.8262	2.35353
13.7895	2.50511
13.7529	2.47165
13.7165	2.52685
13.6803	2.73354
13.6443	2.83687
13.6085	2.76556
13.5729	2.80087
13.5374	2.75348
13.5022	2.70264
13.4671	2.63738
13.4322	2.62592
13.3975	2.6487
13.363	2.74156
13.3286	2.71761
13.2944	2.72783
13.2604	2.86868
13.2266	3.00107
13.193	2.93414
13.1595	2.79693
13.1262	2.75211
13.093	2.68138
13.06	2.53255
13.0272	2.55232
12.9946	2.58817
12.9621	2.53396
12.9298	2.58025
12.8976	2.71722
12.8656	2.78714
12.8337	2.7331
12.8021	2.4762
12.7705	2.40576
12.7391	2.30045
12.7079	2.23507
12.6769	2.3253
12.6459	2.36993
12.6152	2.34217
12.5845	2.43149
12.5541	2.58065
12.5238	2.39519
12.4936	2.30724
12.4635	2.39307
12.4337	2.33094
12.4039	2.24428
12.3743	2.16657
12.3448	2.12101
12.3155	2.06884
12.2863	2.09325
12.2573	2.11803
12.2284	2.12093
12.1996	2.17487
12.171	2.31848
12.1425	2.38107
12.1141	2.44451
12.0859	2.54431
12.0578	2.70511
12.0298	2.84242
12.0019	2.81761
11.9742	2.82155
11.9466	2.92915
11.9192	3.02981
11.8918	3.15292
11.8646	3.16513
11.8375	3.0845
11.8106	3.15353
11.7837	3.23141
11.757	3.20978
11.7304	3.21232
11.7039	3.32625
11.6776	3.40124
11.6513	3.39249
11.6252	3.44246
11.5992	3.69354
11.5733	3.80821
11.5475	3.82856
11.5219	3.89171
11.4963	3.86557
11.4709	3.90015
11.4455	4.03858
11.4203	3.90109
11.3952	3.86548
11.3702	4.00558
11.3454	3.97538
11.3206	4.0141
11.2959	4.05913
11.2714	4.02838
11.2469	4.06351
11.2226	4.09304
11.1983	4.12122
11.1742	4.16253
11.1502	4.26628
11.1263	4.43675
11.1024	4.45768
11.0787	4.31398
11.0551	4.24379
11.0316	4.25059
11.0081	4.26454
10.9848	4.2008
10.9616	4.075
10.9385	4.16426
10.9154	4.13116
10.8925	4.04335
10.8697	4.09553
10.8469	4.14741
10.8243	4.17254
10.8017	4.1539
10.7793	4.05997
10.7569	3.97318
10.7346	3.99253
10.7125	4.05397
10.6904	3.99832
10.6684	3.94449
10.6465	3.93584
10.6247	3.80458
10.6029	3.77802
10.5813	3.78074
10.5597	3.73844
10.5383	3.78022
10.5169	3.79656
10.4956	3.80924
10.4744	3.7954
10.4533	3.74812
10.4323	3.85019
10.4113	3.99196
10.3904	3.9712
10.3697	3.96366
10.349	3.98823
10.3284	4.02966
10.3078	3.99251
10.2874	3.94339
10.267	3.96015
10.2467	4.04703
10.2265	4.06727
10.2064	4.13143
10.1863	4.20179
10.1663	4.19347
10.1464	4.33437
10.1266	4.41921
10.1069	4.49989
10.0872	4.57523
10.0676	4.4809
10.0481	4.41101
10.0287	4.42372
10.0093	4.64462
9.99005	4.77968
9.97084	4.89315
9.95169	4.99254
9.93263	5.08293
9.91364	5.00413
9.89472	5.05799
9.87587	5.20992
9.8571	5.32983
9.83839	5.34514
9.81976	5.29834
9.80119	5.27835
9.78271	5.41127
9.76428	5.52895
9.74592	5.56612
9.72764	5.61349
9.70943	5.61876
9.69128	5.671
9.6732	5.81695
9.65518	5.96037
9.63724	5.8795
9.61935	5.88439
9.60155	5.89677
9.5838	5.97041
9.56611	5.99032
9.5485	5.86539
9.53094	5.84541
9.51345	6.05847
9.49604	6.13333
9.47867	5.98939
9.46137	5.7986
9.44414	5.77506
9.42697	5.73649
9.40986	5.76783
9.39281	5.92932
9.37583	5.88165
9.35891	5.93914
9.34204	6.08841
9.32524	5.96942
9.3085	5.93638
9.29182	6.04565
9.27519	5.87168
9.25863	5.70184
9.24213	5.71807
9.22568	5.70807
9.2093	5.68701
9.19297	5.65526
9.17669	5.58065
9.16048	5.35766
9.14433	5.13179
9.12823	5.10802
9.11218	5.21324
9.0962	5.13338
9.08027	5.00952
9.06439	4.95224
9.04858	4.89838
9.03281	4.77295
9.0171	4.63258
9.00145	4.61285
8.98585	4.65542
8.9703	4.79815
8.9548	4.78866
8.93937	4.71601
8.92398	4.77734
8.90865	4.85621
8.89337	4.66317
8.87814	4.53731
8.86296	4.64866
8.84784	4.60928
8.83277	4.45626
8.81774	4.42814
8.80277	4.47388
8.78786	4.54776
8.77298	4.53437
8.75816	4.45388
8.7434	4.29144
8.72868	4.21601
8.714	4.24346
8.69938	4.19212
8.68481	4.12975
8.67029	3.96833
8.65581	3.81044
8.64139	3.73851
8.62701	3.73268
8.61268	3.77431
8.5984	3.89022
8.58416	4.10505
8.56997	4.31375
8.55583	4.33696
8.54174	4.34645
8.52769	4.46519
8.51368	4.45641
8.49973	4.37299
8.48582	4.48481
8.47195	4.57524
8.45813	4.68614
8.44436	4.65936
8.43062	4.56569
8.41693	4.56965
8.4033	4.64481
8.3897	4.66772
8.37614	4.73069
8.36264	4.71421
8.34917	4.69581
8.33574	4.73092
8.32236	4.72091
8.30903	4.73053
8.29573	4.69646
8.28248	4.70343
8.26927	4.74248
8.2561	4.73336
8.24298	4.79265
8.2299	4.77351
8.21685	4.76685
8.20385	4.86571
8.19089	5.02685
8.17797	5.06711
8.16509	4.99213
8.15225	4.88367
8.13946	4.83086
8.1267	4.83627
8.11398	4.74683
8.10131	4.5896
8.08867	4.51136
8.07606	4.38734
8.0635	4.31449
8.05099	4.30295
8.0385	4.32677
8.02606	4.20146
8.01366	4.08861
8.00129	4.1183
7.98896	4.08994
7.97667	4.05395
7.96442	3.97935
7.9522	3.8308
7.94002	3.76613
7.92788	3.79354
7.91578	3.81116
7.90371	3.82812
7.89168	3.8117
7.87969	3.75366
7.86773	3.7089
7.85581	3.71459
7.84392	3.73595
7.83207	3.74289
7.82026	3.78466
7.80849	3.78965
7.79674	3.8301
7.78503	3.94458
7.77337	4.00461
7.76173	4.07075
7.75012	4.14151
7.73856	4.1465
7.72703	4.1211
7.71553	4.11515
7.70406	4.2169
7.69263	4.31279
7.68123	4.43344
7.66987	4.38269
7.65855	4.22889
7.64725	4.30752
7.63598	4.46126
7.62475	4.60113
7.61356	4.64281
7.60239	4.57744
7.59126	4.66961
7.58017	4.84227
7.5691	4.90314
7.55806	4.93902
7.54707	4.97703
7.5361	5.024
7.52516	5.134
7.51425	5.24501
7.50338	5.2773
7.49253	5.32666
7.48172	5.37493
7.47094	5.40726
7.46019	5.41145
7.44947	5.50063
7.43879	5.60133
7.42813	5.64511
7.4175	5.70696
7.4069	5.77425
7.39634	5.78798
7.3858	5.83851
7.37529	5.93003
7.36482	6.03316
7.35437	6.02153
7.34396	6.01032
7.33357	6.0639
7.32321	6.15308
7.31288	6.28388
7.30258	6.42592
7.29231	6.50499
7.28207	6.51804
7.27185	6.53184
7.26167	6.60754
7.25152	6.72573
7.24139	6.80191
7.23129	6.81856
7.22122	6.87765
7.21117	6.94086
7.20116	7.07389
7.19117	7.20979
7.18121	7.26113
7.17128	7.19909
7.16137	7.29398
7.1515	7.47607
7.14164	7.59216
7.13182	7.56392
7.12203	7.59581
7.11225	7.80169
7.10251	7.9242
7.0928	7.98342
7.08311	8.01814
7.07344	8.03537
7.06381	8.14433
7.0542	8.13161
7.04461	8.22484
7.03506	8.43451
7.02552	8.41536
7.01601	8.47072
7.00653	8.58235
6.99708	8.5902
6.98765	8.68973
6.97824	8.75667
6.96886	8.77135
6.95951	8.76729
6.95018	8.83287
6.94087	8.91628
6.9316	9.04196
6.92234	9.11915
6.91311	9.14298
6.90391	9.2239
6.89473	9.2999
6.88557	9.34866
6.87644	9.39445
6.86733	9.24124
6.85824	9.27925
6.84918	9.48298
6.84015	9.45439
6.83114	9.39695
6.82215	9.38086
6.81319	9.48015
6.80424	9.64073
6.79532	9.57508
6.78643	9.56296
6.77756	9.72168
6.76871	9.75265
6.75989	9.69645
6.75109	9.643
6.74231	9.79163
6.73355	9.85928
6.72482	9.78717
6.71611	9.67713
6.70742	9.67811
6.69875	9.81181
6.69011	9.80597
6.68149	9.77939
6.67289	9.93456
6.66431	10.0321
6.65576	10.0782
6.64722	9.95719
6.63871	9.69399
6.63022	9.82389
6.62175	10.0036
6.61331	9.93766
6.60488	9.90063
6.59648	9.95191
6.5881	10.0172
6.57974	9.90773
6.5714	9.73789
6.56308	9.83752
6.55478	9.88088
6.54651	9.88856
6.53825	9.93558
6.53001	9.9223
6.5218	9.82189
6.51361	9.96427
6.50544	10.0227
6.49729	9.83264
6.48915	9.80862
6.48104	9.93145
6.47295	10.0035
6.46488	9.99152
6.45683	9.94766
6.4488	9.97573
6.44079	9.91525
6.4328	9.68071
6.42482	9.43285
6.41687	9.11493
6.40894	9.14222
6.40103	9.37291
6.39314	9.32665
6.38526	9.1518
6.37741	8.87961
6.36957	8.66215
6.36176	8.58745
6.35396	8.3176
6.34618	8.02477
6.33843	7.93784
6.33069	7.82631
6.32297	7.58925
6.31527	7.31071
6.30758	7.0775
6.29992	6.84233
6.29227	6.55812
6.28465	6.43093
6.27704	6.25403
6.26945	5.9452
6.26188	5.50747
6.25432	5.20776
6.24679	5.01545
6.23927	4.81451
6.23177	4.51008
6.22429	4.22916
6.21683	4.06775
6.20938	3.94763
6.20195	3.6059
6.19454	3.3485
6.18715	3.23406
6.17978	3.17975
6.17242	3.06586
6.16508	2.85678
6.15776	2.72997
6.15045	2.69485
6.14317	2.65472
6.1359	2.62509
6.12864	2.63572
6.12141	2.56758
6.11419	2.44587
6.10699	2.42705
6.0998	2.49126
6.09263	2.57897
6.08549	2.61827
6.07835	2.62039
6.07123	2.62541
6.06413	2.66812
6.05705	2.75064
6.04998	2.72221
6.04293	2.74808
6.0359	2.83684
6.02888	2.92171
6.02187	3.04686
6.01489	3.11886
6.00792	3.27283
6.00096	3.32224
5.99403	3.32115
5.98711	3.4463
5.9802	3.57228
5.97331	3.71459
5.96644	3.86983
5.95958	4.01873
5.95274	4.1241
5.94591	4.22178
5.9391	4.29004
5.9323	4.53783
5.92552	4.89624
5.91876	5.1432
5.91201	5.3547
5.90528	5.52319
5.89856	5.69788
5.89186	5.99631
5.88517	6.18748
5.8785	6.5623
5.87184	7.05324
5.8652	7.47023
5.85857	7.96521
5.85196	8.41458
5.84536	8.71708
5.83878	9.05229
5.83221	9.37333
5.82566	9.67377
5.81912	9.99842
5.81259	10.5117
5.80608	10.9018
5.79959	11.2605
5.79311	11.6378
5.78665	11.891
5.78019	12.0724
5.77376	12.2061
5.76734	12.2268
5.76093	12.6073
5.75453	13.0021
5.74815	13.2142
5.74179	13.5101
5.73543	13.7741
5.7291	13.9138
5.72277	13.9192
5.71646	13.8901
5.71017	13.9646
5.70389	14.2867
5.69762	14.4898
5.69136	14.5213
5.68513	14.6158
5.6789	14.5846
5.67268	14.6029
5.66648	14.6333
5.6603	14.563
5.65413	14.4998
5.64797	14.4201
5.64182	14.2378
5.63569	14.2187
5.62957	14.2451
5.62347	14.1795
5.61737	14.096
5.61129	14.1533
5.60522	14.2087
5.59917	14.1614
5.59313	14.1871
5.5871	14.2129
5.58109	14.2022
5.57509	14.2698
5.5691	14.3006
5.56312	14.2916
5.55716	14.3629
5.55121	14.5043
5.54528	14.6507
5.53935	14.8221
5.53344	14.9886
5.52754	15.0612
5.52166	15.2186
5.51578	15.4144
5.50992	15.5499
5.50407	15.6841
5.49823	15.9634
5.49241	16.1925
5.4866	16.2379
5.4808	16.2403
5.47501	16.4327
5.46923	16.5669
5.46347	16.6363
5.45772	16.8039
5.45198	16.9942
5.44625	17.135
5.44054	17.1559
5.43484	17.1841
5.42914	17.067
5.42347	16.9026
5.4178	16.9064
5.41214	17.0299
5.4065	16.9558
5.40087	16.7516
5.39525	16.5871
5.38964	16.3564
5.38404	16.1906
5.37846	16.123
5.37288	15.924
5.36732	15.7164
5.36177	15.6683
5.35623	15.6844
5.35071	15.6321
5.34519	15.636
5.33968	15.7104
5.33419	15.836
5.32871	15.9665
5.32324	15.9912
5.31778	16.0822
5.31233	16.2757
5.30689	16.3498
5.30147	16.4019
5.29605	16.4752
5.29065	16.6575
5.28525	16.8489
5.27987	16.995
5.2745	17.1865
5.26914	17.4441
5.26379	17.6674
5.25845	17.9146
5.25312	18.1358
5.24781	18.38
5.2425	18.5981
5.23721	18.7738
5.23192	18.9684
5.22665	19.2268
5.22138	19.5497
5.21613	19.7282
5.21089	19.8429
5.20566	19.9726
5.20044	20.0317
5.19522	20.21
5.19002	20.3247
5.18483	20.3703
5.17965	20.4751
5.17448	20.5575
5.16933	20.5506
5.16418	20.6112
5.15904	20.73
5.15391	20.8059
5.14879	20.7536
5.14368	20.7778
5.13859	20.8697
5.1335	20.9198
5.12842	20.9103
5.12335	21.0027
5.1183	21.1375
5.11325	21.1862
5.10821	21.0891
5.10318	21.0303
5.09817	21.099
5.09316	21.1523
5.08816	21.105
5.08317	21.0573
5.07819	21.0995
5.07322	21.1177
5.06826	21.0627
5.06331	21.0039
5.05837	20.983
5.05344	20.9798
5.04852	20.9503
5.04361	20.997
5.03871	21.0493
5.03382	21.018
5.02894	21
5.02406	20.9637
5.0192	20.9943
5.01435	21.0205
5.0095	21.0198
5.00467	21.0319
4.99984	21.046
4.99502	21.0987
4.99021	21.2438
4.98542	21.3146
4.98063	21.3882
4.97585	21.5337
4.97108	21.6335
4.96632	21.774
4.96156	21.9844
4.95682	22.0957
4.95209	22.1558
4.94736	22.261
4.94264	22.3331
4.93794	22.3774
4.93324	22.4239
4.92855	22.4809
4.92387	22.5249
4.9192	22.6842
4.91453	22.8263
4.90988	22.9648
4.90524	23.1049
4.9006	23.2721
4.89597	23.4455
4.89135	23.6015
4.88674	23.7243
4.88214	23.8099
4.87755	23.9706
4.87296	24.0658
4.86839	24.0801
4.86382	24.1872
4.85926	24.2413
4.85471	24.2867
4.85017	24.3294
4.84564	24.395
4.84111	24.4511
4.8366	24.5283
4.83209	24.6127
4.82759	24.7064
4.8231	24.7778
4.81862	24.8026
4.81415	24.8254
4.80968	24.9091
4.80522	24.9856
4.80077	25.0551
4.79633	25.1629
4.7919	25.2214
4.78747	25.1911
4.78306	25.2289
4.77865	25.3646
4.77425	25.4174
4.76986	25.373
4.76547	25.4143
4.7611	25.485
4.75673	25.5697
4.75237	25.6405
4.74802	25.7241
4.74367	25.7625
4.73934	25.8025
4.73501	25.8879
4.73069	25.9648
4.72638	25.974
4.72207	26.008
4.71777	26.0267
4.71348	26.0718
4.7092	26.171
4.70493	26.1822
4.70066	26.1498
4.69641	26.2312
4.69216	26.3045
4.68791	26.2973
4.68368	26.3216
4.67945	26.4011
4.67523	26.4527
4.67102	26.4789
4.66682	26.547
4.66262	26.6313
4.65843	26.7208
4.65425	26.8139
4.65007	26.8346
4.64591	26.8741
4.64175	26.9787
4.6376	27.0587
4.63345	27.1058
4.62932	27.1607
4.62519	27.1473
4.62106	27.1846
4.61695	27.3219
4.61284	27.3912
4.60874	27.4995
4.60465	27.5729
4.60056	27.5519
4.59648	27.5526
4.59241	27.5835
4.58835	27.6311
4.58429	27.7353
4.58024	27.7884
4.5762	27.867
4.57216	27.9226
4.56814	27.9539
4.56411	27.9955
4.5601	28.0128
4.55609	28.0223
4.55209	28.065
4.5481	28.1596
4.54411	28.2068
4.54013	28.1766
4.53616	28.1767
4.5322	28.2461
4.52824	28.3484
4.52429	28.3979
4.52034	28.3953
4.51641	28.4107
4.51247	28.4319
4.50855	28.4132
4.50463	28.3683
4.50072	28.3998
4.49682	28.4776
4.49292	28.5394
4.48903	28.5126
4.48515	28.5291
4.48127	28.557
4.4774	28.6176
4.47354	28.6777
4.46968	28.7513
4.46584	28.8005
4.46199	28.8436
4.45815	28.8263
4.45432	28.872
4.4505	28.9751
4.44668	29.069
4.44287	29.0903
4.43907	29.1083
4.43527	29.1856
4.43148	29.1957
4.4277	29.2702
4.42392	29.4132
4.42015	29.377
4.41638	29.3775
4.41262	29.4642
4.40887	29.5646
4.40513	29.6329
4.40139	29.7607
4.39765	29.8801
4.39393	29.9701
4.39021	30.0617
4.38649	30.1431
4.38278	30.2002
4.37908	30.2215
4.37539	30.2769
4.3717	30.3568
4.36801	30.4224
4.36434	30.5085
4.36067	30.5747
4.357	30.6413
4.35335	30.6959
4.34969	30.7182
4.34605	30.7535
4.34241	30.8454
4.33877	30.9604
4.33514	31.0326
4.33152	31.0683
4.32791	31.1073
4.3243	31.1859
4.32069	31.2542
4.3171	31.3189
4.31351	31.4231
4.30992	31.5339
4.30634	31.5927
4.30277	31.6261
4.2992	31.6782
4.29564	31.7003
4.29208	31.7333
4.28853	31.8275
4.28499	31.8474
4.28145	31.8601
4.27792	31.8607
4.27439	31.9051
4.27087	31.9848
4.26735	32.0668
4.26384	32.1924
4.26034	32.2846
4.25684	32.4116
4.25335	32.5086
4.24986	32.6237
4.24638	32.7657
4.24291	32.859
4.23944	32.906
4.23598	32.9748
4.23252	33.0576
4.22906	33.1184
4.22562	33.2431
4.22218	33.3721
4.21874	33.445
4.21531	33.5223
4.21189	33.5874
4.20847	33.7549
4.20506	33.982
4.20165	34.0444
4.19825	34.0447
4.19485	34.0879
4.19146	34.1079
4.18807	34.2042
4.18469	34.3658
4.18132	34.4726
4.17795	34.5385
4.17458	34.5531
4.17123	34.634
4.16787	34.7771
4.16453	34.9091
4.16118	34.9985
4.15785	35.0508
4.15451	35.1153
4.15119	35.1937
4.14787	35.3018
4.14455	35.4166
4.14124	35.4603
4.13794	35.5142
4.13464	35.5821
4.13134	35.6221
4.12805	35.6779
4.12477	35.8151
4.12149	35.991
4.11822	36.0168
4.11495	36.0278
4.11168	36.144
4.10843	36.3111
4.10517	36.3927
4.10192	36.385
4.09868	36.4323
4.09545	36.5411
4.09221	36.6292
4.08899	36.7187
4.08576	36.745
4.08255	36.8279
4.07933	36.9087
4.07613	36.9479
4.07292	37.0458
4.06973	37.151
4.06654	37.2509
4.06335	37.3043
4.06017	37.318
4.05699	37.4041
4.05382	37.5238
4.05065	37.626
4.04749	37.6779
4.04433	37.7505
4.04118	37.8256
4.03803	37.8847
4.03489	37.9319
4.03175	38.0016
4.02862	37.9622
4.02549	38.0202
4.02237	38.0655
4.01925	38.1092
4.01614	38.2158
4.01303	38.3337
4.00993	38.409
4.00683	38.3945
4.00373	38.4151
4.00064	38.4475
3.99756	38.4602
3.99448	38.5272
3.9914	38.6047
3.98833	38.6382
3.98527	38.6543
3.98221	38.6405
3.97915	38.6419
3.9761	38.8066
3.97305	38.8572
3.97001	38.8125
3.96697	38.8419
3.96394	38.8989
3.96091	38.9156
3.95789	38.9182
3.95487	38.9104
3.95186	38.8717
3.94885	38.8821
3.94584	38.8451
3.94284	38.8265
3.93984	38.9294
3.93685	38.9548
3.93386	38.9438
3.93088	38.9663
3.9279	38.9439
3.92493	38.9074
3.92196	38.9134
3.919	38.8807
3.91604	38.7854
3.91308	38.7423
3.91013	38.7918
3.90718	38.8415
3.90424	38.7821
3.9013	38.7375
3.89837	38.6712
3.89544	38.594
3.89252	38.5954
3.8896	38.5829
3.88668	38.5249
3.88377	38.5352
3.88086	38.4696
3.87796	38.3662
3.87506	38.3036
3.87217	38.2747
3.86928	38.2107
3.86639	38.1904
3.86351	38.1835
3.86064	38.1588
3.85776	38.0753
3.8549	38.0065
3.85203	37.9208
3.84917	37.9239
3.84631	37.9542
3.84346	37.8911
3.84062	37.7325
3.83777	37.5943
3.83494	37.5046
3.8321	37.4786
3.82927	37.4592
3.82644	37.4068
3.82362	37.2313
3.82081	37.1049
3.81799	37.0403
3.81518	37.0216
3.81238	36.9941
3.80958	36.8712
3.80678	36.7741
3.80399	36.6622
3.8012	36.5339
3.79841	36.4895
3.79563	36.3943
3.79286	36.2529
3.79008	36.1472
3.78731	36.0938
3.78455	36.042
3.78179	35.9792
3.77903	35.9167
3.77628	35.7754
3.77353	35.7136
3.77079	35.6901
3.76805	35.5478
3.76531	35.3607
3.76258	35.1712
3.75985	35.126
3.75713	34.9942
3.7544	34.87
3.75169	34.7885
3.74898	34.722
3.74627	34.591
3.74356	34.4286
3.74086	34.3319
3.73816	34.2511
3.73547	34.1613
3.73278	33.9452
3.7301	33.7849
3.72741	33.6873
3.72474	33.6011
3.72206	33.4833
3.71939	33.3476
3.71673	33.2715
3.71406	33.1995
3.71141	33.0615
3.70875	32.9392
3.7061	32.7856
3.70345	32.5781
3.70081	32.4314
3.69817	32.3972
3.69553	32.2856
3.6929	32.1461
3.69027	31.9809
3.68765	31.8021
3.68503	31.6318
3.68241	31.4572
3.6798	31.3621
3.67719	31.2672
3.67458	31.1025
3.67198	30.9378
3.66938	30.7963
3.66678	30.6217
3.66419	30.4432
3.66161	30.3003
3.65902	30.1309
3.65644	30.0014
3.65387	29.8659
3.65129	29.7358
3.64872	29.6683
3.64616	29.4908
3.64359	29.2998
3.64103	29.2118
3.63848	29.0926
3.63593	28.9379
3.63338	28.8413
3.63084	28.6513
3.6283	28.4643
3.62576	28.3827
3.62322	28.2159
3.62069	28.1284
3.61817	27.9742
3.61564	27.7096
3.61312	27.5625
3.61061	27.4989
3.6081	27.361
3.60559	27.2817
3.60308	27.1673
3.60058	26.9538
3.59808	26.7687
3.59558	26.6308
3.59309	26.4932
3.59061	26.3509
3.58812	26.1883
3.58564	26.0737
3.58316	25.9563
3.58069	25.8325
3.57822	25.6514
3.57575	25.5258
3.57328	25.4092
3.57082	25.2865
3.56836	25.1186
3.56591	24.874
3.56346	24.7328
3.56101	24.6832
3.55857	24.5199
3.55613	24.3
3.55369	24.1665
3.55126	24.0811
3.54883	23.9779
3.5464	23.7734
3.54397	23.6188
3.54155	23.5117
3.53914	23.3617
3.53672	23.2256
3.53431	23.1324
3.5319	22.9995
3.5295	22.7794
3.5271	22.6251
3.5247	22.5063
3.52231	22.331
3.51991	22.1543
3.51753	21.9654
3.51514	21.8143
3.51276	21.759
3.51038	21.5869
3.50801	21.3864
3.50563	21.1894
3.50327	20.9964
3.5009	20.8712
3.49854	20.723
3.49618	20.5554
3.49382	20.4731
3.49147	20.4211
3.48912	20.3249
3.48677	20.1502
3.48443	19.9421
3.48209	19.8438
3.47975	19.7
3.47742	19.539
3.47509	19.4523
3.47276	19.3276
3.47044	19.2081
