Name: Fayalite Fe_2SiO_4
Type: Mineral
Class: Silicates
Subclass: Nesosilicates
Particle Size: 45-125um
Sample No.: NS-1A
Owner: JPL
Wavelength range: IR
Origin: 
Collected by JPL
Description: 





Measurement: Hemispherical reflectance
First Column: X
Second Column: Y
X Units:  Wavelength (micrometers)
Y Units:  Reflectance (percent)
First X Value: 15.3853
Last X Value: 2.00032
Number of X Values: 2256
Additional information: ns01aa.txt
 
15.3853	4.79402
15.3397	4.65143
15.2945	4.59998
15.2495	4.59806
15.2048	4.53615
15.1603	4.68517
15.1161	4.7852
15.0722	4.71049
15.0285	4.67762
14.9851	4.60036
14.9419	4.7571
14.8989	4.98715
14.8563	4.92518
14.8138	4.76424
14.7716	4.76764
14.7296	4.99894
14.6879	5.16605
14.6464	5.12931
14.6052	4.94519
14.5641	4.92567
14.5233	5.21395
14.4828	5.34496
14.4424	5.21956
14.4023	5.22726
14.3624	5.2974
14.3227	5.43378
14.2833	5.51631
14.244	5.3927
14.205	5.22313
14.1662	5.26705
14.1276	5.49286
14.0892	5.41128
14.051	5.13663
14.0131	5.14246
13.9753	5.11114
13.9377	5.11124
13.9004	5.08434
13.8632	5.1168
13.8262	5.27726
13.7895	5.34667
13.7529	5.29844
13.7165	5.27103
13.6803	5.22273
13.6443	5.1824
13.6085	5.31313
13.5729	5.42634
13.5374	5.34578
13.5022	5.47805
13.4671	5.70027
13.4322	5.67081
13.3975	5.45143
13.363	5.50002
13.3286	5.6577
13.2944	5.80701
13.2604	5.7849
13.2266	5.71448
13.193	5.83613
13.1595	5.78915
13.1262	5.74513
13.093	5.61464
13.06	5.63807
13.0272	5.81101
12.9946	5.9165
12.9621	6.00741
12.9298	6.10735
12.8976	6.04042
12.8656	5.94656
12.8337	5.8411
12.8021	5.8922
12.7705	5.89082
12.7391	5.86689
12.7079	6.07601
12.6769	6.16367
12.6459	6.15808
12.6152	6.15077
12.5845	6.12671
12.5541	6.11239
12.5238	6.22681
12.4936	6.50452
12.4635	6.718
12.4337	6.60717
12.4039	6.57623
12.3743	6.74059
12.3448	6.76876
12.3155	6.75715
12.2863	6.90611
12.2573	7.13677
12.2284	7.30407
12.1996	7.37473
12.171	7.64505
12.1425	7.85367
12.1141	7.99162
12.0859	8.02715
12.0578	7.80635
12.0298	7.32835
12.0019	6.82034
11.9742	6.81817
11.9466	7.12549
11.9192	7.27578
11.8918	7.31013
11.8646	7.55097
11.8375	7.92898
11.8106	8.29579
11.7837	8.51665
11.757	8.64196
11.7304	8.92531
11.7039	9.31958
11.6776	9.77503
11.6513	10.2935
11.6252	10.7299
11.5992	11.0866
11.5733	11.2171
11.5475	11.3602
11.5219	11.6612
11.4963	11.8428
11.4709	11.8441
11.4455	11.8572
11.4203	12.0116
11.3952	12.1344
11.3702	12.2159
11.3454	12.4139
11.3206	12.38
11.2959	12.3525
11.2714	12.3323
11.2469	12.3412
11.2226	12.3999
11.1983	12.4216
11.1742	12.3666
11.1502	12.3093
11.1263	12.2526
11.1024	12.2547
11.0787	12.1576
11.0551	12.1163
11.0316	12.1305
11.0081	12.0839
10.9848	11.9672
10.9616	11.6705
10.9385	11.2788
10.9154	10.9667
10.8925	10.6911
10.8697	10.4221
10.8469	10.1036
10.8243	9.67755
10.8017	9.2812
10.7793	9.44184
10.7569	9.87905
10.7346	10.3412
10.7125	10.6772
10.6904	11.1554
10.6684	11.5987
10.6465	12.0332
10.6247	12.7396
10.6029	13.2338
10.5813	13.4123
10.5597	13.5343
10.5383	13.6239
10.5169	13.5281
10.4956	13.249
10.4744	12.7544
10.4533	12.2393
10.4323	11.6733
10.4113	11.2356
10.3904	10.9686
10.3697	10.8065
10.349	10.6389
10.3284	10.5359
10.3078	10.4572
10.2874	10.196
10.267	10.0339
10.2467	10.0305
10.2265	10.023
10.2064	10.0196
10.1863	10.1369
10.1663	10.3093
10.1464	10.3809
10.1266	10.493
10.1069	10.667
10.0872	10.8412
10.0676	10.9559
10.0481	11.2733
10.0287	11.4668
10.0093	11.616
9.99005	11.833
9.97084	11.8573
9.95169	11.9486
9.93263	12.1467
9.91364	12.1732
9.89472	12.0619
9.87587	11.988
9.8571	12.0554
9.83839	12.0669
9.81976	11.9132
9.80119	11.706
9.78271	11.5549
9.76428	11.3442
9.74592	11.0784
9.72764	10.9048
9.70943	10.8341
9.69128	10.6934
9.6732	10.6392
9.65518	10.5501
9.63724	10.4265
9.61935	10.3063
9.60155	10.2047
9.5838	9.98475
9.56611	9.82003
9.5485	9.80385
9.53094	9.568
9.51345	9.23832
9.49604	9.0915
9.47867	8.9868
9.46137	8.7863
9.44414	8.52659
9.42697	8.30129
9.40986	8.07389
9.39281	7.8376
9.37583	7.75164
9.35891	7.63135
9.34204	7.32929
9.32524	7.22591
9.3085	7.25606
9.29182	7.16989
9.27519	7.22921
9.25863	7.57615
9.24213	7.94298
9.22568	8.05291
9.2093	8.06726
9.19297	8.3333
9.17669	8.47378
9.16048	8.4142
9.14433	8.40157
9.12823	8.22241
9.11218	7.8804
9.0962	7.61116
9.08027	7.35088
9.06439	7.00481
9.04858	6.75475
9.03281	6.46535
9.0171	6.11932
9.00145	5.83284
8.98585	5.61196
8.9703	5.50281
8.9548	5.37068
8.93937	5.29275
8.92398	5.36247
8.90865	5.42263
8.89337	5.55187
8.87814	5.68017
8.86296	5.95893
8.84784	6.14326
8.83277	6.26908
8.81774	6.41616
8.80277	6.35873
8.78786	6.32335
8.77298	6.45613
8.75816	6.55965
8.7434	6.52034
8.72868	6.59552
8.714	6.69317
8.69938	6.5371
8.68481	6.30768
8.67029	6.08581
8.65581	5.87767
8.64139	5.51638
8.62701	5.40495
8.61268	5.33933
8.5984	5.12448
8.58416	5.06232
8.56997	4.99875
8.55583	4.94861
8.54174	4.91048
8.52769	4.80201
8.51368	4.67179
8.49973	4.67214
8.48582	4.69587
8.47195	4.67106
8.45813	4.64514
8.44436	4.67284
8.43062	4.72283
8.41693	4.7649
8.4033	4.86098
8.3897	4.73958
8.37614	4.64893
8.36264	4.78713
8.34917	4.89382
8.33574	4.86281
8.32236	4.79051
8.30903	4.81525
8.29573	4.86993
8.28248	4.91137
8.26927	4.90853
8.2561	4.96153
8.24298	5.02724
8.2299	5.15098
8.21685	5.11372
8.20385	4.97278
8.19089	4.9509
8.17797	5.03816
8.16509	5.04588
8.15225	5.0079
8.13946	5.0754
8.1267	5.14868
8.11398	5.04499
8.10131	5.1059
8.08867	5.12837
8.07606	5.09601
8.0635	5.18153
8.05099	5.19712
8.0385	5.23661
8.02606	5.27011
8.01366	5.26871
8.00129	5.3185
7.98896	5.21827
7.97667	5.16753
7.96442	5.32102
7.9522	5.31596
7.94002	5.21086
7.92788	5.27031
7.91578	5.42156
7.90371	5.45723
7.89168	5.45538
7.87969	5.33819
7.86773	5.32897
7.85581	5.48723
7.84392	5.44826
7.83207	5.34453
7.82026	5.3136
7.80849	5.35516
7.79674	5.41884
7.78503	5.51952
7.77337	5.57269
7.76173	5.55816
7.75012	5.56383
7.73856	5.5924
7.72703	5.61751
7.71553	5.58604
7.70406	5.51455
7.69263	5.59294
7.68123	5.66025
7.66987	5.67744
7.65855	5.66334
7.64725	5.70899
7.63598	5.74388
7.62475	5.73133
7.61356	5.79443
7.60239	5.8623
7.59126	5.93507
7.58017	5.95279
7.5691	5.98259
7.55806	6.01351
7.54707	6.04525
7.5361	6.07916
7.52516	6.10267
7.51425	6.06878
7.50338	6.03145
7.49253	6.03621
7.48172	6.0521
7.47094	6.04846
7.46019	6.05797
7.44947	6.08274
7.43879	6.20827
7.42813	6.30935
7.4175	6.3138
7.4069	6.20877
7.39634	6.15167
7.3858	6.20729
7.37529	6.27389
7.36482	6.33541
7.35437	6.30363
7.34396	6.26777
7.33357	6.32439
7.32321	6.4505
7.31288	6.46553
7.30258	6.39782
7.29231	6.33946
7.28207	6.30923
7.27185	6.43011
7.26167	6.44274
7.25152	6.44602
7.24139	6.4819
7.23129	6.49504
7.22122	6.51952
7.21117	6.54974
7.20116	6.58867
7.19117	6.604
7.18121	6.62015
7.17128	6.64289
7.16137	6.69064
7.1515	6.81406
7.14164	6.85419
7.13182	6.80429
7.12203	6.77175
7.11225	6.77189
7.10251	6.86234
7.0928	6.9142
7.08311	6.85749
7.07344	6.8986
7.06381	6.95894
7.0542	6.98374
7.04461	6.96825
7.03506	6.93018
7.02552	6.95414
7.01601	7.0298
7.00653	6.99042
6.99708	6.92784
6.98765	7.00146
6.97824	7.12712
6.96886	7.18831
6.95951	7.15863
6.95018	7.07376
6.94087	7.05983
6.9316	7.07068
6.92234	7.15432
6.91311	7.2391
6.90391	7.26951
6.89473	7.34777
6.88557	7.39429
6.87644	7.43204
6.86733	7.53129
6.85824	7.54347
6.84918	7.40421
6.84015	7.31958
6.83114	7.32869
6.82215	7.36986
6.81319	7.37775
6.80424	7.44397
6.79532	7.51922
6.78643	7.47947
6.77756	7.35301
6.76871	7.31652
6.75989	7.3226
6.75109	7.38878
6.74231	7.41848
6.73355	7.46891
6.72482	7.53789
6.71611	7.56247
6.70742	7.5347
6.69875	7.41576
6.69011	7.45375
6.68149	7.57146
6.67289	7.57963
6.66431	7.50471
6.65576	7.44364
6.64722	7.50669
6.63871	7.64335
6.63022	7.5902
6.62175	7.50729
6.61331	7.49126
6.60488	7.49488
6.59648	7.57564
6.5881	7.60189
6.57974	7.64227
6.5714	7.73652
6.56308	7.61063
6.55478	7.51109
6.54651	7.46434
6.53825	7.44916
6.53001	7.52402
6.5218	7.61801
6.51361	7.56924
6.50544	7.54195
6.49729	7.66046
6.48915	7.62573
6.48104	7.46795
6.47295	7.44208
6.46488	7.42708
6.45683	7.33705
6.4488	7.3782
6.44079	7.5153
6.4328	7.53468
6.42482	7.50134
6.41687	7.62183
6.40894	7.55349
6.40103	7.42792
6.39314	7.3259
6.38526	7.27357
6.37741	7.3395
6.36957	7.25871
6.36176	7.16706
6.35396	7.14216
6.34618	7.1123
6.33843	7.03381
6.33069	6.94596
6.32297	6.93219
6.31527	6.94045
6.30758	6.99073
6.29992	6.96745
6.29227	6.88049
6.28465	6.86044
6.27704	6.86331
6.26945	6.82338
6.26188	6.75601
6.25432	6.70295
6.24679	6.64614
6.23927	6.60987
6.23177	6.57424
6.22429	6.52572
6.21683	6.50116
6.20938	6.52529
6.20195	6.53335
6.19454	6.5155
6.18715	6.5637
6.17978	6.4661
6.17242	6.2862
6.16508	6.18721
6.15776	6.14328
6.15045	6.1243
6.14317	6.12649
6.1359	5.99282
6.12864	5.89183
6.12141	5.92316
6.11419	6.0637
6.10699	6.09953
6.0998	6.01336
6.09263	5.99278
6.08549	5.97967
6.07835	6.03981
6.07123	6.0742
6.06413	6.04921
6.05705	6.14954
6.04998	6.35603
6.04293	6.15236
6.0359	6.00078
6.02888	6.12901
6.02187	6.27749
6.01489	6.2754
6.00792	6.1849
6.00096	6.16956
5.99403	6.19676
5.98711	6.24125
5.9802	6.21964
5.97331	6.3165
5.96644	6.354
5.95958	6.29855
5.95274	6.35017
5.94591	6.52175
5.9391	6.74305
5.9323	6.64504
5.92552	6.4856
5.91876	6.46927
5.91201	6.45177
5.90528	6.4689
5.89856	6.66271
5.89186	6.68151
5.88517	6.65193
5.8785	6.70645
5.87184	6.58823
5.8652	6.52818
5.85857	6.53112
5.85196	6.60421
5.84536	6.55641
5.83878	6.51534
5.83221	6.58111
5.82566	6.68752
5.81912	6.68638
5.81259	6.55331
5.80608	6.49905
5.79959	6.48877
5.79311	6.47148
5.78665	6.47274
5.78019	6.38497
5.77376	6.42324
5.76734	6.55631
5.76093	6.41978
5.75453	6.30335
5.74815	6.35913
5.74179	6.37637
5.73543	6.36508
5.7291	6.38218
5.72277	6.40701
5.71646	6.44301
5.71017	6.44282
5.70389	6.35545
5.69762	6.27711
5.69136	6.27461
5.68513	6.26679
5.6789	6.36532
5.67268	6.43014
5.66648	6.31773
5.6603	6.30395
5.65413	6.29063
5.64797	6.31252
5.64182	6.39774
5.63569	6.42096
5.62957	6.38229
5.62347	6.37116
5.61737	6.48179
5.61129	6.55186
5.60522	6.57391
5.59917	6.54081
5.59313	6.44251
5.5871	6.35963
5.58109	6.35437
5.57509	6.51172
5.5691	6.58152
5.56312	6.52976
5.55716	6.50246
5.55121	6.54862
5.54528	6.58088
5.53935	6.59969
5.53344	6.65557
5.52754	6.70074
5.52166	6.67368
5.51578	6.66155
5.50992	6.6821
5.50407	6.71564
5.49823	6.66191
5.49241	6.67549
5.4866	6.74741
5.4808	6.76407
5.47501	6.76587
5.46923	6.86649
5.46347	6.91823
5.45772	6.80523
5.45198	6.71425
5.44625	6.6876
5.44054	6.73926
5.43484	6.83431
5.42914	6.8599
5.42347	6.8804
5.4178	6.84811
5.41214	6.837
5.4065	6.89829
5.40087	6.8771
5.39525	6.83002
5.38964	6.81139
5.38404	6.8901
5.37846	6.93288
5.37288	6.96683
5.36732	7.01457
5.36177	7.01189
5.35623	7.10537
5.35071	7.12167
5.34519	7.04174
5.33968	7.04624
5.33419	7.10888
5.32871	7.18655
5.32324	7.2054
5.31778	7.08244
5.31233	7.06967
5.30689	7.09772
5.30147	7.19522
5.29605	7.30443
5.29065	7.33333
5.28525	7.28172
5.27987	7.29546
5.2745	7.29092
5.26914	7.25196
5.26379	7.33686
5.25845	7.47715
5.25312	7.45737
5.24781	7.39342
5.2425	7.38745
5.23721	7.44757
5.23192	7.47294
5.22665	7.4806
5.22138	7.56018
5.21613	7.64376
5.21089	7.6078
5.20566	7.59423
5.20044	7.6673
5.19522	7.65502
5.19002	7.66316
5.18483	7.76896
5.17965	7.8392
5.17448	7.8755
5.16933	7.8476
5.16418	7.8942
5.15904	7.94523
5.15391	7.9555
5.14879	7.98629
5.14368	8.00174
5.13859	8.01523
5.1335	8.01335
5.12842	8.03626
5.12335	8.07641
5.1183	8.07652
5.11325	8.08016
5.10821	8.16653
5.10318	8.21779
5.09817	8.15657
5.09316	8.13415
5.08816	8.07611
5.08317	8.1132
5.07819	8.22317
5.07322	8.26385
5.06826	8.27627
5.06331	8.25386
5.05837	8.23638
5.05344	8.26729
5.04852	8.35779
5.04361	8.31649
5.03871	8.25726
5.03382	8.33492
5.02894	8.35253
5.02406	8.28265
5.0192	8.31881
5.01435	8.38963
5.0095	8.47858
5.00467	8.45253
4.99984	8.40463
4.99502	8.4446
4.99021	8.42075
4.98542	8.4303
4.98063	8.54659
4.97585	8.53446
4.97108	8.52655
4.96632	8.54167
4.96156	8.57861
4.95682	8.6288
4.95209	8.67564
4.94736	8.62998
4.94264	8.59962
4.93794	8.63311
4.93324	8.67859
4.92855	8.64926
4.92387	8.64548
4.9192	8.69138
4.91453	8.76075
4.90988	8.75429
4.90524	8.72611
4.9006	8.78768
4.89597	8.85865
4.89135	8.85073
4.88674	8.8589
4.88214	8.86852
4.87755	8.87817
4.87296	8.90068
4.86839	8.89804
4.86382	8.90005
4.85926	8.89082
4.85471	8.88729
4.85017	8.95101
4.84564	9.05505
4.84111	9.14198
4.8366	9.12692
4.83209	9.04042
4.82759	9.01211
4.8231	9.09931
4.81862	9.1436
4.81415	9.18382
4.80968	9.18957
4.80522	9.19038
4.80077	9.20089
4.79633	9.13911
4.7919	9.17257
4.78747	9.23873
4.78306	9.21966
4.77865	9.1859
4.77425	9.23428
4.76986	9.21618
4.76547	9.21943
4.7611	9.21566
4.75673	9.2835
4.75237	9.3103
4.74802	9.29915
4.74367	9.30304
4.73934	9.31143
4.73501	9.3453
4.73069	9.35437
4.72638	9.35496
4.72207	9.38153
4.71777	9.37349
4.71348	9.39089
4.7092	9.51025
4.70493	9.5109
4.70066	9.48694
4.69641	9.4774
4.69216	9.46292
4.68791	9.48923
4.68368	9.45899
4.67945	9.47624
4.67523	9.52598
4.67102	9.55698
4.66682	9.64287
4.66262	9.6431
4.65843	9.52846
4.65425	9.4875
4.65007	9.6223
4.64591	9.63768
4.64175	9.61826
4.6376	9.613
4.63345	9.5558
4.62932	9.55927
4.62519	9.70843
4.62106	9.8144
4.61695	9.8144
4.61284	9.76234
4.60874	9.74066
4.60465	9.7644
4.60056	9.79698
4.59648	9.81656
4.59241	9.8017
4.58835	9.83437
4.58429	9.85459
4.58024	9.84242
4.5762	9.83216
4.57216	9.8438
4.56814	9.90689
4.56411	9.93127
4.5601	9.89114
4.55609	9.90391
4.55209	9.93781
4.5481	9.95008
4.54411	9.91502
4.54013	9.85277
4.53616	9.83429
4.5322	9.88376
4.52824	9.97553
4.52429	9.99615
4.52034	10.0358
4.51641	10.0911
4.51247	10.0415
4.50855	9.97774
4.50463	10.024
4.50072	10.0266
4.49682	10.0242
4.49292	10.0722
4.48903	10.0753
4.48515	10.0451
4.48127	10.0269
4.4774	10.0798
4.47354	10.1877
4.46968	10.1322
4.46584	10.0849
4.46199	10.0545
4.45815	10.0926
4.45432	10.0862
4.4505	10.0338
4.44668	10.0754
4.44287	10.0818
4.43907	10.0662
4.43527	10.0965
4.43148	10.1626
4.4277	10.2139
4.42392	10.1475
4.42015	10.09
4.41638	10.1542
4.41262	10.3066
4.40887	10.3806
4.40513	10.3344
4.40139	10.237
4.39765	10.1368
4.39393	10.141
4.39021	10.2378
4.38649	10.2212
4.38278	10.2527
4.37908	10.2786
4.37539	10.2952
4.3717	10.3109
4.36801	10.3434
4.36434	10.3306
4.36067	10.2773
4.357	10.3205
4.35335	10.3836
4.34969	10.4082
4.34605	10.4475
4.34241	10.4696
4.33877	10.4321
4.33514	10.4039
4.33152	10.3903
4.32791	10.3437
4.3243	10.3239
4.32069	10.377
4.3171	10.459
4.31351	10.4859
4.30992	10.4255
4.30634	10.3795
4.30277	10.3879
4.2992	10.4577
4.29564	10.4968
4.29208	10.5181
4.28853	10.5127
4.28499	10.5724
4.28145	10.6378
4.27792	10.6782
4.27439	10.6815
4.27087	10.5062
4.26735	10.3838
4.26384	10.4658
4.26034	10.5961
4.25684	10.6803
4.25335	10.6783
4.24986	10.6381
4.24638	10.6553
4.24291	10.7009
4.23944	10.6519
4.23598	10.6119
4.23252	10.6537
4.22906	10.6603
4.22562	10.5685
4.22218	10.6394
4.21874	10.682
4.21531	10.7006
4.21189	10.6414
4.20847	10.5742
4.20506	10.6174
4.20165	10.6757
4.19825	10.7103
4.19485	10.7361
4.19146	10.7439
4.18807	10.7158
4.18469	10.7134
4.18132	10.7445
4.17795	10.6757
4.17458	10.7359
4.17123	10.794
4.16787	10.7869
4.16453	10.7054
4.16118	10.7051
4.15785	10.8274
4.15451	10.8398
4.15119	10.7657
4.14787	10.8654
4.14455	10.8543
4.14124	10.801
4.13794	10.827
4.13464	10.7891
4.13134	10.8102
4.12805	10.8522
4.12477	10.8365
4.12149	10.8031
4.11822	10.7866
4.11495	10.876
4.11168	10.8856
4.10843	10.8849
4.10517	10.8902
4.10192	10.8754
4.09868	10.8496
4.09545	10.9193
4.09221	10.9753
4.08899	10.8822
4.08576	10.8843
4.08255	10.8826
4.07933	10.8516
4.07613	10.8925
4.07292	10.9245
4.06973	10.9122
4.06654	10.9344
4.06335	10.9663
4.06017	10.9731
4.05699	10.8918
4.05382	10.9082
4.05065	11.0023
4.04749	11.0243
4.04433	11.0362
4.04118	11.0203
4.03803	11.0378
4.03489	11.0515
4.03175	11.0341
4.02862	11.1246
4.02549	11.2284
4.02237	11.2117
4.01925	11.0979
4.01614	11.0508
4.01303	11.0667
4.00993	11.1383
4.00683	11.1852
4.00373	11.1307
4.00064	11.1174
3.99756	11.1382
3.99448	11.13
3.9914	11.1534
3.98833	11.1251
3.98527	11.1635
3.98221	11.1715
3.97915	11.1341
3.9761	11.1893
3.97305	11.3028
3.97001	11.2714
3.96697	11.1854
3.96394	11.138
3.96091	11.1124
3.95789	11.1546
3.95487	11.1333
3.95186	11.2446
3.94885	11.3245
3.94584	11.2157
3.94284	11.2748
3.93984	11.3694
3.93685	11.3387
3.93386	11.3038
3.93088	11.1683
3.9279	11.1502
3.92493	11.285
3.92196	11.3086
3.919	11.2859
3.91604	11.3119
3.91308	11.3432
3.91013	11.3112
3.90718	11.2724
3.90424	11.2096
3.9013	11.2635
3.89837	11.3725
3.89544	11.3291
3.89252	11.3496
3.8896	11.416
3.88668	11.3729
3.88377	11.3122
3.88086	11.333
3.87796	11.355
3.87506	11.4665
3.87217	11.4958
3.86928	11.363
3.86639	11.3269
3.86351	11.3826
3.86064	11.3704
3.85776	11.3263
3.8549	11.3331
3.85203	11.4039
3.84917	11.4254
3.84631	11.3675
3.84346	11.3331
3.84062	11.3706
3.83777	11.3978
3.83494	11.421
3.8321	11.4593
3.82927	11.3552
3.82644	11.2684
3.82362	11.2861
3.82081	11.3285
3.81799	11.4266
3.81518	11.5155
3.81238	11.4704
3.80958	11.3854
3.80678	11.3899
3.80399	11.407
3.8012	11.4002
3.79841	11.4144
3.79563	11.4022
3.79286	11.443
3.79008	11.4283
3.78731	11.3206
3.78455	11.4028
3.78179	11.4655
3.77903	11.4805
3.77628	11.5165
3.77353	11.5387
3.77079	11.5057
3.76805	11.3761
3.76531	11.3738
3.76258	11.4056
3.75985	11.4235
3.75713	11.3201
3.7544	11.228
3.75169	11.3075
3.74898	11.3675
3.74627	11.4321
3.74356	11.4786
3.74086	11.472
3.73816	11.5115
3.73547	11.4874
3.73278	11.4619
3.7301	11.5242
3.72741	11.5587
3.72474	11.4455
3.72206	11.316
3.71939	11.3325
3.71673	11.4372
3.71406	11.4915
3.71141	11.39
3.70875	11.3021
3.7061	11.3312
3.70345	11.3665
3.70081	11.3527
3.69817	11.3464
3.69553	11.404
3.6929	11.4218
3.69027	11.4514
3.68765	11.4912
3.68503	11.4745
3.68241	11.4359
3.6798	11.4368
3.67719	11.4034
3.67458	11.3521
3.67198	11.2604
3.66938	11.2447
3.66678	11.2853
3.66419	11.3679
3.66161	11.346
3.65902	11.34
3.65644	11.2997
3.65387	11.2882
3.65129	11.3415
3.64872	11.4223
3.64616	11.3998
3.64359	11.3315
3.64103	11.3489
3.63848	11.3796
3.63593	11.3944
3.63338	11.2726
3.63084	11.1961
3.6283	11.1658
3.62576	11.1537
3.62322	11.2869
3.62069	11.3174
3.61817	11.2897
3.61564	11.282
3.61312	11.3116
3.61061	11.3023
3.6081	11.3147
3.60559	11.3384
3.60308	11.2769
3.60058	11.223
3.59808	11.2491
3.59558	11.3158
3.59309	11.3067
3.59061	11.1941
3.58812	11.1554
3.58564	11.1774
3.58316	11.1664
3.58069	11.1882
3.57822	11.1592
3.57575	11.186
3.57328	11.2293
3.57082	11.2001
3.56836	11.1431
3.56591	11.1818
3.56346	11.2422
3.56101	11.1711
3.55857	11.1745
3.55613	11.2074
3.55369	11.1845
3.55126	11.1312
3.54883	11.1498
3.5464	11.1977
3.54397	11.1562
3.54155	11.089
3.53914	11.071
3.53672	11.0799
3.53431	11.0711
3.5319	10.9868
3.5295	10.9897
3.5271	10.9794
3.5247	11.0541
3.52231	11.1467
3.51991	10.9978
3.51753	10.9452
3.51514	10.9613
3.51276	11.0387
3.51038	10.9964
3.50801	10.956
3.50563	11.1008
3.50327	11.2144
3.5009	11.0284
3.49854	10.9025
3.49618	10.9147
3.49382	10.9422
3.49147	10.9446
3.48912	11.0207
3.48677	11.0602
3.48443	11.0653
3.48209	10.99
3.47975	10.8934
3.47742	10.8513
3.47509	10.9265
3.47276	10.9735
3.47044	10.8774
3.46812	10.8166
3.4658	10.9066
3.46348	10.8805
3.46117	10.8151
3.45886	10.8695
3.45656	10.8326
