Name: Quartz SiO_2
Type: Mineral
Class: Silicates
Subclass: Tectosilicates
Particle Size: 45-125um
Sample No.: TS-1C
Owner: JPL
Wavelength range: VNIR-SWIR
Origin: USA, South Dakota, Custer County, Custer.
Collected by:  Ward's
Description: Rose quartz





Measurement: Hemispherical reflectance
First Column: X
Second Column: Y
X Units: Wavelength (micrometers)
Y Units: Reflectance (percent)
First X Value: 2.500
Last X Value: 0.400
Number of X Values: 2101
Additional information: ts01ca.txt

2.500  79.803107
2.499  79.983404
2.498  80.020935
2.497  79.954167
2.496  79.871011
2.495  80.057820
2.494  80.018458
2.493  80.094421
2.492  80.066037
2.491  80.134567
2.490  79.907696
2.489  80.138511
2.488  80.239072
2.487  80.281763
2.486  79.992955
2.485  80.058237
2.484  80.110093
2.483  80.164306
2.482  80.126371
2.481  80.307619
2.480  80.270894
2.479  80.244043
2.478  80.317402
2.477  80.474350
2.476  80.341921
2.475  80.244036
2.474  80.333990
2.473  80.353766
2.472  80.370112
2.471  80.318103
2.470  80.438772
2.469  80.470150
2.468  80.336660
2.467  80.469433
2.466  80.318652
2.465  80.390546
2.464  80.405192
2.463  80.436342
2.462  80.352229
2.461  80.360200
2.460  80.332801
2.459  80.501615
2.458  80.496464
2.457  80.549314
2.456  80.558655
2.455  80.614506
2.454  80.588445
2.453  80.571101
2.452  80.578529
2.451  80.591352
2.450  80.557332
2.449  80.538437
2.448  80.469642
2.447  80.598344
2.446  80.613211
2.445  80.553741
2.444  80.569097
2.443  80.564224
2.442  80.591104
2.441  80.559428
2.440  80.548893
2.439  80.702105
2.438  80.707808
2.437  80.771619
2.436  80.686172
2.435  80.782175
2.434  80.738030
2.433  80.743650
2.432  80.805039
2.431  80.858871
2.430  80.879075
2.429  80.890910
2.428  80.809178
2.427  80.796494
2.426  80.789910
2.425  80.819913
2.424  80.825580
2.423  80.892832
2.422  80.872251
2.421  80.879734
2.420  80.983761
2.419  80.968208
2.418  81.002934
2.417  81.000510
2.416  81.016533
2.415  81.118935
2.414  81.111561
2.413  81.149913
2.412  81.075627
2.411  81.099598
2.410  81.202764
2.409  81.201705
2.408  81.161426
2.407  81.128395
2.406  81.122596
2.405  81.127585
2.404  81.224537
2.403  81.243221
2.402  81.204879
2.401  81.249525
2.400  81.224362
2.399  81.281945
2.398  81.307179
2.397  81.305879
2.396  81.299957
2.395  81.349778
2.394  81.392727
2.393  81.404090
2.392  81.423799
2.391  81.402224
2.390  81.446251
2.389  81.382236
2.388  81.427100
2.387  81.454827
2.386  81.448390
2.385  81.475481
2.384  81.462887
2.383  81.489257
2.382  81.504125
2.381  81.515307
2.380  81.571074
2.379  81.579911
2.378  81.554542
2.377  81.526023
2.376  81.546146
2.375  81.610030
2.374  81.612137
2.373  81.588690
2.372  81.600251
2.371  81.572953
2.370  81.607247
2.369  81.659711
2.368  81.668234
2.367  81.704033
2.366  81.671235
2.365  81.654109
2.364  81.748890
2.363  81.824867
2.362  81.797263
2.361  81.742161
2.360  81.763195
2.359  81.838060
2.358  81.847096
2.357  81.848861
2.356  81.823247
2.355  81.871512
2.354  81.925082
2.353  81.901822
2.352  81.869228
2.351  81.848744
2.350  81.916261
2.349  81.931993
2.348  81.923384
2.347  81.955525
2.346  81.966431
2.345  82.010559
2.344  82.057500
2.343  82.048391
2.342  82.006489
2.341  82.008141
2.340  82.008936
2.339  82.020621
2.338  82.075976
2.337  82.074727
2.336  82.032191
2.335  82.005285
2.334  82.014881
2.333  82.058223
2.332  82.076556
2.331  81.990861
2.330  81.921687
2.329  81.964448
2.328  81.998892
2.327  82.041439
2.326  82.041897
2.325  82.058404
2.324  82.052979
2.323  82.070555
2.322  82.049271
2.321  82.051506
2.320  82.057743
2.319  82.036126
2.318  82.046714
2.317  82.033614
2.316  82.009019
2.315  82.015367
2.314  82.034569
2.313  82.001580
2.312  82.024686
2.311  82.094371
2.310  82.096713
2.309  82.117684
2.308  82.133994
2.307  82.119397
2.306  82.069354
2.305  82.080849
2.304  82.073115
2.303  82.108569
2.302  82.104689
2.301  82.146413
2.300  82.149571
2.299  82.114071
2.298  82.090495
2.297  82.143961
2.296  82.088133
2.295  82.055413
2.294  82.074437
2.293  82.093537
2.292  82.107442
2.291  82.086662
2.290  82.093875
2.289  82.010701
2.288  82.099472
2.287  82.075504
2.286  82.132746
2.285  82.160299
2.284  82.096061
2.283  82.117084
2.282  82.124018
2.281  82.063854
2.280  82.078715
2.279  82.106416
2.278  82.096123
2.277  82.061761
2.276  82.082968
2.275  82.064137
2.274  82.047735
2.273  82.049350
2.272  82.064188
2.271  82.018750
2.270  82.013673
2.269  82.130575
2.268  82.109120
2.267  82.049786
2.266  82.031148
2.265  82.045737
2.264  82.050855
2.263  82.050610
2.262  82.010616
2.261  82.077878
2.260  82.072160
2.259  82.007506
2.258  82.029101
2.257  82.010904
2.256  82.016986
2.255  82.109799
2.254  82.071257
2.253  81.974669
2.252  82.034208
2.251  82.121614
2.250  81.996869
2.249  81.996208
2.248  81.991356
2.247  81.949109
2.246  82.070619
2.245  82.095190
2.244  82.032756
2.243  82.016458
2.242  82.008581
2.241  81.970095
2.240  82.029799
2.239  82.009507
2.238  82.075879
2.237  82.012818
2.236  82.029745
2.235  81.958036
2.234  82.063679
2.233  81.960769
2.232  81.984470
2.231  82.079053
2.230  82.026243
2.229  82.092650
2.228  82.104367
2.227  82.058751
2.226  82.019196
2.225  81.968472
2.224  81.986015
2.223  82.092049
2.222  82.153973
2.221  82.028201
2.220  82.105368
2.219  82.098563
2.218  82.101590
2.217  82.067036
2.216  82.090973
2.215  82.033151
2.214  82.089357
2.213  82.094105
2.212  82.142289
2.211  82.104470
2.210  82.125090
2.209  82.104683
2.208  82.233448
2.207  82.081690
2.206  82.255143
2.205  82.214005
2.204  82.247216
2.203  82.327389
2.202  82.360539
2.201  82.305117
2.200  82.351574
2.199  82.409299
2.198  82.382043
2.197  82.402598
2.196  82.324844
2.195  82.367908
2.194  82.455804
2.193  82.401162
2.192  82.325560
2.191  82.435030
2.190  82.452616
2.189  82.458315
2.188  82.509598
2.187  82.524532
2.186  82.581518
2.185  82.536579
2.184  82.553376
2.183  82.599211
2.182  82.654452
2.181  82.653795
2.180  82.656995
2.179  82.641998
2.178  82.673672
2.177  82.758316
2.176  82.807742
2.175  82.853771
2.174  82.832466
2.173  82.772614
2.172  82.888456
2.171  82.979273
2.170  82.966201
2.169  83.019467
2.168  83.004242
2.167  83.014314
2.166  83.116963
2.165  83.128929
2.164  83.198738
2.163  83.197733
2.162  83.221120
2.161  83.256042
2.160  83.292917
2.159  83.350552
2.158  83.309479
2.157  83.391732
2.156  83.436733
2.155  83.481459
2.154  83.483717
2.153  83.481221
2.152  83.446835
2.151  83.542588
2.150  83.601644
2.149  83.647302
2.148  83.705560
2.147  83.608166
2.146  83.652839
2.145  83.635552
2.144  83.626090
2.143  83.583423
2.142  83.643371
2.141  83.621585
2.140  83.581712
2.139  83.685532
2.138  83.589405
2.137  83.582750
2.136  83.573878
2.135  83.500380
2.134  83.540250
2.133  83.456637
2.132  83.476509
2.131  83.469669
2.130  83.452888
2.129  83.418005
2.128  83.406291
2.127  83.351506
2.126  83.348501
2.125  83.283686
2.124  83.236693
2.123  83.189219
2.122  83.122130
2.121  83.043420
2.120  83.046548
2.119  83.059154
2.118  82.966799
2.117  82.916192
2.116  82.879335
2.115  82.803112
2.114  82.750482
2.113  82.695022
2.112  82.619069
2.111  82.668215
2.110  82.690417
2.109  82.606825
2.108  82.505748
2.107  82.442664
2.106  82.456986
2.105  82.395028
2.104  82.405709
2.103  82.369703
2.102  82.344715
2.101  82.273183
2.100  82.194852
2.099  82.234213
2.098  82.235521
2.097  82.210005
2.096  82.246429
2.095  82.273493
2.094  82.264686
2.093  82.278317
2.092  82.258153
2.091  82.296186
2.090  82.331885
2.089  82.270432
2.088  82.281910
2.087  82.303687
2.086  82.248150
2.085  82.296444
2.084  82.411196
2.083  82.362990
2.082  82.313417
2.081  82.351218
2.080  82.370833
2.079  82.366369
2.078  82.407341
2.077  82.386239
2.076  82.378608
2.075  82.422707
2.074  82.403771
2.073  82.421524
2.072  82.418465
2.071  82.434252
2.070  82.503038
2.069  82.481991
2.068  82.486431
2.067  82.541245
2.066  82.549615
2.065  82.513025
2.064  82.492760
2.063  82.509624
2.062  82.546229
2.061  82.582366
2.060  82.590023
2.059  82.645953
2.058  82.619549
2.057  82.629359
2.056  82.591259
2.055  82.555036
2.054  82.595980
2.053  82.591392
2.052  82.645369
2.051  82.669829
2.050  82.661275
2.049  82.637118
2.048  82.688553
2.047  82.745187
2.046  82.685999
2.045  82.662663
2.044  82.685785
2.043  82.692612
2.042  82.748192
2.041  82.771763
2.040  82.743883
2.039  82.739182
2.038  82.775179
2.037  82.766903
2.036  82.769630
2.035  82.794608
2.034  82.731077
2.033  82.712391
2.032  82.681417
2.031  82.753696
2.030  82.777630
2.029  82.735949
2.028  82.738668
2.027  82.703867
2.026  82.775313
2.025  82.774510
2.024  82.725786
2.023  82.720422
2.022  82.693732
2.021  82.721964
2.020  82.760826
2.019  82.719019
2.018  82.685373
2.017  82.666173
2.016  82.689112
2.015  82.701820
2.014  82.653820
2.013  82.703423
2.012  82.653758
2.011  82.727969
2.010  82.729078
2.009  82.678465
2.008  82.695159
2.007  82.654727
2.006  82.659958
2.005  82.635330
2.004  82.686325
2.003  82.739712
2.002  82.730463
2.001  82.642251
2.000  82.695081
1.999  82.672101
1.998  82.656107
1.997  82.704165
1.996  82.578506
1.995  82.564764
1.994  82.541198
1.993  82.570793
1.992  82.590880
1.991  82.570478
1.990  82.536149
1.989  82.550456
1.988  82.466522
1.987  82.495741
1.986  82.448007
1.985  82.423527
1.984  82.467070
1.983  82.424793
1.982  82.375782
1.981  82.384505
1.980  82.434204
1.979  82.421180
1.978  82.405454
1.977  82.358576
1.976  82.331645
1.975  82.337399
1.974  82.363529
1.973  82.383086
1.972  82.226822
1.971  82.266625
1.970  82.196000
1.969  82.219176
1.968  82.267910
1.967  82.226019
1.966  82.218553
1.965  82.208593
1.964  82.269121
1.963  82.260209
1.962  82.269471
1.961  82.202759
1.960  82.168550
1.959  82.208356
1.958  82.151904
1.957  82.168589
1.956  82.150554
1.955  82.196606
1.954  82.165489
1.953  82.146578
1.952  82.161506
1.951  82.186969
1.950  82.160646
1.949  82.145270
1.948  82.154862
1.947  82.186696
1.946  82.195994
1.945  82.147406
1.944  82.195390
1.943  82.152683
1.942  82.148990
1.941  82.171016
1.940  82.174204
1.939  82.196633
1.938  82.200683
1.937  82.140111
1.936  82.114547
1.935  82.177516
1.934  82.126546
1.933  82.214651
1.932  82.190500
1.931  82.239492
1.930  82.182386
1.929  82.204768
1.928  82.240047
1.927  82.200923
1.926  82.238762
1.925  82.275545
1.924  82.286621
1.923  82.299219
1.922  82.207899
1.921  82.201692
1.920  82.248076
1.919  82.192286
1.918  82.317978
1.917  82.332866
1.916  82.199280
1.915  82.348841
1.914  82.307034
1.913  82.390192
1.912  82.442803
1.911  82.452340
1.910  82.405761
1.909  82.461816
1.908  82.484782
1.907  82.445390
1.906  82.508337
1.905  82.484429
1.904  82.468719
1.903  82.605197
1.902  82.521660
1.901  82.662886
1.900  82.630291
1.899  82.700687
1.898  82.648500
1.897  82.747907
1.896  82.718891
1.895  82.754471
1.894  82.755645
1.893  82.789687
1.892  82.864739
1.891  82.942899
1.890  82.943620
1.889  82.949883
1.888  82.926065
1.887  83.002897
1.886  82.969307
1.885  83.055495
1.884  82.988501
1.883  82.993385
1.882  83.034251
1.881  83.058554
1.880  83.071563
1.879  83.129960
1.878  83.115523
1.877  83.218879
1.876  83.193812
1.875  83.232753
1.874  83.112423
1.873  83.148254
1.872  83.194292
1.871  83.266610
1.870  83.262327
1.869  83.284847
1.868  83.241864
1.867  83.284250
1.866  83.277331
1.865  83.196927
1.864  83.223747
1.863  83.267164
1.862  83.211817
1.861  83.246446
1.860  83.256214
1.859  83.325848
1.858  83.329981
1.857  83.375220
1.856  83.312206
1.855  83.304853
1.854  83.337383
1.853  83.372740
1.852  83.282530
1.851  83.300042
1.850  83.286824
1.849  83.324614
1.848  83.281696
1.847  83.320086
1.846  83.304724
1.845  83.339926
1.844  83.337740
1.843  83.329850
1.842  83.341407
1.841  83.320989
1.840  83.330003
1.839  83.409744
1.838  83.330009
1.837  83.311125
1.836  83.362110
1.835  83.384260
1.834  83.394787
1.833  83.337903
1.832  83.298213
1.831  83.328308
1.830  83.332568
1.829  83.345376
1.828  83.344269
1.827  83.315236
1.826  83.366429
1.825  83.391975
1.824  83.396557
1.823  83.330658
1.822  83.292528
1.821  83.309388
1.820  83.311806
1.819  83.307834
1.818  83.299200
1.817  83.359264
1.816  83.353899
1.815  83.314528
1.814  83.366044
1.813  83.368102
1.812  83.380224
1.811  83.349408
1.810  83.372176
1.809  83.413425
1.808  83.364261
1.807  83.342417
1.806  83.420910
1.805  83.452164
1.804  83.438476
1.803  83.410302
1.802  83.404244
1.801  83.410148
1.800  83.423447
1.799  83.421902
1.798  83.453077
1.797  83.463179
1.796  83.388480
1.795  83.360625
1.794  83.409433
1.793  83.360289
1.792  83.304697
1.791  83.371741
1.790  83.370630
1.789  83.393548
1.788  83.417803
1.787  83.343120
1.786  83.327189
1.785  83.356224
1.784  83.383028
1.783  83.353672
1.782  83.346879
1.781  83.363645
1.780  83.370737
1.779  83.386145
1.778  83.414747
1.777  83.388999
1.776  83.346713
1.775  83.393165
1.774  83.388498
1.773  83.363303
1.772  83.354204
1.771  83.347016
1.770  83.374319
1.769  83.383511
1.768  83.379488
1.767  83.337334
1.766  83.382681
1.765  83.382675
1.764  83.415330
1.763  83.370829
1.762  83.366296
1.761  83.425337
1.760  83.422102
1.759  83.369718
1.758  83.316964
1.757  83.309959
1.756  83.343407
1.755  83.367252
1.754  83.368394
1.753  83.407355
1.752  83.383124
1.751  83.379494
1.750  83.402712
1.749  83.434772
1.748  83.365374
1.747  83.354106
1.746  83.386351
1.745  83.401511
1.744  83.431143
1.743  83.433158
1.742  83.420774
1.741  83.449716
1.740  83.388864
1.739  83.397878
1.738  83.420488
1.737  83.377168
1.736  83.439867
1.735  83.465193
1.734  83.494922
1.733  83.538623
1.732  83.515632
1.731  83.487614
1.730  83.469894
1.729  83.404673
1.728  83.458313
1.727  83.448953
1.726  83.513054
1.725  83.486478
1.724  83.518214
1.723  83.531462
1.722  83.488436
1.721  83.477565
1.720  83.443843
1.719  83.471108
1.718  83.483185
1.717  83.478403
1.716  83.543342
1.715  83.532123
1.714  83.421252
1.713  83.421916
1.712  83.481475
1.711  83.531340
1.710  83.390324
1.709  83.376901
1.708  83.359332
1.707  83.452308
1.706  83.432832
1.705  83.399859
1.704  83.487372
1.703  83.473703
1.702  83.450956
1.701  83.450005
1.700  83.470648
1.699  83.369634
1.698  83.423545
1.697  83.406437
1.696  83.480777
1.695  83.337540
1.694  83.406713
1.693  83.411816
1.692  83.440582
1.691  83.442713
1.690  83.411612
1.689  83.456516
1.688  83.424602
1.687  83.401539
1.686  83.449469
1.685  83.280161
1.684  83.431886
1.683  83.391020
1.682  83.366292
1.681  83.397772
1.680  83.380090
1.679  83.347157
1.678  83.373510
1.677  83.404493
1.676  83.398097
1.675  83.319022
1.674  83.391289
1.673  83.370055
1.672  83.363580
1.671  83.389972
1.670  83.435987
1.669  83.459051
1.668  83.350694
1.667  83.336658
1.666  83.380641
1.665  83.313147
1.664  83.332802
1.663  83.395003
1.662  83.365584
1.661  83.344925
1.660  83.317110
1.659  83.304797
1.658  83.371972
1.657  83.322815
1.656  83.411814
1.655  83.350825
1.654  83.373436
1.653  83.315931
1.652  83.358559
1.651  83.307965
1.650  83.324051
1.649  83.277344
1.648  83.285506
1.647  83.300505
1.646  83.410017
1.645  83.360371
1.644  83.288606
1.643  83.300421
1.642  83.351814
1.641  83.356312
1.640  83.338116
1.639  83.428493
1.638  83.395353
1.637  83.308606
1.636  83.296800
1.635  83.350352
1.634  83.379054
1.633  83.338385
1.632  83.378238
1.631  83.364027
1.630  83.310316
1.629  83.359669
1.628  83.327582
1.627  83.334957
1.626  83.388178
1.625  83.359783
1.624  83.379733
1.623  83.389210
1.622  83.423633
1.621  83.324430
1.620  83.355255
1.619  83.276339
1.618  83.402124
1.617  83.457503
1.616  83.375915
1.615  83.440534
1.614  83.379970
1.613  83.398925
1.612  83.373465
1.611  83.363451
1.610  83.399529
1.609  83.391519
1.608  83.401147
1.607  83.387335
1.606  83.415391
1.605  83.365590
1.604  83.394893
1.603  83.380219
1.602  83.402111
1.601  83.423338
1.600  83.370910
1.599  83.395077
1.598  83.336629
1.597  83.362582
1.596  83.410838
1.595  83.340650
1.594  83.366951
1.593  83.333109
1.592  83.358014
1.591  83.373149
1.590  83.363482
1.589  83.304345
1.588  83.397254
1.587  83.359333
1.586  83.276412
1.585  83.344823
1.584  83.342035
1.583  83.364622
1.582  83.366831
1.581  83.348011
1.580  83.329692
1.579  83.331157
1.578  83.349085
1.577  83.289437
1.576  83.423523
1.575  83.353547
1.574  83.396355
1.573  83.407673
1.572  83.395982
1.571  83.331621
1.570  83.273988
1.569  83.320877
1.568  83.338889
1.567  83.356477
1.566  83.279535
1.565  83.353352
1.564  83.321586
1.563  83.365968
1.562  83.307016
1.561  83.313183
1.560  83.328480
1.559  83.331706
1.558  83.406385
1.557  83.369877
1.556  83.295855
1.555  83.260604
1.554  83.326519
1.553  83.324303
1.552  83.280829
1.551  83.243946
1.550  83.297161
1.549  83.306671
1.548  83.344435
1.547  83.352855
1.546  83.373616
1.545  83.230814
1.544  83.252605
1.543  83.314732
1.542  83.304117
1.541  83.266813
1.540  83.261676
1.539  83.288188
1.538  83.286498
1.537  83.252309
1.536  83.212505
1.535  83.255270
1.534  83.269154
1.533  83.284663
1.532  83.305444
1.531  83.340212
1.530  83.269574
1.529  83.234889
1.528  83.256975
1.527  83.271311
1.526  83.232033
1.525  83.190419
1.524  83.208313
1.523  83.213417
1.522  83.231753
1.521  83.230175
1.520  83.191045
1.519  83.204107
1.518  83.234297
1.517  83.248571
1.516  83.275730
1.515  83.201302
1.514  83.189886
1.513  83.231470
1.512  83.252258
1.511  83.244761
1.510  83.190377
1.509  83.180868
1.508  83.178429
1.507  83.177564
1.506  83.175847
1.505  83.185139
1.504  83.238605
1.503  83.197517
1.502  83.165678
1.501  83.206169
1.500  83.215538
1.499  83.190991
1.498  83.231972
1.497  83.239272
1.496  83.144155
1.495  83.151493
1.494  83.155538
1.493  83.127230
1.492  83.150027
1.491  83.155120
1.490  83.144498
1.489  83.116188
1.488  83.125211
1.487  83.157048
1.486  83.187214
1.485  83.172227
1.484  83.189413
1.483  83.219124
1.482  83.132531
1.481  83.108924
1.480  83.126415
1.479  83.140958
1.478  83.165715
1.477  83.125841
1.476  83.092043
1.475  83.115788
1.474  83.104640
1.473  83.123542
1.472  83.189367
1.471  83.072009
1.470  83.087884
1.469  83.139770
1.468  83.123362
1.467  83.130913
1.466  83.115028
1.465  83.060884
1.464  83.084886
1.463  83.035935
1.462  83.042731
1.461  83.103842
1.460  83.109214
1.459  83.105899
1.458  83.041664
1.457  83.126619
1.456  83.133130
1.455  83.092837
1.454  83.073401
1.453  83.074723
1.452  83.030551
1.451  83.032229
1.450  83.045915
1.449  83.057961
1.448  83.028939
1.447  83.066159
1.446  83.056169
1.445  83.069696
1.444  83.049019
1.443  83.007176
1.442  83.025861
1.441  83.074025
1.440  83.095547
1.439  83.083302
1.438  83.037808
1.437  83.027658
1.436  83.052238
1.435  83.119894
1.434  83.023755
1.433  83.031136
1.432  83.020438
1.431  83.092636
1.430  82.970099
1.429  83.064755
1.428  83.037347
1.427  83.035996
1.426  82.948136
1.425  83.017977
1.424  83.018680
1.423  83.018299
1.422  82.996832
1.421  82.936359
1.420  83.002271
1.419  83.059719
