Name: Actinolite Ca_2(Mg,Fe^2+)_5Si_8O_22(OH)_2
Type: Mineral
Class: Silicates
Subclass: Inosilicates
Particle Size: 45-125um
Sample No.: IN-4A
Owner: JPL
Wavelength range: VNIR-SWIR
Origin: USA, California, San Bernadino County, Wrightwood.
Collected by:  Burminco
Description: 





Measurement: Hemispherical reflectance
First Column: X
Second Column: Y
X Units: Wavelength (micrometers)
Y Units: Reflectance (percent)
First X Value: 2.500
Last X Value: 0.400
Number of X Values: 2101
Additional information: in04aa.txt

2.500  44.222537
2.499  43.995040
2.498  44.133174
2.497  44.059239
2.496  43.838348
2.495  44.031467
2.494  43.998616
2.493  43.880940
2.492  43.790958
2.491  43.611143
2.490  43.719211
2.489  43.721730
2.488  43.821219
2.487  43.691993
2.486  43.750901
2.485  43.513430
2.484  43.727207
2.483  43.534022
2.482  43.617331
2.481  43.496633
2.480  43.584667
2.479  43.429512
2.478  43.590050
2.477  43.363266
2.476  43.416810
2.475  43.309552
2.474  43.492527
2.473  43.414247
2.472  43.437857
2.471  43.319417
2.470  43.404400
2.469  43.404015
2.468  43.337346
2.467  43.276388
2.466  43.341191
2.465  43.343232
2.464  43.473308
2.463  43.391848
2.462  43.427671
2.461  43.412790
2.460  43.506515
2.459  43.434975
2.458  43.508455
2.457  43.483859
2.456  43.693665
2.455  43.621926
2.454  43.749793
2.453  43.635262
2.452  43.815753
2.451  43.742368
2.450  43.886089
2.449  43.931265
2.448  44.054980
2.447  44.056754
2.446  44.180002
2.445  44.211237
2.444  44.394292
2.443  44.351105
2.442  44.517632
2.441  44.599099
2.440  44.656853
2.439  44.680195
2.438  44.737659
2.437  44.761085
2.436  44.954509
2.435  44.906538
2.434  44.971355
2.433  44.927762
2.432  45.106626
2.431  45.039495
2.430  45.108799
2.429  45.133622
2.428  45.196223
2.427  45.139914
2.426  45.129744
2.425  45.003935
2.424  45.116848
2.423  44.972032
2.422  44.926703
2.421  44.875322
2.420  44.845272
2.419  44.708031
2.418  44.647497
2.417  44.524773
2.416  44.435935
2.415  44.282098
2.414  44.195152
2.413  44.109680
2.412  44.026638
2.411  43.848655
2.410  43.724074
2.409  43.607327
2.408  43.461278
2.407  43.239662
2.406  43.062624
2.405  42.777612
2.404  42.646616
2.403  42.318070
2.402  42.049440
2.401  41.696593
2.400  41.379806
2.399  41.048402
2.398  40.769852
2.397  40.389676
2.396  40.037972
2.395  39.739792
2.394  39.397722
2.393  38.970370
2.392  38.717924
2.391  38.475845
2.390  38.213803
2.389  38.031163
2.388  37.920279
2.387  37.819460
2.386  37.836232
2.385  37.825842
2.384  37.892600
2.383  38.025839
2.382  38.243049
2.381  38.452231
2.380  38.772429
2.379  39.084896
2.378  39.408629
2.377  39.772943
2.376  40.218089
2.375  40.624175
2.374  41.048812
2.373  41.526243
2.372  41.931956
2.371  42.313448
2.370  42.778878
2.369  43.189759
2.368  43.579428
2.367  43.922423
2.366  44.255689
2.365  44.624541
2.364  44.933238
2.363  45.214625
2.362  45.409390
2.361  45.591941
2.360  45.826721
2.359  45.991128
2.358  46.199649
2.357  46.357172
2.356  46.449107
2.355  46.581491
2.354  46.655364
2.353  46.685572
2.352  46.716611
2.351  46.745300
2.350  46.772748
2.349  46.761448
2.348  46.642424
2.347  46.513920
2.346  46.483862
2.345  46.405486
2.344  46.239933
2.343  46.075029
2.342  45.846666
2.341  45.585529
2.340  45.327877
2.339  45.020155
2.338  44.660907
2.337  44.274462
2.336  43.863235
2.335  43.413896
2.334  42.854004
2.333  42.330307
2.332  41.767983
2.331  41.205345
2.330  40.568709
2.329  39.964788
2.328  39.399506
2.327  38.778455
2.326  38.101182
2.325  37.522512
2.324  37.008487
2.323  36.472669
2.322  36.002162
2.321  35.545688
2.320  35.014605
2.319  34.709459
2.318  34.370780
2.317  34.165075
2.316  33.949822
2.315  33.767340
2.314  33.616129
2.313  33.561630
2.312  33.484927
2.311  33.489732
2.310  33.455425
2.309  33.549940
2.308  33.594216
2.307  33.720437
2.306  33.772475
2.305  33.898608
2.304  34.065235
2.303  34.240094
2.302  34.402867
2.301  34.635182
2.300  34.838783
2.299  35.126176
2.298  35.380355
2.297  35.656045
2.296  35.943801
2.295  36.342142
2.294  36.709272
2.293  37.150274
2.292  37.595882
2.291  38.133867
2.290  38.603373
2.289  39.199257
2.288  39.582391
2.287  40.093348
2.286  40.680252
2.285  41.224962
2.284  41.698873
2.283  42.205482
2.282  42.691883
2.281  43.193291
2.280  43.617373
2.279  44.109644
2.278  44.473410
2.277  44.865626
2.276  45.261807
2.275  45.746080
2.274  46.148442
2.273  46.542818
2.272  46.921991
2.271  47.294593
2.270  47.594134
2.269  47.962916
2.268  48.347587
2.267  48.720843
2.266  49.012850
2.265  49.368583
2.264  49.655907
2.263  49.963529
2.262  50.100702
2.261  50.360668
2.260  50.449376
2.259  50.660202
2.258  50.749876
2.257  50.922097
2.256  50.951465
2.255  51.054236
2.254  51.070102
2.253  51.134651
2.252  51.096579
2.251  51.200262
2.250  51.265151
2.249  51.309225
2.248  51.305984
2.247  51.474368
2.246  51.491021
2.245  51.710295
2.244  51.846439
2.243  52.044210
2.242  52.218829
2.241  52.454118
2.240  52.680663
2.239  53.006547
2.238  53.252249
2.237  53.509386
2.236  53.801932
2.235  54.115001
2.234  54.355779
2.233  54.590036
2.232  54.738567
2.231  54.987396
2.230  55.152177
2.229  55.387432
2.228  55.486767
2.227  55.726265
2.226  55.824887
2.225  55.958147
2.224  55.951704
2.223  56.111189
2.222  56.101541
2.221  56.332301
2.220  56.351557
2.219  56.362247
2.218  56.448263
2.217  56.580894
2.216  56.594101
2.215  56.600231
2.214  56.746344
2.213  56.802543
2.212  56.859631
2.211  56.859981
2.210  56.978074
2.209  57.053772
2.208  57.040531
2.207  57.155258
2.206  57.179492
2.205  57.349164
2.204  57.234805
2.203  57.352632
2.202  57.455677
2.201  57.554327
2.200  57.515417
2.199  57.621252
2.198  57.625408
2.197  57.692406
2.196  57.660572
2.195  57.786264
2.194  57.753891
2.193  57.865023
2.192  57.935522
2.191  57.925662
2.190  57.956476
2.189  58.028294
2.188  58.013685
2.187  58.132398
2.186  58.116002
2.185  58.234276
2.184  58.198876
2.183  58.210014
2.182  58.279928
2.181  58.341881
2.180  58.336951
2.179  58.458858
2.178  58.461791
2.177  58.542295
2.176  58.581694
2.175  58.686003
2.174  58.669431
2.173  58.774630
2.172  58.769454
2.171  58.837135
2.170  58.891332
2.169  58.894925
2.168  58.960460
2.167  58.992884
2.166  58.971086
2.165  59.082122
2.164  59.075064
2.163  59.128643
2.162  59.131855
2.161  59.181700
2.160  59.124689
2.159  59.158504
2.158  59.165599
2.157  59.163581
2.156  59.166434
2.155  59.267012
2.154  59.242140
2.153  59.261888
2.152  59.268766
2.151  59.254440
2.150  59.319183
2.149  59.343647
2.148  59.312205
2.147  59.362868
2.146  59.308302
2.145  59.372669
2.144  59.427678
2.143  59.507447
2.142  59.426263
2.141  59.385396
2.140  59.285326
2.139  59.305696
2.138  59.317598
2.137  59.334521
2.136  59.260572
2.135  59.221201
2.134  59.196584
2.133  59.141416
2.132  59.018017
2.131  59.039599
2.130  58.994268
2.129  58.945792
2.128  58.923274
2.127  58.920064
2.126  58.858901
2.125  58.907220
2.124  58.834676
2.123  58.803966
2.122  58.835446
2.121  58.803308
2.120  58.795584
2.119  58.792746
2.118  58.776131
2.117  58.763468
2.116  58.755719
2.115  58.795650
2.114  58.852447
2.113  58.981003
2.112  59.052558
2.111  59.131275
2.110  59.286775
2.109  59.441052
2.108  59.608909
2.107  59.815810
2.106  59.962895
2.105  60.157508
2.104  60.316505
2.103  60.523384
2.102  60.695450
2.101  60.800615
2.100  60.875506
2.099  60.995497
2.098  61.089177
2.097  61.156834
2.096  61.189522
2.095  61.283726
2.094  61.364815
2.093  61.385297
2.092  61.410995
2.091  61.413423
2.090  61.505633
2.089  61.608732
2.088  61.650081
2.087  61.727905
2.086  61.789551
2.085  61.846901
2.084  61.924651
2.083  62.013653
2.082  62.092582
2.081  62.177231
2.080  62.260150
2.079  62.353593
2.078  62.438667
2.077  62.501255
2.076  62.574443
2.075  62.602411
2.074  62.626502
2.073  62.695579
2.072  62.733898
2.071  62.812277
2.070  62.898431
2.069  62.961918
2.068  63.011646
2.067  63.050340
2.066  63.108012
2.065  63.178556
2.064  63.238843
2.063  63.233662
2.062  63.287025
2.061  63.344996
2.060  63.392283
2.059  63.464410
2.058  63.501248
2.057  63.505183
2.056  63.609148
2.055  63.714210
2.054  63.758153
2.053  63.804936
2.052  64.221767
2.051  64.178570
2.050  64.031544
2.049  64.131074
2.048  64.197064
2.047  64.204503
2.046  64.305912
2.045  64.440123
2.044  64.507115
2.043  64.558181
2.042  64.639326
2.041  64.688502
2.040  64.747879
2.039  64.828365
2.038  64.945215
2.037  64.942186
2.036  64.975411
2.035  64.979906
2.034  65.019443
2.033  65.081165
2.032  65.115547
2.031  65.089618
2.030  65.114663
2.029  65.131262
2.028  65.215154
2.027  65.148551
2.026  65.131115
2.025  65.110631
2.024  65.108782
2.023  65.066414
2.022  65.093678
2.021  65.126764
2.020  65.127130
2.019  65.171422
2.018  65.150839
2.017  65.117513
2.016  65.090849
2.015  65.168119
2.014  65.183025
2.013  65.220806
2.012  65.236449
2.011  65.233581
2.010  65.285335
2.009  65.271675
2.008  65.253507
2.007  65.291138
2.006  65.339624
2.005  65.421644
2.004  65.483655
2.003  65.444796
2.002  65.508842
2.001  65.535083
2.000  65.589109
1.999  65.620883
1.998  65.612277
1.997  65.692816
1.996  65.759424
1.995  65.758423
1.994  65.791983
1.993  65.831146
1.992  65.908521
1.991  65.859800
1.990  66.028914
1.989  66.040386
1.988  66.090531
1.987  66.140168
1.986  66.281369
1.985  66.230951
1.984  66.387094
1.983  66.356492
1.982  66.488080
1.981  66.504607
1.980  66.590757
1.979  66.583053
1.978  66.698292
1.977  66.692291
1.976  66.790998
1.975  66.876768
1.974  66.932621
1.973  66.905768
1.972  66.928568
1.971  67.036779
1.970  67.070194
1.969  67.101671
1.968  67.201810
1.967  67.262392
1.966  67.323080
1.965  67.290913
1.964  67.399241
1.963  67.367637
1.962  67.452681
1.961  67.467623
1.960  67.560513
1.959  67.601873
1.958  67.700441
1.957  67.716528
1.956  67.668251
1.955  67.647063
1.954  67.742677
1.953  67.805031
1.952  67.857838
1.951  67.879479
1.950  67.944460
1.949  67.890349
1.948  68.034070
1.947  68.038442
1.946  68.077884
1.945  68.058903
1.944  68.235938
1.943  68.251611
1.942  68.314957
1.941  68.355816
1.940  68.356763
1.939  68.412826
1.938  68.465697
1.937  68.477961
1.936  68.605114
1.935  68.487969
1.934  68.659767
1.933  68.656936
1.932  68.773419
1.931  68.736780
1.930  68.783659
1.929  68.745070
1.928  68.899989
1.927  68.930440
1.926  68.965478
1.925  69.027286
1.924  69.035044
1.923  69.058033
1.922  69.128148
1.921  69.131928
1.920  69.180942
1.919  69.175102
1.918  69.251539
1.917  69.290301
1.916  69.349102
1.915  69.392577
1.914  69.426186
1.913  69.452248
1.912  69.555127
1.911  69.541549
1.910  69.580883
1.909  69.615446
1.908  69.582964
1.907  69.688804
1.906  69.733551
1.905  69.764219
1.904  69.798555
1.903  69.859273
1.902  69.881292
1.901  69.895584
1.900  69.933962
1.899  69.925144
1.898  69.993662
1.897  69.980738
1.896  70.109837
1.895  70.141035
1.894  70.116141
1.893  70.102352
1.892  70.171178
1.891  70.189643
1.890  70.272755
1.889  70.196992
1.888  70.333186
1.887  70.308250
1.886  70.347216
1.885  70.408728
1.884  70.537120
1.883  70.532813
1.882  70.547223
1.881  70.611090
1.880  70.639417
1.879  70.621155
1.878  70.716191
1.877  70.682126
1.876  70.750302
1.875  70.782916
1.874  70.790450
1.873  70.860928
1.872  70.905842
1.871  70.897187
1.870  70.888309
1.869  70.970565
1.868  70.978578
1.867  70.967515
1.866  71.045564
1.865  71.099245
1.864  71.118171
1.863  71.119157
1.862  71.159771
1.861  71.087086
1.860  71.205203
1.859  71.236388
1.858  71.324375
1.857  71.328633
1.856  71.331437
1.855  71.305229
1.854  71.341209
1.853  71.393575
1.852  71.432431
1.851  71.463483
1.850  71.471651
1.849  71.524049
1.848  71.616585
1.847  71.688539
1.846  71.665261
1.845  71.656381
1.844  71.719504
1.843  71.758051
1.842  71.847691
1.841  71.829394
1.840  71.865211
1.839  71.885001
1.838  71.930086
1.837  71.923579
1.836  71.944542
1.835  71.907146
1.834  72.007759
1.833  72.042964
1.832  72.065085
1.831  72.110869
1.830  72.107599
1.829  72.084119
1.828  72.181096
1.827  72.136479
1.826  72.163297
1.825  72.180920
1.824  72.227705
1.823  72.273817
1.822  72.314967
1.821  72.317976
1.820  72.353068
1.819  72.339498
1.818  72.338991
1.817  72.340256
1.816  72.373298
1.815  72.366187
1.814  72.401515
1.813  72.454254
1.812  72.472305
1.811  72.455844
1.810  72.494618
1.809  72.534309
1.808  72.561341
1.807  72.553224
1.806  72.578002
1.805  72.582621
1.804  72.579260
1.803  72.605029
1.802  72.658873
1.801  72.654024
1.800  72.680803
1.799  72.722001
1.798  72.710672
1.797  72.753125
1.796  72.711674
1.795  72.716516
1.794  72.770242
1.793  72.724596
1.792  72.704278
1.791  72.695532
1.790  72.666865
1.789  72.672254
1.788  72.716001
1.787  72.705541
1.786  72.719969
1.785  72.742099
1.784  72.681566
1.783  72.672081
1.782  72.699943
1.781  72.697246
1.780  72.732130
1.779  72.750297
1.778  72.786881
1.777  72.760620
1.776  72.706468
1.775  72.768183
1.774  72.808271
1.773  72.778001
1.772  72.758870
1.771  72.739902
1.770  72.739153
1.769  72.771834
1.768  72.789529
1.767  72.772059
1.766  72.737849
1.765  72.735350
1.764  72.750490
1.763  72.743229
1.762  72.735125
1.761  72.784630
1.760  72.767718
1.759  72.807054
1.758  72.788000
1.757  72.744017
1.756  72.771772
1.755  72.763673
1.754  72.769021
1.753  72.833688
1.752  72.845056
1.751  72.805563
1.750  72.770205
1.749  72.757825
1.748  72.817778
1.747  72.811277
1.746  72.811988
1.745  72.801053
1.744  72.789716
1.743  72.783367
1.742  72.796400
1.741  72.891789
1.740  72.827658
1.739  72.825372
1.738  72.845488
1.737  72.801782
1.736  72.811151
1.735  72.831039
1.734  72.771385
1.733  72.828527
1.732  72.867855
1.731  72.867809
1.730  72.876666
1.729  72.837122
1.728  72.866182
1.727  72.867460
1.726  72.852518
1.725  72.885668
1.724  72.846206
1.723  72.842125
1.722  72.821688
1.721  72.882749
1.720  72.858547
1.719  72.842121
1.718  72.859955
1.717  72.914721
1.716  72.804054
1.715  72.782613
1.714  72.773664
1.713  72.821652
1.712  72.827989
1.711  72.810729
1.710  72.746646
1.709  72.816864
1.708  72.777410
1.707  72.698755
1.706  72.712087
1.705  72.719043
1.704  72.687677
1.703  72.667584
1.702  72.627019
1.701  72.658287
1.700  72.647267
1.699  72.672517
1.698  72.587417
1.697  72.615155
1.696  72.567202
1.695  72.605631
1.694  72.570946
1.693  72.560365
1.692  72.565141
1.691  72.622730
1.690  72.506390
1.689  72.540064
1.688  72.512412
1.687  72.520196
1.686  72.502014
1.685  72.435548
1.684  72.434162
1.683  72.525876
1.682  72.480316
1.681  72.409689
1.680  72.353565
1.679  72.487667
1.678  72.357250
1.677  72.422537
1.676  72.365947
1.675  72.393701
1.674  72.328276
1.673  72.346772
1.672  72.355965
1.671  72.302562
1.670  72.322935
1.669  72.287107
1.668  72.146824
1.667  72.265365
1.666  72.209098
1.665  72.183689
1.664  72.169432
1.663  72.214625
1.662  72.157188
1.661  72.225134
1.660  72.108488
1.659  72.187084
1.658  72.106164
1.657  72.128972
1.656  72.077317
1.655  72.011868
1.654  72.022632
1.653  72.059114
1.652  71.953106
1.651  72.010204
1.650  71.982291
1.649  71.945968
1.648  71.885418
1.647  71.908432
1.646  71.870945
1.645  71.810649
1.644  71.855293
1.643  71.872861
1.642  71.808489
1.641  71.758489
1.640  71.754293
1.639  71.740071
1.638  71.718438
1.637  71.802797
1.636  71.714192
1.635  71.720716
1.634  71.621345
1.633  71.614268
1.632  71.669507
1.631  71.621742
1.630  71.576939
1.629  71.555526
1.628  71.525797
1.627  71.558894
1.626  71.481221
1.625  71.452053
1.624  71.466548
1.623  71.444626
1.622  71.351834
1.621  71.447840
1.620  71.300886
1.619  71.356721
1.618  71.328484
1.617  71.320092
1.616  71.247294
1.615  71.291323
1.614  71.228684
1.613  71.171382
1.612  71.205264
1.611  71.222332
1.610  71.096879
1.609  71.085288
1.608  71.127804
1.607  71.075510
1.606  70.998505
1.605  71.068498
1.604  71.035998
1.603  70.950587
1.602  70.921646
1.601  70.999656
1.600  70.944363
1.599  70.955155
1.598  70.921909
1.597  70.882958
1.596  70.830422
1.595  70.808485
1.594  70.745517
1.593  70.710294
1.592  70.661812
1.591  70.667434
1.590  70.663190
1.589  70.593134
1.588  70.598015
1.587  70.578694
1.586  70.546048
1.585  70.449967
1.584  70.508887
1.583  70.459128
1.582  70.356491
1.581  70.362676
1.580  70.274810
1.579  70.291660
1.578  70.245486
1.577  70.195623
1.576  70.204859
1.575  70.246200
1.574  70.225670
1.573  70.157786
1.572  70.159488
1.571  70.044982
1.570  70.023092
1.569  70.037152
1.568  70.052810
1.567  70.002297
1.566  69.914351
1.565  69.829816
1.564  69.818301
1.563  69.801752
1.562  69.748502
1.561  69.741784
1.560  69.707680
1.559  69.730803
1.558  69.737790
1.557  69.670465
1.556  69.576038
1.555  69.537970
1.554  69.478304
1.553  69.439579
1.552  69.393403
1.551  69.377155
1.550  69.351881
1.549  69.307094
1.548  69.279565
1.547  69.233881
1.546  69.176609
1.545  69.126790
1.544  69.154537
1.543  69.154843
1.542  69.058769
1.541  69.048286
1.540  68.988744
1.539  68.924622
1.538  68.925769
1.537  68.922841
1.536  68.865989
1.535  68.826854
1.534  68.808548
1.533  68.809774
1.532  68.769601
1.531  68.751813
1.530  68.734918
1.529  68.722097
1.528  68.676904
1.527  68.672221
1.526  68.627405
1.525  68.581368
1.524  68.565698
1.523  68.507894
1.522  68.518818
1.521  68.490953
1.520  68.443440
1.519  68.433757
1.518  68.390326
1.517  68.340522
1.516  68.320053
1.515  68.297755
1.514  68.237829
1.513  68.186389
1.512  68.166181
1.511  68.136448
1.510  68.142348
1.509  68.118644
1.508  68.103038
1.507  68.053526
1.506  67.974097
1.505  67.923451
1.504  67.911766
1.503  67.855069
1.502  67.792909
1.501  67.773583
1.500  67.770507
1.499  67.733919
1.498  67.649389
1.497  67.643619
1.496  67.655703
1.495  67.602713
1.494  67.519043
1.493  67.536333
1.492  67.511877
1.491  67.466262
1.490  67.471931
1.489  67.403345
1.488  67.313252
1.487  67.265431
1.486  67.235356
1.485  67.175997
1.484  67.162915
1.483  67.107905
1.482  67.090914
1.481  67.076518
1.480  66.973721
1.479  66.885880
1.478  66.869664
1.477  66.874654
1.476  66.791286
1.475  66.750711
1.474  66.682360
1.473  66.600369
1.472  66.619840
1.471  66.529860
1.470  66.497114
1.469  66.442993
1.468  66.338852
1.467  66.295913
1.466  66.300637
1.465  66.260420
1.464  66.216895
1.463  66.113829
1.462  66.101611
1.461  65.992966
1.460  65.951919
1.459  65.951492
1.458  65.904308
1.457  65.770176
1.456  65.778332
1.455  65.695891
1.454  65.642393
1.453  65.539315
1.452  65.479130
1.451  65.426892
1.450  65.411489
1.449  65.363562
1.448  65.341905
1.447  65.250050
1.446  65.193376
1.445  65.141819
1.444  65.114689
1.443  65.085112
1.442  65.000098
1.441  64.903740
1.440  64.947999
1.439  64.834619
1.438  64.790233
1.437  64.740772
1.436  64.680507
1.435  64.616261
1.434  64.636905
1.433  64.496610
1.432  64.400278
1.431  64.300925
1.430  64.316842
1.429  64.238838
1.428  64.088762
1.427  63.970007
1.426  63.924703
1.425  63.756928
1.424  63.595309
1.423  63.395994
1.422  63.208926
1.421  62.988660
