Name: Labradorite (Feldspar) (NaSi,CaAl)AlSi_2O_8
Type: Mineral
Class: Silicates
Subclass: Tectosilicates
Particle Size: 45-125um
Sample No.: TS-2B
Owner: JPL
Wavelength range: IR
Origin: Canada, Quebec, Lake St. John
Collected by Ward's
Description:   





Measurement: Hemispherical reflectance
First Column: X
Second Column: Y
X Units:  Wavelength (micrometers)
Y Units:  Reflectance (percent)
First X Value: 15.3853
Last X Value: 2.00032
Number of X Values: 2256
Additional information: ts02ba.txt
 
15.3853	4.05958
15.3397	3.59547
15.2945	2.82509
15.2495	2.35521
15.2048	2.42469
15.1603	2.44979
15.1161	2.25575
15.0722	2.17223
15.0285	2.05033
14.9851	2.00068
14.9419	2.03524
14.8989	2.27013
14.8563	2.43412
14.8138	2.47762
14.7716	2.48088
14.7296	2.43545
14.6879	2.26757
14.6464	2.14905
14.6052	2.20683
14.5641	2.19772
14.5233	2.22583
14.4828	2.27637
14.4424	2.36895
14.4023	2.63378
14.3624	2.69613
14.3227	2.5605
14.2833	2.61663
14.244	2.49584
14.205	2.367
14.1662	2.70526
14.1276	2.90664
14.0892	2.95777
14.051	2.9854
14.0131	2.95278
13.9753	2.89872
13.9377	2.92518
13.9004	2.96837
13.8632	2.92904
13.8262	3.0375
13.7895	3.26102
13.7529	3.29804
13.7165	3.16548
13.6803	3.25064
13.6443	3.45871
13.6085	3.27783
13.5729	3.10507
13.5374	3.10441
13.5022	3.2574
13.4671	3.43286
13.4322	3.37767
13.3975	3.31913
13.363	3.2957
13.3286	3.25447
13.2944	3.19356
13.2604	3.17361
13.2266	3.04153
13.193	2.91064
13.1595	2.94916
13.1262	3.03189
13.093	2.98942
13.06	2.87093
13.0272	2.81602
12.9946	2.87477
12.9621	3.02995
12.9298	3.1074
12.8976	2.95444
12.8656	2.88343
12.8337	2.94612
12.8021	3.13444
12.7705	3.09142
12.7391	2.92671
12.7079	2.80995
12.6769	2.63927
12.6459	2.67065
12.6152	2.82237
12.5845	2.90711
12.5541	2.91606
12.5238	2.90363
12.4936	3.10298
12.4635	3.20316
12.4337	3.09062
12.4039	3.20689
12.3743	3.3768
12.3448	3.50728
12.3155	3.62816
12.2863	3.74371
12.2573	3.98572
12.2284	4.26914
12.1996	4.39169
12.171	4.38252
12.1425	4.5575
12.1141	4.70655
12.0859	4.6887
12.0578	4.6458
12.0298	4.68571
12.0019	4.80191
11.9742	4.93791
11.9466	5.0215
11.9192	4.94209
11.8918	4.93278
11.8646	5.03313
11.8375	5.14399
11.8106	5.18675
11.7837	5.27334
11.757	5.32308
11.7304	5.35798
11.7039	5.42898
11.6776	5.51039
11.6513	5.50277
11.6252	5.51217
11.5992	5.55999
11.5733	5.6823
11.5475	5.75414
11.5219	5.74958
11.4963	5.80248
11.4709	5.88855
11.4455	5.95427
11.4203	6.04867
11.3952	6.13301
11.3702	6.3527
11.3454	6.53378
11.3206	6.69994
11.2959	6.87436
11.2714	6.94693
11.2469	7.11892
11.2226	7.32915
11.1983	7.48879
11.1742	7.72047
11.1502	7.9748
11.1263	8.04576
11.1024	8.15495
11.0787	8.4205
11.0551	8.64123
11.0316	8.77831
11.0081	8.93086
10.9848	9.11378
10.9616	9.22588
10.9385	9.44339
10.9154	9.69047
10.8925	9.80885
10.8697	9.89001
10.8469	9.97921
10.8243	10.1187
10.8017	10.1865
10.7793	10.2858
10.7569	10.3647
10.7346	10.3456
10.7125	10.4686
10.6904	10.7297
10.6684	10.8987
10.6465	10.9102
10.6247	10.9378
10.6029	11.0066
10.5813	11.0846
10.5597	11.177
10.5383	11.435
10.5169	11.5022
10.4956	11.4812
10.4744	11.4828
10.4533	11.3994
10.4323	11.3051
10.4113	11.323
10.3904	11.3288
10.3697	11.3185
10.349	11.2486
10.3284	11.1052
10.3078	11.0679
10.2874	11.0437
10.267	11.099
10.2467	11.2937
10.2265	11.3511
10.2064	11.3676
10.1863	11.3418
10.1663	11.4338
10.1464	11.6554
10.1266	11.8547
10.1069	11.8999
10.0872	11.9187
10.0676	12.0557
10.0481	12.2788
10.0287	12.468
10.0093	12.5389
9.99005	12.5098
9.97084	12.5528
9.95169	12.5694
9.93263	12.5206
9.91364	12.5372
9.89472	12.5091
9.87587	12.383
9.8571	12.0989
9.83839	11.862
9.81976	11.7031
9.80119	11.6958
9.78271	11.7804
9.76428	11.5786
9.74592	11.3514
9.72764	11.3128
9.70943	11.1827
9.69128	11.1424
9.6732	11.1679
9.65518	11.0468
9.63724	10.8902
9.61935	10.5447
9.60155	10.2156
9.5838	10.0723
9.56611	9.91116
9.5485	9.67364
9.53094	9.37093
9.51345	9.12716
9.49604	8.97004
9.47867	8.86047
9.46137	8.65367
9.44414	8.47683
9.42697	8.38994
9.40986	8.17102
9.39281	7.79294
9.37583	7.45729
9.35891	7.2431
9.34204	7.14212
9.32524	7.00227
9.3085	6.76168
9.29182	6.67498
9.27519	6.63713
9.25863	6.58784
9.24213	6.67206
9.22568	6.74019
9.2093	6.63033
9.19297	6.56485
9.17669	6.68747
9.16048	6.90274
9.14433	7.06677
9.12823	7.13617
9.11218	7.29884
9.0962	7.47521
9.08027	7.64567
9.06439	7.80162
9.04858	7.90883
9.03281	8.00558
9.0171	8.07081
9.00145	8.16201
8.98585	8.48483
8.9703	8.66143
8.9548	8.61302
8.93937	8.73777
8.92398	8.88809
8.90865	8.85863
8.89337	8.96259
8.87814	9.13764
8.86296	9.26441
8.84784	9.43503
8.83277	9.55459
8.81774	9.69471
8.80277	9.78341
8.78786	9.76727
8.77298	9.7462
8.75816	9.68173
8.7434	9.7315
8.72868	9.78893
8.714	9.74698
8.69938	9.70336
8.68481	9.70677
8.67029	9.70377
8.65581	9.75795
8.64139	9.54467
8.62701	9.34774
8.61268	9.31022
8.5984	9.16168
8.58416	9.14465
8.56997	9.16559
8.55583	9.05554
8.54174	8.92692
8.52769	8.84778
8.51368	8.90012
8.49973	8.80178
8.48582	8.74535
8.47195	8.83837
8.45813	8.78553
8.44436	8.65224
8.43062	8.54668
8.41693	8.52644
8.4033	8.36539
8.3897	8.05709
8.37614	7.81445
8.36264	7.6352
8.34917	7.39049
8.33574	7.05993
8.32236	6.609
8.30903	6.23077
8.29573	5.72939
8.28248	5.17654
8.26927	4.63743
8.2561	3.93783
8.24298	3.36224
8.2299	3.1382
8.21685	2.91054
8.20385	2.55174
8.19089	2.22031
8.17797	1.90517
8.16509	1.60634
8.15225	1.49923
8.13946	1.43999
8.1267	1.28823
8.11398	1.10938
8.10131	1.05833
8.08867	1.12492
8.07606	1.06092
8.0635	1.0147
8.05099	0.984912
8.0385	0.931669
8.02606	0.891754
8.01366	0.854045
8.00129	0.818053
7.98896	0.80633
7.97667	0.854057
7.96442	0.90555
7.9522	0.822192
7.94002	0.771726
7.92788	0.797602
7.91578	0.762644
7.90371	0.776862
7.89168	0.850801
7.87969	0.858555
7.86773	0.844543
7.85581	0.876873
7.84392	0.990576
7.83207	1.03813
7.82026	0.979731
7.80849	0.976235
7.79674	1.06724
7.78503	1.07648
7.77337	0.986029
7.76173	0.996294
7.75012	1.09683
7.73856	1.07576
7.72703	1.04891
7.71553	1.11499
7.70406	1.16406
7.69263	1.23222
7.68123	1.31073
7.66987	1.31134
7.65855	1.28682
7.64725	1.35902
7.63598	1.37858
7.62475	1.38968
7.61356	1.39883
7.60239	1.46487
7.59126	1.55831
7.58017	1.64764
7.5691	1.71574
7.55806	1.68963
7.54707	1.71042
7.5361	1.69317
7.52516	1.71673
7.51425	1.79892
7.50338	1.76867
7.49253	1.80508
7.48172	1.94115
7.47094	2.14944
7.46019	2.22167
7.44947	2.0857
7.43879	2.02275
7.42813	2.12415
7.4175	2.18844
7.4069	2.18388
7.39634	2.19817
7.3858	2.28674
7.37529	2.3547
7.36482	2.39111
7.35437	2.46619
7.34396	2.55071
7.33357	2.55735
7.32321	2.57665
7.31288	2.61495
7.30258	2.63136
7.29231	2.65794
7.28207	2.72891
7.27185	2.7663
7.26167	2.76732
7.25152	2.76353
7.24139	2.82793
7.23129	2.94494
7.22122	3.01425
7.21117	2.93578
7.20116	2.95295
7.19117	3.1107
7.18121	3.13934
7.17128	3.12737
7.16137	3.20005
7.1515	3.21666
7.14164	3.28432
7.13182	3.28986
7.12203	3.34341
7.11225	3.42738
7.10251	3.44065
7.0928	3.50157
7.08311	3.58475
7.07344	3.6399
7.06381	3.67922
7.0542	3.70119
7.04461	3.77584
7.03506	3.89692
7.02552	3.9736
7.01601	3.9477
7.00653	3.87361
6.99708	3.96793
6.98765	4.04594
6.97824	3.95248
6.96886	3.95907
6.95951	4.0824
6.95018	4.17394
6.94087	4.15417
6.9316	4.08103
6.92234	4.02541
6.91311	4.17414
6.90391	4.28958
6.89473	4.23442
6.88557	4.19512
6.87644	4.28845
6.86733	4.462
6.85824	4.41988
6.84918	4.41145
6.84015	4.49082
6.83114	4.47801
6.82215	4.46241
6.81319	4.44388
6.80424	4.50045
6.79532	4.59937
6.78643	4.62921
6.77756	4.61836
6.76871	4.62268
6.75989	4.60347
6.75109	4.65514
6.74231	4.63803
6.73355	4.54653
6.72482	4.62327
6.71611	4.74275
6.70742	4.78871
6.69875	4.89535
6.69011	4.95916
6.68149	4.954
6.67289	4.96681
6.66431	4.88011
6.65576	4.90784
6.64722	5.0189
6.63871	5.08432
6.63022	5.06106
6.62175	5.0511
6.61331	5.09225
6.60488	5.11336
6.59648	5.10178
6.5881	5.17702
6.57974	5.32781
6.5714	5.34249
6.56308	5.2242
6.55478	5.26327
6.54651	5.25412
6.53825	5.19288
6.53001	5.26042
6.5218	5.29266
6.51361	5.25031
6.50544	5.3424
6.49729	5.52578
6.48915	5.55191
6.48104	5.43853
6.47295	5.38355
6.46488	5.39159
6.45683	5.4488
6.4488	5.4635
6.44079	5.41729
6.4328	5.41512
6.42482	5.4252
6.41687	5.56704
6.40894	5.59002
6.40103	5.4104
6.39314	5.34573
6.38526	5.34653
6.37741	5.37245
6.36957	5.40786
6.36176	5.36418
6.35396	5.27751
6.34618	5.26643
6.33843	5.25538
6.33069	5.25551
6.32297	5.23565
6.31527	5.21769
6.30758	5.19843
6.29992	5.20841
6.29227	5.20192
6.28465	5.18284
6.27704	5.25941
6.26945	5.25122
6.26188	5.23694
6.25432	5.26511
6.24679	5.25332
6.23927	5.22464
6.23177	5.19423
6.22429	5.20541
6.21683	5.20109
6.20938	5.24668
6.20195	5.31138
6.19454	5.29212
6.18715	5.32045
6.17978	5.33794
6.17242	5.39725
6.16508	5.44985
6.15776	5.3638
6.15045	5.29307
6.14317	5.30193
6.1359	5.24002
6.12864	5.27464
6.12141	5.36912
6.11419	5.40348
6.10699	5.42811
6.0998	5.44302
6.09263	5.41196
6.08549	5.42721
6.07835	5.48471
6.07123	5.56276
6.06413	5.51384
6.05705	5.563
6.04998	5.73749
6.04293	5.57411
6.0359	5.49105
6.02888	5.58291
6.02187	5.66853
6.01489	5.69731
6.00792	5.62809
6.00096	5.58854
5.99403	5.64597
5.98711	5.75509
5.9802	5.78356
5.97331	5.77509
5.96644	5.7429
5.95958	5.77224
5.95274	5.89152
5.94591	5.96932
5.9391	6.07752
5.9323	6.04133
5.92552	6.02187
5.91876	6.06916
5.91201	6.04864
5.90528	6.105
5.89856	6.26682
5.89186	6.21887
5.88517	6.27148
5.8785	6.34315
5.87184	6.22626
5.8652	6.40806
5.85857	6.56933
5.85196	6.56614
5.84536	6.44787
5.83878	6.49718
5.83221	6.69067
5.82566	6.83988
5.81912	6.8632
5.81259	6.71958
5.80608	6.75832
5.79959	6.88393
5.79311	6.89588
5.78665	6.96751
5.78019	7.0783
5.77376	7.17825
5.76734	7.31825
5.76093	7.24828
5.75453	7.11836
5.74815	7.10401
5.74179	7.10286
5.73543	7.16258
5.7291	7.25044
5.72277	7.37125
5.71646	7.42425
5.71017	7.45596
5.70389	7.45015
5.69762	7.5039
5.69136	7.56003
5.68513	7.51779
5.6789	7.61006
5.67268	7.67093
5.66648	7.61122
5.6603	7.61603
5.65413	7.7443
5.64797	7.89185
5.64182	8.0365
5.63569	7.95787
5.62957	7.96807
5.62347	7.99824
5.61737	7.97651
5.61129	7.97929
5.60522	8.04624
5.59917	8.13068
5.59313	8.24195
5.5871	8.27769
5.58109	8.30485
5.57509	8.2699
5.5691	8.2055
5.56312	8.30404
5.55716	8.46903
5.55121	8.56742
5.54528	8.58105
5.53935	8.66108
5.53344	8.74852
5.52754	8.75677
5.52166	8.85403
5.51578	8.95451
5.50992	9.05239
5.50407	9.12969
5.49823	9.16431
5.49241	9.20542
5.4866	9.27351
5.4808	9.34856
5.47501	9.40345
5.46923	9.51722
5.46347	9.61228
5.45772	9.65641
5.45198	9.72944
5.44625	9.79511
5.44054	9.8582
5.43484	10.0255
5.42914	10.1508
5.42347	10.2448
5.4178	10.2834
5.41214	10.3561
5.4065	10.5402
5.40087	10.6278
5.39525	10.629
5.38964	10.7534
5.38404	10.8658
5.37846	10.8491
5.37288	10.9084
5.36732	11.085
5.36177	11.2224
5.35623	11.346
5.35071	11.3852
5.34519	11.3761
5.33968	11.4017
5.33419	11.5095
5.32871	11.6528
5.32324	11.7707
5.31778	11.8884
5.31233	11.9036
5.30689	11.9311
5.30147	12.0558
5.29605	12.1747
5.29065	12.2557
5.28525	12.2818
5.27987	12.2246
5.2745	12.2403
5.26914	12.4681
5.26379	12.6962
5.25845	12.6752
5.25312	12.6436
5.24781	12.8051
5.2425	12.9201
5.23721	13.0147
5.23192	13.1323
5.22665	13.2905
5.22138	13.4005
5.21613	13.4717
5.21089	13.6438
5.20566	13.7838
5.20044	13.7955
5.19522	13.9064
5.19002	14.1048
5.18483	14.2473
5.17965	14.3718
5.17448	14.5603
5.16933	14.699
5.16418	14.8442
5.15904	15.0274
5.15391	15.2563
5.14879	15.4125
5.14368	15.589
5.13859	15.7768
5.1335	15.8822
5.12842	15.9765
5.12335	16.1843
5.1183	16.3424
5.11325	16.6207
5.10821	16.8769
5.10318	17.0748
5.09817	17.2823
5.09316	17.4247
5.08816	17.5608
5.08317	17.7963
5.07819	17.9662
5.07322	18.1387
5.06826	18.4648
5.06331	18.7348
5.05837	18.8994
5.05344	19.0879
5.04852	19.2569
5.04361	19.488
5.03871	19.681
5.03382	19.8589
5.02894	20.0591
5.02406	20.3177
5.0192	20.5499
5.01435	20.638
5.0095	20.7491
5.00467	20.9426
4.99984	21.0541
4.99502	21.1736
4.99021	21.374
4.98542	21.543
4.98063	21.6643
4.97585	21.7305
4.97108	21.8781
4.96632	21.9576
4.96156	22.0367
4.95682	22.2075
4.95209	22.3365
4.94736	22.4819
4.94264	22.6482
4.93794	22.7391
4.93324	22.8009
4.92855	22.8854
4.92387	23.0349
4.9192	23.1884
4.91453	23.2046
4.90988	23.2144
4.90524	23.3097
4.9006	23.3985
4.89597	23.4777
4.89135	23.6496
4.88674	23.7557
4.88214	23.803
4.87755	23.8449
4.87296	23.971
4.86839	24.0933
4.86382	24.1634
4.85926	24.2192
4.85471	24.2895
4.85017	24.3768
4.84564	24.4689
4.84111	24.5009
4.8366	24.5986
4.83209	24.769
4.82759	24.9263
4.8231	24.9366
4.81862	24.9943
4.81415	25.0879
4.80968	25.1622
4.80522	25.2499
4.80077	25.2994
4.79633	25.4146
4.7919	25.5409
4.78747	25.6091
4.78306	25.6466
4.77865	25.7259
4.77425	25.8639
4.76986	25.8942
4.76547	26.0077
4.7611	26.1832
4.75673	26.2413
4.75237	26.3602
4.74802	26.4788
4.74367	26.5833
4.73934	26.6732
4.73501	26.7828
4.73069	26.8992
4.72638	26.9997
4.72207	27.1366
4.71777	27.2736
4.71348	27.3157
4.7092	27.3866
4.70493	27.5467
4.70066	27.7553
4.69641	27.8928
4.69216	27.9867
4.68791	28.1284
4.68368	28.2951
4.67945	28.3949
4.67523	28.5617
4.67102	28.7132
4.66682	28.8522
4.66262	28.9702
4.65843	29.1576
4.65425	29.3978
4.65007	29.5779
4.64591	29.6865
4.64175	29.8431
4.6376	30.1355
4.63345	30.352
4.62932	30.4635
4.62519	30.6295
4.62106	30.8577
4.61695	31.0065
4.61284	31.181
4.60874	31.3432
4.60465	31.5907
4.60056	31.8496
4.59648	31.9993
4.59241	32.1699
4.58835	32.4376
4.58429	32.6228
4.58024	32.7939
4.5762	32.9656
4.57216	33.18
4.56814	33.4043
4.56411	33.603
4.5601	33.8249
4.55609	34.012
4.55209	34.1398
4.5481	34.3328
4.54411	34.5744
4.54013	34.7345
4.53616	34.9377
4.5322	35.2195
4.52824	35.4277
4.52429	35.5904
4.52034	35.7754
4.51641	35.9332
4.51247	36.0578
4.50855	36.2276
4.50463	36.3838
4.50072	36.5633
4.49682	36.7583
4.49292	36.9414
4.48903	37.0854
4.48515	37.3261
4.48127	37.5034
4.4774	37.6305
4.47354	37.7653
4.46968	37.8672
4.46584	37.9798
4.46199	38.1571
4.45815	38.3765
4.45432	38.545
4.4505	38.6392
4.44668	38.71
4.44287	38.8244
4.43907	39.0281
4.43527	39.2031
4.43148	39.2594
4.4277	39.3807
4.42392	39.5977
4.42015	39.7403
4.41638	39.8788
4.41262	39.9971
4.40887	40.1453
4.40513	40.2696
4.40139	40.3967
4.39765	40.5391
4.39393	40.6514
4.39021	40.7619
4.38649	40.9184
4.38278	41.1006
4.37908	41.2842
4.37539	41.4024
4.3717	41.4718
4.36801	41.6129
4.36434	41.7465
4.36067	41.9161
4.357	42.1159
4.35335	42.2155
4.34969	42.3375
4.34605	42.4508
4.34241	42.5825
4.33877	42.707
4.33514	42.7702
4.33152	42.771
4.32791	42.8661
4.3243	42.9966
4.32069	43.0196
4.3171	42.9896
4.31351	43.0314
4.30992	43.0359
4.30634	43.0462
4.30277	43.0979
4.2992	43.1363
4.29564	43.0928
4.29208	43.1122
4.28853	43.2291
4.28499	43.3418
4.28145	43.4395
4.27792	43.5209
4.27439	43.6714
4.27087	43.858
4.26735	44.0726
4.26384	44.304
4.26034	44.6123
4.25684	44.8521
4.25335	44.8229
4.24986	44.7323
4.24638	44.6587
4.24291	44.6194
4.23944	44.615
4.23598	44.686
4.23252	44.7733
4.22906	44.9149
4.22562	45.1743
4.22218	45.4463
4.21874	45.7047
4.21531	45.9311
4.21189	46.1198
4.20847	46.3597
4.20506	46.5357
4.20165	46.6924
4.19825	46.8947
4.19485	47.0501
4.19146	47.075
4.18807	47.1142
4.18469	47.134
4.18132	47.1549
4.17795	47.262
4.17458	47.3867
4.17123	47.4791
4.16787	47.5047
4.16453	47.4942
4.16118	47.4711
4.15785	47.4965
4.15451	47.6265
4.15119	47.6774
4.14787	47.685
4.14455	47.6574
4.14124	47.669
4.13794	47.7073
4.13464	47.7073
4.13134	47.7128
4.12805	47.7446
4.12477	47.7
4.12149	47.7078
4.11822	47.7341
4.11495	47.8674
4.11168	47.9305
4.10843	47.9013
4.10517	47.876
4.10192	47.8376
4.09868	47.8337
4.09545	47.8617
4.09221	47.8265
4.08899	47.818
4.08576	47.8202
4.08255	47.8343
4.07933	47.8565
4.07613	47.914
4.07292	47.8933
4.06973	47.9075
4.06654	47.9042
4.06335	47.8579
4.06017	47.8259
4.05699	47.823
4.05382	47.8472
4.05065	47.8567
4.04749	47.8242
4.04433	47.751
4.04118	47.6325
4.03803	47.6146
4.03489	47.6221
4.03175	47.5853
4.02862	47.4866
4.02549	47.4124
4.02237	47.3899
4.01925	47.2941
4.01614	47.2098
4.01303	47.124
4.00993	46.9578
4.00683	46.8069
4.00373	46.6256
4.00064	46.3885
3.99756	46.1762
3.99448	45.9705
3.9914	45.7783
3.98833	45.6513
3.98527	45.5033
3.98221	45.435
3.97915	45.4618
3.9761	45.4947
3.97305	45.5202
3.97001	45.6045
3.96697	45.751
3.96394	45.8517
3.96091	45.9169
3.95789	46.015
3.95487	46.1805
3.95186	46.3633
3.94885	46.5212
3.94584	46.6353
3.94284	46.834
3.93984	47.0559
3.93685	47.2117
3.93386	47.24
3.93088	47.2291
3.9279	47.2539
3.92493	47.342
3.92196	47.3655
3.919	47.3379
3.91604	47.4057
3.91308	47.4595
3.91013	47.5198
3.90718	47.5353
3.90424	47.4435
3.9013	47.405
3.89837	47.4768
3.89544	47.5069
3.89252	47.5392
3.8896	47.5715
3.88668	47.554
3.88377	47.5402
3.88086	47.5599
3.87796	47.5797
3.87506	47.5563
3.87217	47.5869
3.86928	47.6163
3.86639	47.6714
3.86351	47.6549
3.86064	47.6625
3.85776	47.6482
3.8549	47.6225
3.85203	47.6459
3.84917	47.6309
3.84631	47.6519
3.84346	47.6568
3.84062	47.7551
3.83777	47.8177
3.83494	47.8079
3.8321	47.8168
3.82927	47.9096
3.82644	48.0357
3.82362	48.0477
3.82081	47.9605
3.81799	47.9733
3.81518	48.0872
3.81238	48.1072
3.80958	48.082
3.80678	48.1519
3.80399	48.2221
3.8012	48.2361
3.79841	48.2467
3.79563	48.3248
3.79286	48.3212
3.79008	48.3513
3.78731	48.3722
3.78455	48.3381
3.78179	48.2863
3.77903	48.3063
3.77628	48.3897
3.77353	48.3888
3.77079	48.3908
3.76805	48.4354
3.76531	48.4894
3.76258	48.4932
3.75985	48.4362
3.75713	48.3944
3.7544	48.3889
3.75169	48.4282
3.74898	48.3785
3.74627	48.265
3.74356	48.2704
3.74086	48.2632
3.73816	48.2218
3.73547	48.2811
3.73278	48.2903
3.7301	48.1785
3.72741	48.1864
3.72474	48.2797
3.72206	48.2685
3.71939	48.1605
3.71673	48.1349
3.71406	48.1733
3.71141	48.1671
3.70875	48.1522
3.7061	48.1578
3.70345	48.1679
3.70081	48.1005
3.69817	48.0337
3.69553	48.0537
3.6929	48.0302
3.69027	48.0072
3.68765	48.0686
3.68503	48.0066
3.68241	47.9337
3.6798	47.9533
3.67719	47.9805
3.67458	47.9729
3.67198	47.8714
3.66938	47.8268
3.66678	47.765
3.66419	47.7177
3.66161	47.7624
3.65902	47.7477
3.65644	47.6965
3.65387	47.7111
3.65129	47.7469
3.64872	47.743
3.64616	47.7048
3.64359	47.7162
3.64103	47.7559
3.63848	47.7528
3.63593	47.6682
3.63338	47.6389
3.63084	47.6034
3.6283	47.5006
3.62576	47.4713
3.62322	47.5169
3.62069	47.4045
3.61817	47.3661
3.61564	47.4193
3.61312	47.3546
3.61061	47.3304
3.6081	47.3973
3.60559	47.3959
3.60308	47.3191
3.60058	47.2849
3.59808	47.2575
3.59558	47.2052
3.59309	47.1144
3.59061	47.0487
3.58812	47.0514
3.58564	46.9857
3.58316	46.9453
3.58069	46.888
3.57822	46.8439
3.57575	46.93
3.57328	46.8945
3.57082	46.8185
3.56836	46.7669
3.56591	46.7809
3.56346	46.7413
3.56101	46.7007
3.55857	46.7021
3.55613	46.6387
3.55369	46.5136
3.55126	46.466
3.54883	46.4275
3.5464	46.4138
3.54397	46.3884
3.54155	46.311
3.53914	46.1723
3.53672	46.107
3.53431	46.0899
3.5319	46.0838
3.5295	46.0385
3.5271	45.915
3.5247	45.7705
3.52231	45.6755
3.51991	45.5608
3.51753	45.451
3.51514	45.3949
3.51276	45.3158
3.51038	45.229
3.50801	45.1173
3.50563	44.9941
3.50327	44.8715
3.5009	44.8293
3.49854	44.8046
3.49618	44.7576
3.49382	44.6775
3.49147	44.5615
3.48912	44.5166
3.48677	44.4755
3.48443	44.444
3.48209	44.4087
3.47975	44.3451
3.47742	44.2597
3.47509	44.2272
3.47276	44.2694
3.47044	44.3331
