Name: Dunite (Olivine Peridotite)
Type: Rock
Class: Igneous
Subclass:  Ultramafic 
Particle Size: Solid surface
Sample No.: Ward44.txt
Owner: JPL
Wavelength range:  VNIR SWIR IR  
Origin: Ward's Collection of American Rocks.  Sample locality - Near Balsam, Jackson County, North Carolina.
Collected by:  Ward's Natural Science
Description: A light-green granular rock composed almost entirely of
glassy ollivine with small black grains of chromite and a few large
flakes of muscovite.
Geologic age - Pre-Cambrian.


Measurement: Hemispherical reflectance
First Column: X
Second Column: Y
X Units: Wavelength (micrometers)
Y Units: Reflectance (percent)
First X Value: 2.500
Last X Value: 0.400
Number of X Values: 2101
Additional information: None

2.500  18.277661
2.499  18.070334
2.498  18.211034
2.497  18.386803
2.496  18.202439
2.495  18.441824
2.494  18.526084
2.493  18.511794
2.492  18.693670
2.491  18.638016
2.490  18.763853
2.489  18.779433
2.488  18.891363
2.487  18.779701
2.486  19.119091
2.485  18.858366
2.484  19.070758
2.483  18.808229
2.482  19.034218
2.481  18.929256
2.480  19.076712
2.479  19.016342
2.478  19.291563
2.477  19.175486
2.476  19.333075
2.475  19.248557
2.474  19.505204
2.473  19.424194
2.472  19.575308
2.471  19.647947
2.470  19.831901
2.469  19.705676
2.468  19.999004
2.467  19.841733
2.466  20.022168
2.465  20.009996
2.464  20.284966
2.463  20.190775
2.462  20.375017
2.461  20.297289
2.460  20.515179
2.459  20.548969
2.458  20.642297
2.457  20.562396
2.456  20.766224
2.455  20.637455
2.454  20.607525
2.453  20.503435
2.452  20.642837
2.451  20.613104
2.450  20.568267
2.449  20.508232
2.448  20.591958
2.447  20.519253
2.446  20.597949
2.445  20.403626
2.444  20.478549
2.443  20.299163
2.442  20.358054
2.441  20.177629
2.440  20.230811
2.439  20.199715
2.438  20.235550
2.437  20.081484
2.436  20.284650
2.435  20.236358
2.434  20.236134
2.433  20.024536
2.432  20.190628
2.431  20.260304
2.430  20.317885
2.429  20.238230
2.428  20.394879
2.427  20.290980
2.426  20.384504
2.425  20.518285
2.424  20.535629
2.423  20.427218
2.422  20.507397
2.421  20.611042
2.420  20.766842
2.419  20.694206
2.418  20.864577
2.417  20.660155
2.416  20.878698
2.415  20.813579
2.414  20.844767
2.413  20.959770
2.412  20.993032
2.411  20.931373
2.410  21.041955
2.409  20.936281
2.408  20.939803
2.407  20.962294
2.406  21.066260
2.405  21.005693
2.404  21.052243
2.403  21.062192
2.402  21.087732
2.401  21.020683
2.400  21.192626
2.399  21.254163
2.398  21.215872
2.397  21.136255
2.396  21.234620
2.395  21.217226
2.394  21.220497
2.393  21.285827
2.392  21.381303
2.391  21.381135
2.390  21.422271
2.389  21.393838
2.388  21.543317
2.387  21.599278
2.386  21.565673
2.385  21.565380
2.384  21.649527
2.383  21.706866
2.382  21.765780
2.381  21.680671
2.380  21.755837
2.379  21.822303
2.378  21.887258
2.377  21.954697
2.376  21.898644
2.375  21.939841
2.374  22.024589
2.373  22.089807
2.372  22.142963
2.371  22.169366
2.370  22.206500
2.369  22.215235
2.368  22.261768
2.367  22.265097
2.366  22.347484
2.365  22.387516
2.364  22.448130
2.363  22.471623
2.362  22.434837
2.361  22.435034
2.360  22.490366
2.359  22.492129
2.358  22.451682
2.357  22.386451
2.356  22.387165
2.355  22.319552
2.354  22.230517
2.353  22.171396
2.352  22.058196
2.351  21.934987
2.350  21.779494
2.349  21.570998
2.348  21.436207
2.347  21.273881
2.346  21.083690
2.345  20.877995
2.344  20.682896
2.343  20.551419
2.342  20.317085
2.341  20.186455
2.340  19.974145
2.339  19.736592
2.338  19.555909
2.337  19.443482
2.336  19.238960
2.335  19.185353
2.334  19.072003
2.333  18.970010
2.332  18.891008
2.331  18.892626
2.330  18.830461
2.329  18.765887
2.328  18.799306
2.327  18.830464
2.326  18.828533
2.325  18.857335
2.324  18.878730
2.323  19.010626
2.322  19.089073
2.321  19.138570
2.320  19.161037
2.319  19.312027
2.318  19.402471
2.317  19.549392
2.316  19.581589
2.315  19.825095
2.314  19.976925
2.313  20.135361
2.312  20.183562
2.311  20.335825
2.310  20.420590
2.309  20.690527
2.308  20.734250
2.307  20.883072
2.306  21.011777
2.305  21.159226
2.304  21.299966
2.303  21.455758
2.302  21.593840
2.301  21.709802
2.300  21.847517
2.299  21.963860
2.298  22.109401
2.297  22.254680
2.296  22.234976
2.295  22.393826
2.294  22.454671
2.293  22.637662
2.292  22.613425
2.291  22.750275
2.290  22.795333
2.289  22.943658
2.288  23.078003
2.287  23.113396
2.286  23.117212
2.285  23.249919
2.284  23.288840
2.283  23.421993
2.282  23.377859
2.281  23.476258
2.280  23.501303
2.279  23.597287
2.278  23.614855
2.277  23.680810
2.276  23.696838
2.275  23.787810
2.274  23.771094
2.273  23.926002
2.272  23.964299
2.271  24.156014
2.270  24.142974
2.269  24.405046
2.268  24.441821
2.267  24.706267
2.266  24.776931
2.265  25.040920
2.264  25.202759
2.263  25.407236
2.262  25.553613
2.261  25.890457
2.260  25.970950
2.259  26.159544
2.258  26.273856
2.257  26.556087
2.256  26.710590
2.255  26.840620
2.254  26.818204
2.253  27.020968
2.252  27.029979
2.251  27.198736
2.250  27.224904
2.249  27.375643
2.248  27.330781
2.247  27.476488
2.246  27.476119
2.245  27.724646
2.244  27.780770
2.243  27.863952
2.242  27.969582
2.241  28.188454
2.240  28.191686
2.239  28.440385
2.238  28.517548
2.237  28.774968
2.236  28.911020
2.235  29.219603
2.234  29.299302
2.233  29.585822
2.232  29.660161
2.231  29.949073
2.230  30.007944
2.229  30.275408
2.228  30.434867
2.227  30.610938
2.226  30.714421
2.225  30.873378
2.224  31.008988
2.223  31.163141
2.222  31.145678
2.221  31.402949
2.220  31.347025
2.219  31.563066
2.218  31.578237
2.217  31.735085
2.216  31.722427
2.215  31.927013
2.214  31.848823
2.213  32.073544
2.212  32.012756
2.211  32.056948
2.210  32.204178
2.209  32.291109
2.208  32.349544
2.207  32.445223
2.206  32.446912
2.205  32.606305
2.204  32.463409
2.203  32.591835
2.202  32.608338
2.201  32.790325
2.200  32.816996
2.199  32.829235
2.198  32.870791
2.197  32.913877
2.196  32.961035
2.195  33.028056
2.194  32.989173
2.193  33.121315
2.192  33.141535
2.191  33.205553
2.190  33.166580
2.189  33.178079
2.188  33.236837
2.187  33.332741
2.186  33.255731
2.185  33.396757
2.184  33.290279
2.183  33.495113
2.182  33.367573
2.181  33.450932
2.180  33.421625
2.179  33.597765
2.178  33.470024
2.177  33.583111
2.176  33.566026
2.175  33.697425
2.174  33.569242
2.173  33.638044
2.172  33.622869
2.171  33.672637
2.170  33.644911
2.169  33.762452
2.168  33.673093
2.167  33.710868
2.166  33.727198
2.165  33.755946
2.164  33.742999
2.163  33.716107
2.162  33.747353
2.161  33.770682
2.160  33.634231
2.159  33.752099
2.158  33.678971
2.157  33.717993
2.156  33.617848
2.155  33.631258
2.154  33.519856
2.153  33.580520
2.152  33.464105
2.151  33.483149
2.150  33.386080
2.149  33.322468
2.148  33.172994
2.147  33.196175
2.146  33.092154
2.145  33.094029
2.144  32.986529
2.143  32.939849
2.142  32.776271
2.141  32.745292
2.140  32.683204
2.139  32.659487
2.138  32.539852
2.137  32.521410
2.136  32.388607
2.135  32.450960
2.134  32.347916
2.133  32.406944
2.132  32.363074
2.131  32.370182
2.130  32.321185
2.129  32.416253
2.128  32.380285
2.127  32.405188
2.126  32.452410
2.125  32.535253
2.124  32.521514
2.123  32.530910
2.122  32.485223
2.121  32.487777
2.120  32.379473
2.119  32.391056
2.118  32.278715
2.117  32.202746
2.116  32.155983
2.115  32.063091
2.114  31.966381
2.113  32.024886
2.112  31.955538
2.111  31.968266
2.110  31.946922
2.109  31.966240
2.108  31.965478
2.107  31.977234
2.106  31.993219
2.105  31.954262
2.104  32.004785
2.103  32.112631
2.102  32.021931
2.101  32.085926
2.100  32.063624
2.099  32.063835
2.098  32.061838
2.097  32.123053
2.096  32.116209
2.095  32.174967
2.094  32.221246
2.093  32.199732
2.092  32.193340
2.091  32.247894
2.090  32.222564
2.089  32.241737
2.088  32.245909
2.087  32.295059
2.086  32.323766
2.085  32.375796
2.084  32.419758
2.083  32.420809
2.082  32.410670
2.081  32.440697
2.080  32.468107
2.079  32.494742
2.078  32.529582
2.077  32.531327
2.076  32.575853
2.075  32.611586
2.074  32.622192
2.073  32.625055
2.072  32.621730
2.071  32.576941
2.070  32.497553
2.069  32.532342
2.068  32.524717
2.067  32.459300
2.066  32.426817
2.065  32.387367
2.064  32.384140
2.063  32.402417
2.062  32.377314
2.061  32.311123
2.060  32.267315
2.059  32.197959
2.058  32.107496
2.057  32.021979
2.056  31.975505
2.055  31.913746
2.054  31.855604
2.053  31.765541
2.052  31.711844
2.051  31.665896
2.050  31.667451
2.049  31.551390
2.048  31.422740
2.047  31.407031
2.046  31.424786
2.045  31.296360
2.044  31.272891
2.043  31.166665
2.042  31.158617
2.041  31.119706
2.040  31.088923
2.039  31.045464
2.038  31.026220
2.037  31.000443
2.036  30.957525
2.035  30.843587
2.034  30.823527
2.033  30.770667
2.032  30.777524
2.031  30.682480
2.030  30.669706
2.029  30.608202
2.028  30.620555
2.027  30.630823
2.026  30.571364
2.025  30.542104
2.024  30.517995
2.023  30.378879
2.022  30.396800
2.021  30.321559
2.020  30.344605
2.019  30.256919
2.018  30.254382
2.017  30.220996
2.016  30.223543
2.015  30.134754
2.014  30.112292
2.013  30.078019
2.012  30.058773
2.011  29.942440
2.010  29.875413
2.009  29.797466
2.008  29.758305
2.007  29.762485
2.006  29.728342
2.005  29.589890
2.004  29.547902
2.003  29.558625
2.002  29.450006
2.001  29.340259
2.000  29.340585
1.999  29.313315
1.998  29.262502
1.997  29.158969
1.996  29.152528
1.995  29.088914
1.994  29.077275
1.993  29.032116
1.992  29.035760
1.991  28.905206
1.990  28.957210
1.989  28.858192
1.988  28.885638
1.987  28.846577
1.986  28.722173
1.985  28.803373
1.984  28.811594
1.983  28.752478
1.982  28.747346
1.981  28.649570
1.980  28.726492
1.979  28.666319
1.978  28.773297
1.977  28.748349
1.976  28.802059
1.975  28.781294
1.974  28.886403
1.973  28.869707
1.972  28.947323
1.971  29.024636
1.970  29.027845
1.969  29.057077
1.968  29.224464
1.967  29.167259
1.966  29.267986
1.965  29.282586
1.964  29.500338
1.963  29.388920
1.962  29.593415
1.961  29.571575
1.960  29.668218
1.959  29.672635
1.958  29.796952
1.957  29.904834
1.956  29.903366
1.955  29.960949
1.954  30.089425
1.953  29.973183
1.952  30.107144
1.951  30.100353
1.950  30.284615
1.949  30.217213
1.948  30.311321
1.947  30.346513
1.946  30.526024
1.945  30.506250
1.944  30.620442
1.943  30.552221
1.942  30.718910
1.941  30.696644
1.940  30.856574
1.939  30.681678
1.938  30.892784
1.937  30.867002
1.936  30.968367
1.935  30.941986
1.934  31.048762
1.933  31.014078
1.932  31.173781
1.931  31.061628
1.930  31.272277
1.929  31.277840
1.928  31.464002
1.927  31.380505
1.926  31.428441
1.925  31.498541
1.924  31.636384
1.923  31.628390
1.922  31.818035
1.921  31.777967
1.920  31.930465
1.919  31.958069
1.918  32.219450
1.917  32.127291
1.916  32.282106
1.915  32.421640
1.914  32.651337
1.913  32.668831
1.912  32.830412
1.911  32.909500
1.910  33.201255
1.909  33.159185
1.908  33.460948
1.907  33.423946
1.906  33.773396
1.905  33.844581
1.904  34.083015
1.903  34.156738
1.902  34.388157
1.901  34.465036
1.900  34.741925
1.899  34.770687
1.898  34.895494
1.897  34.980482
1.896  35.229485
1.895  35.290870
1.894  35.470800
1.893  35.587828
1.892  35.723672
1.891  35.834584
1.890  35.952939
1.889  35.996902
1.888  36.146019
1.887  36.133364
1.886  36.303740
1.885  36.322337
1.884  36.417790
1.883  36.430468
1.882  36.576824
1.881  36.552006
1.880  36.730341
1.879  36.816780
1.878  36.845985
1.877  36.896637
1.876  36.953926
1.875  37.022728
1.874  37.103177
1.873  37.054579
1.872  37.162329
1.871  37.164785
1.870  37.157047
1.869  37.141397
1.868  37.268336
1.867  37.249803
1.866  37.225558
1.865  37.228125
1.864  37.312356
1.863  37.222045
1.862  37.345303
1.861  37.343223
1.860  37.421051
1.859  37.416773
1.858  37.503770
1.857  37.452767
1.856  37.430948
1.855  37.448971
1.854  37.536557
1.853  37.517122
1.852  37.586845
1.851  37.499144
1.850  37.564278
1.849  37.598710
1.848  37.645200
1.847  37.653660
1.846  37.676984
1.845  37.607637
1.844  37.668947
1.843  37.671890
1.842  37.739848
1.841  37.765033
1.840  37.719882
1.839  37.710610
1.838  37.685231
1.837  37.653395
1.836  37.637307
1.835  37.582029
1.834  37.649434
1.833  37.575095
1.832  37.622357
1.831  37.579837
1.830  37.571660
1.829  37.563113
1.828  37.529740
1.827  37.479666
1.826  37.556458
1.825  37.519917
1.824  37.560199
1.823  37.490322
1.822  37.514057
1.821  37.468885
1.820  37.465057
1.819  37.425104
1.818  37.483305
1.817  37.472359
1.816  37.504515
1.815  37.494727
1.814  37.491880
1.813  37.523597
1.812  37.526261
1.811  37.487075
1.810  37.562132
1.809  37.605541
1.808  37.532085
1.807  37.502152
1.806  37.544026
1.805  37.598340
1.804  37.613006
1.803  37.501568
1.802  37.511597
1.801  37.577292
1.800  37.628088
1.799  37.635291
1.798  37.608128
1.797  37.620497
1.796  37.583529
1.795  37.550010
1.794  37.584969
1.793  37.609303
1.792  37.563499
1.791  37.452356
1.790  37.442175
1.789  37.471660
1.788  37.439124
1.787  37.401978
1.786  37.374066
1.785  37.344131
1.784  37.342413
1.783  37.274444
1.782  37.270467
1.781  37.281818
1.780  37.272246
1.779  37.361845
1.778  37.405640
1.777  37.412153
1.776  37.423157
1.775  37.428481
1.774  37.397284
1.773  37.426864
1.772  37.427510
1.771  37.452533
1.770  37.496791
1.769  37.441931
1.768  37.406663
1.767  37.472063
1.766  37.485565
1.765  37.467624
1.764  37.415904
1.763  37.447895
1.762  37.426361
1.761  37.398973
1.760  37.375176
1.759  37.389183
1.758  37.309391
1.757  37.343154
1.756  37.313078
1.755  37.288239
1.754  37.240125
1.753  37.358093
1.752  37.395670
1.751  37.352073
1.750  37.377204
1.749  37.334156
1.748  37.313125
1.747  37.341610
1.746  37.319419
1.745  37.359675
1.744  37.338897
1.743  37.398111
1.742  37.389447
1.741  37.414252
1.740  37.353409
1.739  37.350847
1.738  37.385237
1.737  37.385398
1.736  37.310201
1.735  37.295677
1.734  37.301845
1.733  37.377791
1.732  37.351002
1.731  37.339806
1.730  37.266124
1.729  37.333826
1.728  37.279009
1.727  37.252137
1.726  37.312306
1.725  37.252683
1.724  37.200550
1.723  37.282455
1.722  37.174991
1.721  37.231682
1.720  37.197085
1.719  37.231106
1.718  37.189307
1.717  37.239133
1.716  37.165329
1.715  37.177975
1.714  37.116833
1.713  37.171365
1.712  37.100508
1.711  37.083568
1.710  36.998807
1.709  37.011911
1.708  37.016108
1.707  37.006759
1.706  36.949250
1.705  36.981006
1.704  36.915959
1.703  36.972029
1.702  36.866206
1.701  36.835763
1.700  36.847675
1.699  36.840231
1.698  36.773424
1.697  36.777215
1.696  36.726757
1.695  36.754525
1.694  36.633332
1.693  36.622434
1.692  36.631253
1.691  36.599941
1.690  36.445866
1.689  36.571923
1.688  36.520697
1.687  36.561323
1.686  36.460399
1.685  36.545860
1.684  36.392785
1.683  36.394449
1.682  36.374609
1.681  36.341214
1.680  36.245380
1.679  36.314201
1.678  36.247078
1.677  36.263551
1.676  36.105069
1.675  36.186699
1.674  36.049392
1.673  36.127527
1.672  35.973260
1.671  36.149769
1.670  35.953566
1.669  36.009844
1.668  35.750506
1.667  35.921029
1.666  35.736987
1.665  35.786987
1.664  35.733741
1.663  35.716688
1.662  35.597267
1.661  35.640410
1.660  35.641689
1.659  35.593700
1.658  35.535670
1.657  35.501539
1.656  35.442527
1.655  35.467789
1.654  35.361760
1.653  35.446934
1.652  35.331752
1.651  35.409965
1.650  35.167422
1.649  35.290985
1.648  35.154091
1.647  35.181882
1.646  34.976820
1.645  35.059949
1.644  34.999941
1.643  34.991882
1.642  34.915666
1.641  34.761007
1.640  34.870770
1.639  34.740694
1.638  34.742233
1.637  34.742768
1.636  34.682373
1.635  34.652293
1.634  34.506727
1.633  34.673656
1.632  34.460912
1.631  34.511837
1.630  34.260086
1.629  34.352188
1.628  34.328234
1.627  34.328157
1.626  34.237336
1.625  34.185899
1.624  33.940984
1.623  34.111890
1.622  33.945692
1.621  34.005996
1.620  33.902663
1.619  33.892158
1.618  33.768840
1.617  33.728495
1.616  33.724251
1.615  33.707080
1.614  33.656882
1.613  33.564932
1.612  33.519570
1.611  33.549153
1.610  33.407188
1.609  33.447847
1.608  33.314341
1.607  33.296418
1.606  33.244203
1.605  33.291703
1.604  33.100640
1.603  33.159640
1.602  33.040926
1.601  32.988686
1.600  32.923050
1.599  32.918837
1.598  32.810227
1.597  32.739323
1.596  32.716536
1.595  32.724209
1.594  32.579725
1.593  32.555742
1.592  32.367939
1.591  32.439254
1.590  32.424133
1.589  32.334487
1.588  32.280478
1.587  32.247532
1.586  32.128286
1.585  32.145086
1.584  32.055877
1.583  32.054504
1.582  32.007060
1.581  31.947793
1.580  31.836887
1.579  31.882964
1.578  31.704459
1.577  31.723826
1.576  31.585184
1.575  31.589668
1.574  31.513994
1.573  31.402483
1.572  31.292086
1.571  31.317233
1.570  31.285645
1.569  31.193879
1.568  31.182738
1.567  31.077404
1.566  30.919020
1.565  30.986805
1.564  30.920526
1.563  30.915708
1.562  30.779572
1.561  30.731695
1.560  30.639233
1.559  30.623421
1.558  30.514915
1.557  30.486608
1.556  30.439580
1.555  30.420166
1.554  30.279019
1.553  30.212842
1.552  30.140060
1.551  30.130656
1.550  30.049117
1.549  30.037723
1.548  29.922193
1.547  29.916581
1.546  29.822639
1.545  29.735066
1.544  29.701759
1.543  29.627732
1.542  29.522509
1.541  29.478279
1.540  29.395486
1.539  29.373010
1.538  29.302945
1.537  29.273187
1.536  29.139894
1.535  29.109568
1.534  28.984329
1.533  28.964178
1.532  28.924328
1.531  28.840477
1.530  28.722049
1.529  28.712462
1.528  28.631387
1.527  28.553910
1.526  28.468409
1.525  28.467526
1.524  28.389704
1.523  28.284286
1.522  28.220732
1.521  28.212218
1.520  28.131813
1.519  28.019862
1.518  27.917076
1.517  27.875104
1.516  27.848070
1.515  27.724763
1.514  27.586319
1.513  27.584218
1.512  27.508193
1.511  27.414857
1.510  27.316717
1.509  27.266313
1.508  27.262361
1.507  27.227131
1.506  27.073665
1.505  27.000359
1.504  27.006376
1.503  26.907268
1.502  26.836248
1.501  26.781908
1.500  26.649806
1.499  26.604205
1.498  26.592128
1.497  26.557391
1.496  26.447634
1.495  26.378632
1.494  26.328395
1.493  26.242820
1.492  26.188484
1.491  26.105286
1.490  26.052195
1.489  25.980489
1.488  25.865065
1.487  25.797573
1.486  25.754159
1.485  25.677978
1.484  25.645559
1.483  25.563754
1.482  25.532886
1.481  25.448818
1.480  25.383132
1.479  25.312472
1.478  25.191010
1.477  25.075248
1.476  25.093747
1.475  25.025292
1.474  24.971876
1.473  24.860747
1.472  24.809750
1.471  24.733226
1.470  24.652376
1.469  24.518270
1.468  24.511023
1.467  24.432720
1.466  24.404082
1.465  24.272032
1.464  24.282878
1.463  24.184342
1.462  24.175614
1.461  24.053190
1.460  23.986637
1.459  23.918670
1.458  23.863186
1.457  23.718310
1.456  23.690987
1.455  23.587636
1.454  23.644576
1.453  23.506934
1.452  23.384787
1.451  23.315799
1.450  23.252006
1.449  23.148870
1.448  23.128085
1.447  23.074214
1.446  22.998100
1.445  22.875815
1.444  22.832625
1.443  22.752253
1.442  22.784407
1.441  22.644109
1.440  22.569792
1.439  22.467254
1.438  22.469725
1.437  22.387780
1.436  22.311879
1.435  22.236673
1.434  22.176917
1.433  22.065720
