Name: Quartz Conglomerate
Type: Rock
Class: Sedimentary
Subclass:  Conglomerate 
Particle Size: Solid surface
Sample No.: Ward49.txt
Owner: JPL
Wavelength range:  IR
Origin: Ward's Collection of American Rocks.  Sample locality - near Olean, Cattaraugus County, New York.
Collected by:  Ward's Natural Science
Description: The rock is composed principally of sub-angular and rounded
pebbles of milky quartz of various size, cemented by a siliceous cement
which is usually coated with clay material.
Geologic age - Pennsylvanian.


Measurement: Hemispherical reflectance
First Column: X
Second Column: Y
X Units: Wavelength (micrometers)
Y Units: Reflectance (percent)
First X Value: 15.3871
Last X Value: 1.9998
Number of X Values: 2257
Additional information: None

15.3871   3.68004
15.3416   3.99325
15.2964   3.94022
15.2514   3.90551
15.2066   3.81256
15.1622   3.72815
15.1180   3.84837
15.0740   4.04716
15.0303   3.85632
14.9869   3.74041
14.9437   4.01679
14.9008   4.26032
14.8581   4.28723
14.8156   4.22719
14.7734   4.32893
14.7314   4.20581
14.6897   4.45483
14.6482   4.69240
14.6069   4.62502
14.5659   4.70726
14.5251   4.82805
14.4845   5.15792
14.4442   5.39625
14.4041   5.15979
14.3642   4.57760
14.3245   3.69486
14.2850   3.23515
14.2458   3.27595
14.2068   3.39265
14.1679   3.60353
14.1293   3.81758
14.0909   3.76952
14.0528   3.85618
14.0148   3.93576
13.9770   4.10586
13.9394   4.40965
13.9021   4.50498
13.8649   4.56452
13.8279   4.63439
13.7911   4.82574
13.7546   5.06819
13.7182   4.95519
13.6820   5.20102
13.6460   5.37824
13.6101   5.51159
13.5745   5.46785
13.5391   5.45360
13.5038   5.48310
13.4687   5.59194
13.4339   5.76777
13.3991   5.79997
13.3646   5.90864
13.3302   6.06491
13.2961   6.14643
13.2621   6.25715
13.2282   6.59189
13.1946   6.78697
13.1611   7.01572
13.1278   7.30257
13.0946   7.40958
13.0616   7.53214
13.0288   7.93679
12.9962   8.66041
12.9637   9.30393
12.9313   9.97042
12.8992  11.06120
12.8672  12.25890
12.8353  13.23040
12.8036  13.59670
12.7721  13.37570
12.7407  12.52410
12.7095  11.12450
12.6784   9.71396
12.6475   8.92689
12.6167   9.04853
12.5861   9.67555
12.5556  10.63040
12.5253  11.33110
12.4951  11.61760
12.4651  11.25740
12.4352  10.11060
12.4054   8.02898
12.3758   5.48632
12.3463   3.27011
12.3170   1.84041
12.2878   1.37201
12.2588   1.63443
12.2299   1.83030
12.2011   1.97943
12.1725   2.14293
12.1439   2.31390
12.1156   2.44373
12.0873   2.45214
12.0592   2.81091
12.0312   3.17941
12.0034   3.31604
11.9757   3.44232
11.9481   3.61713
11.9206   3.60113
11.8933   3.65659
11.8661   3.81808
11.8390   3.96329
11.8120   3.99350
11.7852   4.11044
11.7584   4.34987
11.7318   4.46301
11.7053   4.61118
11.6790   4.74249
11.6527   4.88550
11.6266   4.97289
11.6006   4.93316
11.5747   4.97415
11.5489   5.06100
11.5233   5.15916
11.4977   5.13342
11.4723   5.20560
11.4469   5.31424
11.4217   5.36071
11.3966   5.42290
11.3716   5.50626
11.3468   5.67000
11.3220   5.72162
11.2973   5.72355
11.2728   5.79488
11.2483   5.87790
11.2240   5.92102
11.1997   5.97566
11.1756   6.11960
11.1515   6.14857
11.1276   6.15863
11.1038   6.23641
11.0801   6.30360
11.0564   6.34812
11.0329   6.49890
11.0095   6.61277
10.9862   6.65828
10.9629   6.73186
10.9398   6.70991
10.9168   6.65195
10.8938   6.73592
10.8710   6.95995
10.8483   6.91232
10.8256   6.86941
10.8031   6.91528
10.7806   6.92182
10.7582   6.95273
10.7360   6.96428
10.7138   7.13634
10.6917   7.26893
10.6697   7.29806
10.6478   7.24473
10.6260   7.20650
10.6042   7.31143
10.5826   7.50430
10.5610   7.54510
10.5396   7.58225
10.5182   7.73655
10.4969   8.02365
10.4757   8.05888
10.4546   8.04714
10.4335   7.97881
10.4126   7.96642
10.3917   8.07580
10.3709   8.22448
10.3502   8.39137
10.3296   8.47520
10.3091   8.60387
10.2886   8.69227
10.2683   8.86829
10.2480   9.04183
10.2277   9.12212
10.2076   9.21685
10.1876   9.27605
10.1676   9.38978
10.1477   9.58053
10.1279   9.84120
10.1081  10.04530
10.0885  10.26510
10.0689  10.33960
10.0494  10.36380
10.0299  10.69040
10.0106  10.98010
 9.9913  11.21160
 9.9720  11.48880
 9.9529  11.74620
 9.9338  11.89220
 9.9148  12.02700
 9.8959  12.12580
 9.8771  12.18410
 9.8583  12.25640
 9.8396  12.39430
 9.8210  12.60720
 9.8024  12.87450
 9.7839  13.08900
 9.7655  13.36740
 9.7471  13.69630
 9.7288  14.07320
 9.7106  14.53700
 9.6925  15.13040
 9.6744  15.80100
 9.6564  16.37770
 9.6384  16.93210
 9.6205  17.50230
 9.6027  17.89270
 9.5850  18.32340
 9.5673  18.95100
 9.5497  19.72880
 9.5321  20.56150
 9.5146  21.51440
 9.4972  22.43060
 9.4798  23.32050
 9.4625  24.46500
 9.4453  25.96380
 9.4281  27.76320
 9.4110  29.94400
 9.3940  32.49800
 9.3770  35.13780
 9.3600  37.48000
 9.3432  39.59960
 9.3264  41.43560
 9.3096  42.83210
 9.2930  43.68340
 9.2763  44.16210
 9.2598  44.47620
 9.2432  44.72680
 9.2268  44.95350
 9.2104  45.10950
 9.1941  45.13410
 9.1778  45.11230
 9.1616  45.12560
 9.1454  45.23010
 9.1293  45.17570
 9.1133  44.89770
 9.0973  44.83740
 9.0814  44.90600
 9.0655  44.67640
 9.0497  44.30760
 9.0339  44.11970
 9.0182  43.94880
 9.0025  43.61930
 8.9870  43.29650
 8.9714  43.25380
 8.9559  43.45610
 8.9405  43.64050
 8.9251  43.98310
 8.9097  44.26000
 8.8945  44.34490
 8.8792  44.45480
 8.8641  44.40490
 8.8489  44.26280
 8.8338  44.00140
 8.8188  43.64040
 8.8039  43.24690
 8.7889  42.78130
 8.7741  42.30480
 8.7592  41.91560
 8.7445  41.62940
 8.7297  41.13160
 8.7151  40.32880
 8.7005  39.45150
 8.6859  38.29950
 8.6714  36.37910
 8.6569  33.48610
 8.6425  30.21250
 8.6281  28.69590
 8.6137  30.37490
 8.5994  33.84700
 8.5852  37.10780
 8.5710  39.50030
 8.5569  40.86400
 8.5428  41.62530
 8.5287  42.15510
 8.5147  42.60990
 8.5008  42.89760
 8.4869  43.13120
 8.4730  43.22830
 8.4592  43.26390
 8.4454  43.26420
 8.4316  43.38660
 8.4180  43.39070
 8.4043  43.49220
 8.3907  43.68540
 8.3772  43.88440
 8.3637  43.92280
 8.3502  43.92510
 8.3368  44.05050
 8.3234  44.27940
 8.3100  44.32620
 8.2967  44.41090
 8.2835  44.45540
 8.2703  44.45060
 8.2571  44.41750
 8.2440  44.32090
 8.2309  44.23770
 8.2179  44.12640
 8.2049  43.66010
 8.1919  43.09520
 8.1790  42.27560
 8.1661  41.02380
 8.1532  39.28790
 8.1404  37.38440
 8.1277  35.28500
 8.1150  33.11890
 8.1023  31.15060
 8.0897  29.25700
 8.0770  27.34070
 8.0645  25.47820
 8.0520  23.69320
 8.0395  22.16240
 8.0270  20.76680
 8.0146  19.47650
 8.0023  18.33950
 7.9899  17.11970
 7.9776  15.89760
 7.9654  14.74900
 7.9532  13.62250
 7.9410  12.57970
 7.9288  11.49070
 7.9167  10.36970
 7.9047   9.39841
 7.8926   8.60505
 7.8807   7.97929
 7.8687   7.31190
 7.8568   6.75450
 7.8449   6.29485
 7.8330   5.82531
 7.8212   5.42154
 7.8094   5.12025
 7.7977   4.83097
 7.7860   4.61078
 7.7743   4.31646
 7.7627   3.98654
 7.7511   3.77113
 7.7395   3.45590
 7.7280   3.17334
 7.7165   2.90987
 7.7050   2.71397
 7.6936   2.55086
 7.6822   2.40421
 7.6708   2.14465
 7.6595   1.94230
 7.6482   1.90244
 7.6369   1.75023
 7.6257   1.51327
 7.6145   1.38619
 7.6033   1.37862
 7.5922   1.25596
 7.5811   1.13571
 7.5700   1.05815
 7.5590   1.01156
 7.5480   0.98667
 7.5370   0.93814
 7.5261   0.92327
 7.5152   0.91876
 7.5043   0.92310
 7.4935   1.00887
 7.4826   0.92108
 7.4718   0.76665
 7.4611   0.78342
 7.4504   0.84435
 7.4397   0.84327
 7.4290   0.80892
 7.4184   0.79031
 7.4078   0.81039
 7.3972   0.77130
 7.3867   0.71768
 7.3762   0.75097
 7.3657   0.77674
 7.3553   0.76804
 7.3449   0.76719
 7.3345   0.71000
 7.3241   0.64689
 7.3138   0.68664
 7.3035   0.74494
 7.2932   0.74804
 7.2830   0.74488
 7.2727   0.68218
 7.2626   0.60451
 7.2524   0.62723
 7.2423   0.63625
 7.2322   0.63982
 7.2221   0.71017
 7.2120   0.61241
 7.2020   0.53146
 7.1921   0.60784
 7.1821   0.68787
 7.1722   0.68583
 7.1623   0.75490
 7.1524   0.66358
 7.1425   0.65747
 7.1327   0.69948
 7.1229   0.78618
 7.1131   0.87559
 7.1034   0.83372
 7.0937   0.81502
 7.0840   0.77238
 7.0743   0.71749
 7.0647   0.85238
 7.0551   0.95317
 7.0455   0.85648
 7.0359   0.81093
 7.0264   0.84823
 7.0169   0.94494
 7.0074   0.96382
 6.9979   0.95286
 6.9885   0.85645
 6.9791   0.86446
 6.9697   0.91667
 6.9604   0.97968
 6.9510   0.92982
 6.9417   0.90108
 6.9324   1.01826
 6.9232   1.07295
 6.9140   1.12937
 6.9047   1.16058
 6.8956   1.14333
 6.8864   1.12264
 6.8773   1.08450
 6.8682   1.04518
 6.8591   1.01819
 6.8500   1.00638
 6.8410   1.11328
 6.8320   1.14944
 6.8230   1.11703
 6.8140   1.12773
 6.8051   1.19873
 6.7962   1.18021
 6.7873   1.09688
 6.7784   1.05291
 6.7695   1.10074
 6.7607   1.13818
 6.7519   1.18308
 6.7431   1.20384
 6.7344   1.17083
 6.7256   1.15544
 6.7169   1.14088
 6.7082   1.15087
 6.6996   1.26598
 6.6909   1.33171
 6.6823   1.27643
 6.6737   1.29097
 6.6651   1.25037
 6.6566   1.22079
 6.6480   1.30484
 6.6395   1.40716
 6.6310   1.41381
 6.6226   1.27956
 6.6141   1.25760
 6.6057   1.28568
 6.5973   1.28885
 6.5889   1.36433
 6.5805   1.42434
 6.5722   1.36419
 6.5639   1.29663
 6.5556   1.31236
 6.5473   1.40350
 6.5390   1.46694
 6.5308   1.52115
 6.5226   1.51759
 6.5144   1.44087
 6.5062   1.45274
 6.4981   1.50381
 6.4900   1.50406
 6.4818   1.44400
 6.4737   1.48403
 6.4657   1.54500
 6.4576   1.57541
 6.4496   1.52226
 6.4416   1.53022
 6.4336   1.54633
 6.4256   1.59594
 6.4177   1.60362
 6.4097   1.58683
 6.4018   1.55500
 6.3939   1.48557
 6.3860   1.51947
 6.3782   1.60050
 6.3704   1.62232
 6.3625   1.67829
 6.3547   1.63994
 6.3470   1.55895
 6.3392   1.60491
 6.3315   1.67575
 6.3237   1.63476
 6.3160   1.55800
 6.3083   1.55253
 6.3007   1.54796
 6.2930   1.67431
 6.2854   1.67296
 6.2778   1.60345
 6.2702   1.61407
 6.2626   1.53981
 6.2551   1.52719
 6.2476   1.46120
 6.2400   1.43410
 6.2325   1.49542
 6.2251   1.55997
 6.2176   1.58043
 6.2101   1.54171
 6.2027   1.47231
 6.1953   1.51153
 6.1879   1.60050
 6.1805   1.53531
 6.1732   1.51097
 6.1658   1.57643
 6.1585   1.62694
 6.1512   1.73595
 6.1439   1.74447
 6.1367   1.60246
 6.1294   1.60053
 6.1222   1.77011
 6.1149   1.83782
 6.1077   1.59155
 6.1006   1.51573
 6.0934   1.57913
 6.0862   1.65333
 6.0791   1.73210
 6.0720   1.75495
 6.0649   1.74972
 6.0578   1.83067
 6.0507   1.89436
 6.0437   1.83614
 6.0366   1.82903
 6.0296   1.82100
 6.0226   1.71517
 6.0156   1.74755
 6.0087   1.83309
 6.0017   1.77003
 5.9948   1.81183
 5.9878   1.76450
 5.9809   1.67227
 5.9740   1.69050
 5.9672   1.77288
 5.9603   1.77304
 5.9535   1.71904
 5.9466   1.80761
 5.9398   1.91225
 5.9330   1.76880
 5.9262   1.73860
 5.9195   1.87011
 5.9127   1.88567
 5.9060   1.79330
 5.8993   1.76235
 5.8926   1.73774
 5.8859   1.72646
 5.8792   1.84936
 5.8726   1.94343
 5.8659   1.96641
 5.8593   1.99004
 5.8527   1.96777
 5.8461   1.95617
 5.8395   2.01639
 5.8329   2.05578
 5.8264   2.09647
 5.8198   2.05558
 5.8133   1.97174
 5.8068   2.00159
 5.8003   2.12572
 5.7938   2.18207
 5.7874   2.07376
 5.7809   2.02534
 5.7745   2.12318
 5.7680   2.23951
 5.7616   2.30717
 5.7552   2.30385
 5.7489   2.26182
 5.7425   2.31218
 5.7361   2.43624
 5.7298   2.44683
 5.7235   2.36244
 5.7172   2.44061
 5.7109   2.48128
 5.7046   2.47593
 5.6983   2.40893
 5.6921   2.42353
 5.6858   2.47050
 5.6796   2.46653
 5.6734   2.36577
 5.6672   2.28422
 5.6610   2.33144
 5.6548   2.35361
 5.6487   2.37758
 5.6425   2.36911
 5.6364   2.35909
 5.6303   2.26951
 5.6242   2.19444
 5.6181   2.25009
 5.6120   2.38648
 5.6059   2.41079
 5.5999   2.34574
 5.5938   2.27102
 5.5878   2.19765
 5.5818   2.17011
 5.5758   2.20374
 5.5698   2.22393
 5.5638   2.30994
 5.5578   2.28593
 5.5519   2.24227
 5.5460   2.26609
 5.5400   2.27670
 5.5341   2.31467
 5.5282   2.34715
 5.5223   2.34870
 5.5164   2.38139
 5.5106   2.30888
 5.5047   2.30246
 5.4989   2.42095
 5.4931   2.48485
 5.4873   2.50057
 5.4815   2.51369
 5.4757   2.49909
 5.4699   2.50270
 5.4641   2.45563
 5.4584   2.44476
 5.4527   2.54615
 5.4469   2.59819
 5.4412   2.58732
 5.4355   2.59332
 5.4298   2.56124
 5.4241   2.49575
 5.4185   2.47547
 5.4128   2.52472
 5.4072   2.54217
 5.4015   2.45678
 5.3959   2.42384
 5.3903   2.37685
 5.3847   2.36006
 5.3791   2.40178
 5.3735   2.41402
 5.3680   2.31778
 5.3624   2.24424
 5.3569   2.19617
 5.3514   2.18630
 5.3458   2.31628
 5.3403   2.41172
 5.3348   2.41053
 5.3294   2.33196
 5.3239   2.25572
 5.3184   2.32130
 5.3130   2.34627
 5.3075   2.38585
 5.3021   2.40801
 5.2967   2.42734
 5.2913   2.46269
 5.2859   2.46836
 5.2805   2.38930
 5.2751   2.37257
 5.2698   2.41802
 5.2644   2.47244
 5.2591   2.51262
 5.2538   2.54674
 5.2485   2.50864
 5.2431   2.52006
 5.2378   2.61221
 5.2326   2.69185
 5.2273   2.69937
 5.2220   2.66947
 5.2168   2.66398
 5.2115   2.70093
 5.2063   2.68058
 5.2011   2.69561
 5.1959   2.77825
 5.1907   2.85284
 5.1855   2.84175
 5.1803   2.75026
 5.1751   2.70328
 5.1700   2.74315
 5.1648   2.85173
 5.1597   2.95695
 5.1545   2.95487
 5.1494   2.85395
 5.1443   2.78358
 5.1392   2.82790
 5.1341   2.89543
 5.1291   2.87247
 5.1240   2.85086
 5.1189   2.80043
 5.1139   2.79105
 5.1088   2.79529
 5.1038   2.77838
 5.0988   2.84240
 5.0938   2.91756
 5.0888   2.93352
 5.0838   2.89738
 5.0788   2.87076
 5.0738   2.92528
 5.0689   2.82328
 5.0639   2.76155
 5.0590   2.84236
 5.0541   2.89884
 5.0491   2.92163
 5.0442   2.98699
 5.0393   2.94012
 5.0344   2.83735
 5.0296   2.86557
 5.0247   2.96372
 5.0198   2.94971
 5.0150   2.94593
 5.0101   2.92815
 5.0053   2.92792
 5.0004   2.98869
 4.9956   3.00771
 4.9908   2.99027
 4.9860   2.98584
 4.9812   3.00596
 4.9765   3.09537
 4.9717   3.10668
 4.9669   3.16462
 4.9622   3.25328
 4.9574   3.26322
 4.9527   3.35892
 4.9480   3.41639
 4.9432   3.31751
 4.9385   3.24897
 4.9338   3.32672
 4.9291   3.43738
 4.9245   3.48101
 4.9198   3.55287
 4.9151   3.55708
 4.9105   3.60687
 4.9058   3.76568
 4.9012   3.93444
 4.8966   3.98299
 4.8919   4.04645
 4.8873   4.24430
 4.8827   4.45264
 4.8781   4.65513
 4.8736   4.85707
 4.8690   4.99262
 4.8644   5.17438
 4.8599   5.31040
 4.8553   5.47760
 4.8508   5.63956
 4.8462   5.76882
 4.8417   5.90499
 4.8372   6.02535
 4.8327   6.18675
 4.8282   6.34578
 4.8237   6.52559
 4.8192   6.65552
 4.8147   6.78730
 4.8103   6.90497
 4.8058   7.03633
 4.8014   7.16050
 4.7969   7.28335
 4.7925   7.45515
 4.7881   7.65362
 4.7836   7.70524
 4.7792   7.72294
 4.7748   7.77151
 4.7704   7.93966
 4.7660   8.17981
 4.7617   8.27454
 4.7573   8.39611
 4.7530   8.51599
 4.7486   8.62923
 4.7443   8.59054
 4.7399   8.60852
 4.7356   8.70922
 4.7313   8.77191
 4.7270   8.75970
 4.7226   8.72413
 4.7184   8.68531
 4.7141   8.72586
 4.7098   8.68269
 4.7055   8.56827
 4.7012   8.37151
 4.6970   7.92995
 4.6927   7.57499
 4.6885   7.39587
 4.6842   7.40572
 4.6800   7.50197
 4.6758   7.59935
 4.6716   7.81470
 4.6674   8.04783
 4.6632   8.20670
 4.6590   8.46455
 4.6548   8.67519
 4.6506   8.93402
 4.6465   9.23575
 4.6423   9.55625
 4.6382   9.89222
 4.6340  10.21570
 4.6299  10.55450
 4.6258  10.78050
 4.6216  10.96980
 4.6175  11.20750
 4.6134  11.35230
 4.6093  11.44030
 4.6052  11.63210
 4.6011  11.77840
 4.5971  11.88570
 4.5930  11.98860
 4.5889  12.03520
 4.5849  12.06710
 4.5808  12.04160
 4.5768  12.01990
 4.5727  12.04520
 4.5687  12.00200
 4.5647  11.87690
 4.5607  11.72910
 4.5567  11.67640
 4.5526  11.44060
 4.5487  11.09910
 4.5447  10.88290
 4.5407  10.57980
 4.5367  10.26790
 4.5328   9.92855
 4.5288   9.53049
 4.5248   9.18132
 4.5209   8.99642
 4.5170   8.69728
 4.5130   8.25917
 4.5091   7.92071
 4.5052   7.53668
 4.5013   7.32230
 4.4974   7.26263
 4.4935   7.19510
 4.4896   7.06391
 4.4857   7.00279
 4.4818   6.95491
 4.4779   6.89628
 4.4741   6.91783
 4.4702   6.90355
 4.4664   6.79272
 4.4625   6.84159
 4.4587   6.95224
 4.4549   7.05363
 4.4510   7.14378
 4.4472   7.26337
 4.4434   7.36310
 4.4396   7.42456
 4.4358   7.42795
 4.4320   7.48680
 4.4282   7.63004
 4.4245   7.71468
 4.4207   7.88145
 4.4169   8.01699
 4.4132   8.13427
 4.4094   8.28703
 4.4057   8.45298
 4.4019   8.67179
 4.3982   8.76538
 4.3945   8.90575
 4.3907   9.21021
 4.3870   9.52452
 4.3833   9.72572
 4.3796   9.93682
 4.3759  10.13320
 4.3722  10.41520
 4.3685  10.72770
 4.3649  10.99570
 4.3612  11.22200
 4.3575  11.43260
 4.3539  11.63050
 4.3502  11.85370
 4.3466  12.00730
 4.3429  12.17480
 4.3393  12.43500
 4.3357  12.45260
 4.3320  12.36160
 4.3284  12.40620
 4.3248  12.41010
 4.3212  12.50530
 4.3176  12.52860
 4.3140  12.40740
 4.3105  12.21490
 4.3069  12.04810
 4.3033  11.94970
 4.2997  11.78130
 4.2962  11.72880
 4.2926  11.74400
 4.2890  11.65650
 4.2855  11.55000
 4.2820  11.59960
 4.2784  11.70450
 4.2749  11.63590
 4.2714  11.64280
 4.2679  11.78020
 4.2644  12.07690
 4.2609  12.53880
 4.2574  12.79290
 4.2539  12.81530
 4.2504  12.74870
 4.2469  12.60810
 4.2434  12.47480
 4.2400  12.46130
 4.2365  12.44690
 4.2330  12.33400
 4.2296  12.36370
 4.2261  12.55330
 4.2227  12.77660
 4.2193  12.97940
 4.2158  13.12930
 4.2124  13.30770
 4.2090  13.54440
 4.2056  13.62980
 4.2022  13.61680
 4.1988  13.62440
 4.1954  13.75320
 4.1920  13.85000
 4.1886  13.85450
 4.1852  14.03640
 4.1818  14.21960
 4.1785  14.32280
 4.1751  14.43100
 4.1717  14.60370
 4.1684  14.80480
 4.1650  14.78040
 4.1617  14.75360
 4.1584  14.96810
 4.1550  15.27780
 4.1517  15.40590
 4.1484  15.53840
 4.1451  15.61570
 4.1418  15.62300
 4.1384  15.77850
 4.1351  15.96520
 4.1319  16.15270
 4.1286  16.29310
 4.1253  16.37110
 4.1220  16.56120
 4.1187  16.79100
 4.1155  16.97670
 4.1122  16.99510
 4.1089  17.15950
 4.1057  17.38750
 4.1024  17.59860
 4.0992  17.83440
 4.0959  18.11800
 4.0927  18.37690
 4.0895  18.45840
 4.0863  18.55260
 4.0830  18.73100
 4.0798  18.87960
 4.0766  19.01040
 4.0734  19.14630
 4.0702  19.29490
 4.0670  19.43470
 4.0639  19.55150
 4.0607  19.49140
 4.0575  19.38800
 4.0543  19.43010
 4.0511  19.48060
 4.0480  19.39300
 4.0448  19.37230
 4.0417  19.43620
 4.0385  19.43580
 4.0354  19.31660
 4.0323  19.31270
 4.0291  19.32890
 4.0260  19.22600
 4.0229  19.19260
 4.0197  19.10310
 4.0166  19.05850
 4.0135  19.13860
 4.0104  19.05570
 4.0073  18.97500
 4.0042  19.10530
 4.0011  19.14310
 3.9981  19.03200
 3.9950  19.12440
 3.9919  19.20390
 3.9888  19.24280
 3.9857  19.36910
 3.9827  19.64070
 3.9796  19.87570
 3.9766  19.93010
 3.9735  19.91120
 3.9705  19.98210
 3.9675  20.17260
 3.9644  20.36130
 3.9614  20.58150
 3.9584  20.72240
 3.9554  20.88460
 3.9523  21.06160
 3.9493  21.19440
 3.9463  21.40720
 3.9433  21.61480
 3.9403  21.71030
 3.9373  21.97520
 3.9343  22.17240
 3.9314  22.17340
 3.9284  22.19760
 3.9254  22.33370
 3.9224  22.41090
 3.9195  22.41090
 3.9165  22.48170
 3.9136  22.48410
 3.9106  22.41430
 3.9077  22.40220
 3.9047  22.40210
 3.9018  22.36630
 3.8988  22.36730
 3.8959  22.27080
 3.8930  21.99770
 3.8901  21.76910
 3.8872  21.58720
 3.8842  21.50660
 3.8813  21.52680
 3.8784  21.51730
 3.8755  21.41890
 3.8726  21.24430
 3.8697  21.12920
 3.8669  21.00260
 3.8640  20.91290
 3.8611  20.94510
 3.8582  20.86090
 3.8554  20.75800
 3.8525  20.85580
