Name: Tuff
Type: Rock
Class: Igneous
Subclass:  Felsic 
Particle Size: Solid surface
Sample No.: Ward04.txt
Owner: JPL
Wavelength range: IR 
Origin: Ward's Collection of American Rocks.  Sample locality - Cripple Creek, Teller county, Colorado.
Collected by:  Ward's Natural Science
Description: A light-gray felsitic rock, somewhat porous and earthy in
appearance, with speckles of pyrite.
Geologic age - Tertiary (Oligocene).



Measurement: Hemispherical reflectance
First Column: X
Second Column: Y
X Units: Wavelength (micrometers)
Y Units: Reflectance (percent)
First X Value: 15.3871
Last X Value: 1.9998
Number of X Values: 2257
Additional information: None

15.3871   3.45868
15.3416   3.34528
15.2964   3.25966
15.2514   3.00695
15.2066   2.86622
15.1622   2.94140
15.1180   2.74405
15.0740   2.37107
15.0303   2.40673
14.9869   2.60433
14.9437   2.65048
14.9008   2.75033
14.8581   2.77524
14.8156   2.70424
14.7734   2.68015
14.7314   2.53656
14.6897   2.38428
14.6482   2.74369
14.6069   2.94204
14.5659   2.79753
14.5251   2.76560
14.4845   2.60015
14.4442   2.58224
14.4041   2.78936
14.3642   2.74766
14.3245   2.47031
14.2850   2.43360
14.2458   2.56649
14.2068   2.55188
14.1679   2.67266
14.1293   2.70972
14.0909   2.68306
14.0528   2.98267
14.0148   3.21738
13.9770   3.12999
13.9394   3.03803
13.9021   3.05631
13.8649   3.17598
13.8279   3.24029
13.7911   3.00316
13.7546   2.74646
13.7182   2.67757
13.6820   2.70269
13.6460   2.73978
13.6101   2.77704
13.5745   2.77497
13.5391   3.04279
13.5038   3.28712
13.4687   3.31768
13.4339   3.24056
13.3991   3.14152
13.3646   3.10756
13.3302   2.92317
13.2961   2.88819
13.2621   2.97492
13.2282   3.22212
13.1946   3.27639
13.1611   3.36146
13.1278   3.39970
13.0946   3.20282
13.0616   3.22584
13.0288   3.21355
12.9962   2.95932
12.9637   2.88136
12.9313   3.02008
12.8992   3.13169
12.8672   3.22573
12.8353   3.34386
12.8036   3.30738
12.7721   3.17471
12.7407   3.19308
12.7095   3.10476
12.6784   3.00372
12.6475   2.99274
12.6167   2.93507
12.5861   2.80242
12.5556   2.87501
12.5253   2.95664
12.4951   2.99254
12.4651   2.93301
12.4352   2.72966
12.4054   2.65550
12.3758   2.51523
12.3463   2.25121
12.3170   2.33927
12.2878   2.61886
12.2588   2.70071
12.2299   2.74252
12.2011   2.90472
12.1725   3.03354
12.1439   3.08306
12.1156   3.23745
12.0873   3.32564
12.0592   3.17605
12.0312   3.24981
12.0034   3.43064
11.9757   3.56790
11.9481   3.76177
11.9206   3.69881
11.8933   3.51702
11.8661   3.45730
11.8390   3.56738
11.8120   3.78594
11.7852   3.86427
11.7584   3.89374
11.7318   3.92614
11.7053   4.02690
11.6790   4.04335
11.6527   3.92115
11.6266   3.91557
11.6006   4.13788
11.5747   4.31728
11.5489   4.37587
11.5233   4.42305
11.4977   4.43287
11.4723   4.42067
11.4469   4.36928
11.4217   4.42065
11.3966   4.41063
11.3716   4.40806
11.3468   4.45606
11.3220   4.55837
11.2973   4.72018
11.2728   4.77175
11.2483   4.75310
11.2240   4.86895
11.1997   4.89789
11.1756   4.81974
11.1515   5.00738
11.1276   5.01413
11.1038   4.95480
11.0801   5.12138
11.0564   5.24617
11.0329   5.26815
11.0095   5.33787
10.9862   5.33211
10.9629   5.26084
10.9398   5.23962
10.9168   5.31086
10.8938   5.29075
10.8710   5.29328
10.8483   5.28786
10.8256   5.31431
10.8031   5.30663
10.7806   5.29874
10.7582   5.44665
10.7360   5.67126
10.7138   5.71096
10.6917   5.71184
10.6697   5.77380
10.6478   5.95652
10.6260   5.87504
10.6042   5.83186
10.5826   6.01222
10.5610   6.10736
10.5396   6.28430
10.5182   6.53178
10.4969   6.55592
10.4757   6.57274
10.4546   6.79842
10.4335   6.98814
10.4126   7.04124
10.3917   7.14671
10.3709   7.26779
10.3502   7.32537
10.3296   7.49049
10.3091   7.62842
10.2886   7.85286
10.2683   8.07438
10.2480   8.37518
10.2277   8.34681
10.2076   8.34670
10.1876   8.65371
10.1676   8.87261
10.1477   9.17349
10.1279   9.53653
10.1081   9.56725
10.0885   9.56252
10.0689   9.68833
10.0494   9.85744
10.0299  10.00640
10.0106  10.20990
 9.9913  10.52100
 9.9720  10.70710
 9.9529  10.72430
 9.9338  10.74270
 9.9148  10.92210
 9.8959  11.08850
 9.8771  11.13280
 9.8583  10.90770
 9.8396  10.74330
 9.8210  10.67850
 9.8024  10.61370
 9.7839  10.67670
 9.7655  10.69450
 9.7471  10.73030
 9.7288  10.98190
 9.7106  11.31260
 9.6925  11.65050
 9.6744  11.93720
 9.6564  12.20370
 9.6384  12.37180
 9.6205  12.28980
 9.6027  12.03710
 9.5850  12.00500
 9.5673  12.04180
 9.5497  11.87400
 9.5321  11.59600
 9.5146  11.32350
 9.4972  11.10160
 9.4798  10.85180
 9.4625  10.63460
 9.4453  10.44960
 9.4281  10.34510
 9.4110  10.40920
 9.3940  10.58080
 9.3770  10.62640
 9.3600  10.55300
 9.3432  10.52480
 9.3264  10.65420
 9.3096  10.60500
 9.2930  10.57090
 9.2763  10.60690
 9.2598  10.50690
 9.2432  10.35590
 9.2268  10.28010
 9.2104  10.27920
 9.1941  10.17060
 9.1778  10.04770
 9.1616   9.87054
 9.1454   9.75621
 9.1293   9.65439
 9.1133   9.52238
 9.0973   9.36458
 9.0814   9.19276
 9.0655   9.06908
 9.0497   8.94222
 9.0339   8.85569
 9.0182   8.82944
 9.0025   8.77548
 8.9870   8.76686
 8.9714   8.79919
 8.9559   8.79298
 8.9405   8.78126
 8.9251   8.86894
 8.9097   9.03827
 8.8945   9.00550
 8.8792   8.98117
 8.8641   8.97067
 8.8489   8.90173
 8.8338   9.00637
 8.8188   9.22287
 8.8039   9.20609
 8.7889   9.08959
 8.7741   9.07717
 8.7592   9.23011
 8.7445   9.29931
 8.7297   9.17106
 8.7151   9.14388
 8.7005   9.22727
 8.6859   9.30332
 8.6714   9.32335
 8.6569   9.17777
 8.6425   8.91273
 8.6281   8.83139
 8.6137   8.92221
 8.5994   9.14464
 8.5852   9.49693
 8.5710   9.84418
 8.5569  10.03350
 8.5428  10.07650
 8.5287  10.06000
 8.5147  10.17500
 8.5008  10.22930
 8.4869  10.30270
 8.4730  10.45010
 8.4592  10.48610
 8.4454  10.57380
 8.4316  10.76550
 8.4180  10.75770
 8.4043  10.68990
 8.3907  10.70060
 8.3772  10.76990
 8.3637  10.72900
 8.3502  10.63350
 8.3368  10.56850
 8.3234  10.61090
 8.3100  10.49310
 8.2967  10.34810
 8.2835  10.35070
 8.2703  10.20090
 8.2571  10.03390
 8.2440   9.99640
 8.2309   9.97175
 8.2179   9.79842
 8.2049   9.46054
 8.1919   9.17385
 8.1790   9.00382
 8.1661   8.66625
 8.1532   8.11528
 8.1404   7.59199
 8.1277   7.22398
 8.1150   6.81961
 8.1023   6.42070
 8.0897   6.01547
 8.0770   5.78678
 8.0645   5.49768
 8.0520   5.21432
 8.0395   4.99079
 8.0270   4.67534
 8.0146   4.55556
 8.0023   4.50944
 7.9899   4.32723
 7.9776   4.24181
 7.9654   4.19137
 7.9532   4.00227
 7.9410   3.76788
 7.9288   3.64575
 7.9167   3.54180
 7.9047   3.47984
 7.8926   3.47219
 7.8807   3.27176
 7.8687   3.08074
 7.8568   3.00566
 7.8449   2.94967
 7.8330   3.04150
 7.8212   3.06092
 7.8094   3.00793
 7.7977   2.88818
 7.7860   2.87219
 7.7743   2.97698
 7.7627   3.01795
 7.7511   2.92239
 7.7395   2.78263
 7.7280   2.58792
 7.7165   2.57198
 7.7050   2.65646
 7.6936   2.61065
 7.6822   2.60360
 7.6708   2.61718
 7.6595   2.51988
 7.6482   2.52115
 7.6369   2.51984
 7.6257   2.39667
 7.6145   2.24149
 7.6033   2.12608
 7.5922   2.08539
 7.5811   2.03779
 7.5700   2.04221
 7.5590   2.09216
 7.5480   2.08697
 7.5370   2.07038
 7.5261   2.18764
 7.5152   2.26325
 7.5043   2.28455
 7.4935   2.16028
 7.4826   2.12987
 7.4718   2.21557
 7.4611   2.21393
 7.4504   2.13252
 7.4397   2.19114
 7.4290   2.23989
 7.4184   2.08065
 7.4078   2.10407
 7.3972   2.24186
 7.3867   2.23958
 7.3762   2.19748
 7.3657   2.19503
 7.3553   2.22765
 7.3449   2.22709
 7.3345   2.20804
 7.3241   2.18358
 7.3138   2.24245
 7.3035   2.26145
 7.2932   2.15417
 7.2830   2.09093
 7.2727   2.07516
 7.2626   2.08883
 7.2524   2.03881
 7.2423   2.06402
 7.2322   2.16178
 7.2221   2.31971
 7.2120   2.26994
 7.2020   2.13145
 7.1921   2.18515
 7.1821   2.23248
 7.1722   2.27016
 7.1623   2.33842
 7.1524   2.37521
 7.1425   2.33140
 7.1327   2.27787
 7.1229   2.30165
 7.1131   2.36928
 7.1034   2.37905
 7.0937   2.40566
 7.0840   2.39871
 7.0743   2.27504
 7.0647   2.20415
 7.0551   2.23431
 7.0455   2.30165
 7.0359   2.21716
 7.0264   2.24098
 7.0169   2.40745
 7.0074   2.42971
 6.9979   2.40202
 6.9885   2.45303
 6.9791   2.43128
 6.9697   2.42822
 6.9604   2.44213
 6.9510   2.43259
 6.9417   2.47324
 6.9324   2.46370
 6.9232   2.52141
 6.9140   2.47217
 6.9047   2.35134
 6.8956   2.32658
 6.8864   2.41719
 6.8773   2.48359
 6.8682   2.42397
 6.8591   2.45426
 6.8500   2.58436
 6.8410   2.55523
 6.8320   2.39334
 6.8230   2.41053
 6.8140   2.47863
 6.8051   2.44232
 6.7962   2.46507
 6.7873   2.53658
 6.7784   2.57428
 6.7695   2.64758
 6.7607   2.66657
 6.7519   2.65738
 6.7431   2.61452
 6.7344   2.61068
 6.7256   2.61421
 6.7169   2.66224
 6.7082   2.63330
 6.6996   2.62519
 6.6909   2.63898
 6.6823   2.66374
 6.6737   2.67078
 6.6651   2.63520
 6.6566   2.63065
 6.6480   2.72646
 6.6395   2.74583
 6.6310   2.79391
 6.6226   2.76805
 6.6141   2.66343
 6.6057   2.60501
 6.5973   2.65395
 6.5889   2.74315
 6.5805   2.72932
 6.5722   2.70922
 6.5639   2.75796
 6.5556   2.74250
 6.5473   2.71078
 6.5390   2.69308
 6.5308   2.72489
 6.5226   2.79422
 6.5144   2.81549
 6.5062   2.74926
 6.4981   2.71309
 6.4900   2.76878
 6.4818   2.74413
 6.4737   2.86144
 6.4657   3.02482
 6.4576   3.03137
 6.4496   3.00771
 6.4416   2.92176
 6.4336   2.88979
 6.4256   2.95371
 6.4177   2.89199
 6.4097   2.85685
 6.4018   2.87647
 6.3939   2.90957
 6.3860   2.90304
 6.3782   2.87457
 6.3704   2.88548
 6.3625   2.91973
 6.3547   2.89550
 6.3470   2.79961
 6.3392   2.70626
 6.3315   2.76681
 6.3237   2.84992
 6.3160   2.81817
 6.3083   2.72689
 6.3007   2.62864
 6.2930   2.58785
 6.2854   2.56011
 6.2778   2.59914
 6.2702   2.63357
 6.2626   2.49357
 6.2551   2.37291
 6.2476   2.35392
 6.2400   2.41268
 6.2325   2.44929
 6.2251   2.40990
 6.2176   2.27891
 6.2101   2.21248
 6.2027   2.20602
 6.1953   2.17293
 6.1879   2.24101
 6.1805   2.19403
 6.1732   2.07469
 6.1658   2.09608
 6.1585   2.19634
 6.1512   2.35037
 6.1439   2.37614
 6.1367   2.27187
 6.1294   2.22815
 6.1222   2.26035
 6.1149   2.30656
 6.1077   2.46665
 6.1006   2.53426
 6.0934   2.50029
 6.0862   2.36737
 6.0791   2.37411
 6.0720   2.42878
 6.0649   2.33698
 6.0578   2.19110
 6.0507   2.14700
 6.0437   2.25578
 6.0366   2.43350
 6.0296   2.58483
 6.0226   2.57191
 6.0156   2.57165
 6.0087   2.53542
 6.0017   2.49987
 5.9948   2.55859
 5.9878   2.56351
 5.9809   2.60529
 5.9740   2.60882
 5.9672   2.63990
 5.9603   2.68448
 5.9535   2.68697
 5.9466   2.70232
 5.9398   2.71286
 5.9330   2.65141
 5.9262   2.63912
 5.9195   2.78864
 5.9127   2.76661
 5.9060   2.71791
 5.8993   2.80797
 5.8926   2.83056
 5.8859   2.85323
 5.8792   2.93352
 5.8726   2.99113
 5.8659   2.93541
 5.8593   3.04647
 5.8527   3.11692
 5.8461   3.03885
 5.8395   3.06167
 5.8329   3.12744
 5.8264   3.19310
 5.8198   3.28319
 5.8133   3.34447
 5.8068   3.28837
 5.8003   3.24823
 5.7938   3.37263
 5.7874   3.43376
 5.7809   3.48624
 5.7745   3.48781
 5.7680   3.49186
 5.7616   3.52027
 5.7552   3.50528
 5.7489   3.51604
 5.7425   3.56664
 5.7361   3.58321
 5.7298   3.54839
 5.7235   3.52777
 5.7172   3.50905
 5.7109   3.57017
 5.7046   3.66520
 5.6983   3.68975
 5.6921   3.69784
 5.6858   3.67184
 5.6796   3.67967
 5.6734   3.71766
 5.6672   3.73265
 5.6610   3.66276
 5.6548   3.68582
 5.6487   3.74303
 5.6425   3.65684
 5.6364   3.66411
 5.6303   3.75618
 5.6242   3.81880
 5.6181   3.73149
 5.6120   3.63297
 5.6059   3.62732
 5.5999   3.65594
 5.5938   3.68558
 5.5878   3.74316
 5.5818   3.80575
 5.5758   3.76260
 5.5698   3.67322
 5.5638   3.72305
 5.5578   3.82007
 5.5519   3.84428
 5.5460   3.82540
 5.5400   3.84182
 5.5341   3.92904
 5.5282   3.92220
 5.5223   3.85968
 5.5164   3.97187
 5.5106   4.17253
 5.5047   4.19951
 5.4989   4.14427
 5.4931   4.17898
 5.4873   4.27168
 5.4815   4.26734
 5.4757   4.25917
 5.4699   4.35104
 5.4641   4.45764
 5.4584   4.46680
 5.4527   4.41671
 5.4469   4.42391
 5.4412   4.47657
 5.4355   4.52387
 5.4298   4.52753
 5.4241   4.52733
 5.4185   4.56514
 5.4128   4.48791
 5.4072   4.44612
 5.4015   4.50118
 5.3959   4.55568
 5.3903   4.50750
 5.3847   4.46840
 5.3791   4.44506
 5.3735   4.49015
 5.3680   4.51436
 5.3624   4.43103
 5.3569   4.40187
 5.3514   4.44494
 5.3458   4.45596
 5.3403   4.47166
 5.3348   4.52749
 5.3294   4.50140
 5.3239   4.50675
 5.3184   4.53043
 5.3130   4.54171
 5.3075   4.57146
 5.3021   4.73038
 5.2967   4.84756
 5.2913   4.81561
 5.2859   4.79032
 5.2805   4.78764
 5.2751   4.84795
 5.2698   4.93082
 5.2644   4.94630
 5.2591   5.00965
 5.2538   5.02489
 5.2485   5.13038
 5.2431   5.18898
 5.2378   5.12851
 5.2326   5.19637
 5.2273   5.24516
 5.2220   5.35180
 5.2168   5.50229
 5.2115   5.58156
 5.2063   5.59338
 5.2011   5.62322
 5.1959   5.63905
 5.1907   5.63408
 5.1855   5.65052
 5.1803   5.68681
 5.1751   5.74716
 5.1700   5.83143
 5.1648   5.86945
 5.1597   5.85709
 5.1545   5.86681
 5.1494   5.91103
 5.1443   6.02333
 5.1392   6.02400
 5.1341   5.95599
 5.1291   5.93065
 5.1240   5.93139
 5.1189   5.95468
 5.1139   6.10999
 5.1088   6.11312
 5.1038   6.03104
 5.0988   6.19416
 5.0938   6.26949
 5.0888   6.18330
 5.0838   6.22323
 5.0788   6.25471
 5.0738   6.24438
 5.0689   6.31479
 5.0639   6.42401
 5.0590   6.43668
 5.0541   6.37066
 5.0491   6.33182
 5.0442   6.36471
 5.0393   6.41002
 5.0344   6.45545
 5.0296   6.51343
 5.0247   6.54596
 5.0198   6.49843
 5.0150   6.57314
 5.0101   6.70665
 5.0053   6.68785
 5.0004   6.68616
 4.9956   6.74135
 4.9908   6.80564
 4.9860   6.84105
 4.9812   6.90873
 4.9765   7.01690
 4.9717   7.20485
 4.9669   7.40208
 4.9622   7.50881
 4.9574   7.61761
 4.9527   7.69875
 4.9480   7.75027
 4.9432   7.81999
 4.9385   7.87907
 4.9338   7.93675
 4.9291   8.07918
 4.9245   8.20847
 4.9198   8.20441
 4.9151   8.13532
 4.9105   8.26335
 4.9058   8.42900
 4.9012   8.53934
 4.8966   8.68821
 4.8919   8.72867
 4.8873   8.83073
 4.8827   9.02380
 4.8781   9.19284
 4.8736   9.29150
 4.8690   9.42700
 4.8644   9.48825
 4.8599   9.51904
 4.8553   9.60631
 4.8508   9.73586
 4.8462   9.90235
 4.8417  10.03660
 4.8372  10.13370
 4.8327  10.18290
 4.8282  10.26290
 4.8237  10.22820
 4.8192  10.18820
 4.8147  10.29500
 4.8103  10.30230
 4.8058  10.30980
 4.8014  10.22700
 4.7969  10.23310
 4.7925  10.35780
 4.7881  10.33270
 4.7836  10.27860
 4.7792  10.34340
 4.7748  10.34400
 4.7704  10.37300
 4.7660  10.50460
 4.7617  10.56650
 4.7573  10.70140
 4.7530  10.81490
 4.7486  10.88710
 4.7443  10.96540
 4.7399  11.05030
 4.7356  11.14380
 4.7313  11.15440
 4.7270  11.19210
 4.7226  11.26050
 4.7184  11.24960
 4.7141  11.34620
 4.7098  11.41440
 4.7055  11.40880
 4.7012  11.48780
 4.6970  11.57550
 4.6927  11.65670
 4.6885  11.72380
 4.6842  11.78690
 4.6800  11.78320
 4.6758  11.86110
 4.6716  12.06260
 4.6674  12.06560
 4.6632  11.98950
 4.6590  12.09950
 4.6548  12.29170
 4.6506  12.35690
 4.6465  12.40130
 4.6423  12.51820
 4.6382  12.55330
 4.6340  12.71530
 4.6299  12.90250
 4.6258  12.98070
 4.6216  13.12770
 4.6175  13.32920
 4.6134  13.43200
 4.6093  13.46870
 4.6052  13.59310
 4.6011  13.69780
 4.5971  13.79800
 4.5930  13.99730
 4.5889  14.10060
 4.5849  14.13810
 4.5808  14.28460
 4.5768  14.38010
 4.5727  14.43430
 4.5687  14.52340
 4.5647  14.60970
 4.5607  14.69220
 4.5567  14.83410
 4.5526  14.99700
 4.5487  15.01740
 4.5447  15.03620
 4.5407  15.10050
 4.5367  15.15840
 4.5328  15.18320
 4.5288  15.18550
 4.5248  15.19980
 4.5209  15.21480
 4.5170  15.25150
 4.5130  15.29130
 4.5091  15.30370
 4.5052  15.42280
 4.5013  15.50930
 4.4974  15.51350
 4.4935  15.50920
 4.4896  15.55080
 4.4857  15.63850
 4.4818  15.67800
 4.4779  15.73450
 4.4741  15.82340
 4.4702  15.92710
 4.4664  16.05200
 4.4625  16.18990
 4.4587  16.24560
 4.4549  16.26460
 4.4510  16.34790
 4.4472  16.53060
 4.4434  16.62490
 4.4396  16.65270
 4.4358  16.66410
 4.4320  16.70360
 4.4282  16.80980
 4.4245  16.86440
 4.4207  17.01420
 4.4169  17.20090
 4.4132  17.31250
 4.4094  17.38590
 4.4057  17.39560
 4.4019  17.44120
 4.3982  17.47290
 4.3945  17.60170
 4.3907  17.80730
 4.3870  17.85300
 4.3833  17.91270
 4.3796  18.05850
 4.3759  18.18920
 4.3722  18.25500
 4.3685  18.39990
 4.3649  18.44100
 4.3612  18.48950
 4.3575  18.63600
 4.3539  18.65580
 4.3502  18.66110
 4.3466  18.71670
 4.3429  18.85220
 4.3393  18.99870
 4.3357  19.01480
 4.3320  18.98900
 4.3284  19.11890
 4.3248  19.18350
 4.3212  19.05000
 4.3176  18.97650
 4.3140  19.12430
 4.3105  19.18300
 4.3069  19.20670
 4.3033  19.16450
 4.2997  19.09870
 4.2962  19.14530
 4.2926  19.12740
 4.2890  19.02790
 4.2855  19.05780
 4.2820  19.09870
 4.2784  19.05300
 4.2749  19.08380
 4.2714  19.04120
 4.2679  19.01340
 4.2644  19.26750
 4.2609  19.66170
 4.2574  19.92130
 4.2539  19.91280
 4.2504  19.79330
 4.2469  19.82000
 4.2434  19.80340
 4.2400  19.69950
 4.2365  19.67970
 4.2330  19.63510
 4.2296  19.67970
 4.2261  19.91920
 4.2227  20.17880
 4.2193  20.43750
 4.2158  20.70160
 4.2124  20.90810
 4.2090  21.04690
 4.2056  21.14200
 4.2022  21.33060
 4.1988  21.48800
 4.1954  21.53110
 4.1920  21.51030
 4.1886  21.51190
 4.1852  21.56680
 4.1818  21.62650
 4.1785  21.68500
 4.1751  21.76620
 4.1717  21.91160
 4.1684  21.86810
 4.1650  21.89210
 4.1617  22.03330
 4.1584  22.11350
 4.1550  22.13570
 4.1517  22.17400
 4.1484  22.41720
 4.1451  22.45350
 4.1418  22.41540
 4.1384  22.32590
 4.1351  22.28680
 4.1319  22.31700
 4.1286  22.45500
 4.1253  22.58630
 4.1220  22.62480
 4.1187  22.65290
 4.1155  22.68210
 4.1122  22.77760
 4.1089  22.79910
 4.1057  22.74380
 4.1024  22.72960
 4.0992  22.84540
 4.0959  22.92890
 4.0927  23.03480
 4.0895  23.10130
 4.0863  23.05020
 4.0830  23.01400
 4.0798  23.14440
 4.0766  23.20600
 4.0734  23.14970
 4.0702  23.20960
 4.0670  23.32200
 4.0639  23.25630
 4.0607  23.25180
 4.0575  23.31410
 4.0543  23.34450
 4.0511  23.38680
 4.0480  23.36310
 4.0448  23.40340
 4.0417  23.48360
 4.0385  23.39860
 4.0354  23.32520
 4.0323  23.35000
 4.0291  23.43400
 4.0260  23.41590
 4.0229  23.43540
 4.0197  23.49790
 4.0166  23.41110
 4.0135  23.45210
 4.0104  23.51340
 4.0073  23.40860
 4.0042  23.48650
 4.0011  23.69150
 3.9981  23.74220
 3.9950  23.61460
 3.9919  23.48670
 3.9888  23.54300
 3.9857  23.60010
 3.9827  23.72950
 3.9796  23.81880
 3.9766  23.94930
 3.9735  23.83890
 3.9705  23.60390
 3.9675  23.74520
 3.9644  23.90570
 3.9614  23.77960
 3.9584  23.61240
 3.9554  23.71260
 3.9523  23.75600
 3.9493  23.70400
 3.9463  23.81590
 3.9433  23.84050
 3.9403  23.85490
 3.9373  23.87550
 3.9343  23.96740
 3.9314  24.09360
 3.9284  24.07710
 3.9254  24.00230
 3.9224  23.92350
 3.9195  23.88290
 3.9165  23.87780
 3.9136  23.89470
 3.9106  24.00830
 3.9077  24.00260
 3.9047  23.97450
 3.9018  24.00130
 3.8988  23.95560
 3.8959  23.88340
 3.8930  23.97360
 3.8901  23.99030
 3.8872  23.88600
 3.8842  23.94590
 3.8813  24.01550
 3.8784  24.01000
 3.8755  23.95270
 3.8726  23.90080
 3.8697  23.80260
 3.8669  23.74750
 3.8640  23.71920
 3.8611  23.81350
 3.8582  23.83950
 3.8554  23.68520
 3.8525  23.58300
 3.8496  23.54830
 3.8468  23.62240
 3.8439  23.80870
 3.8411  23.75320
 3.8382  23.58610
 3.8354  23.56680
