Name: Hematite alpha Fe_2O_3
Type: Mineral
Class: Oxides
Subclass: 
Particle Size: 0-45um
Sample No.: O-1A
Owner: JPL
Wavelength range: IR
Origin: USA, Alabama, Birmingham
Collected by Burminco
Description: 





Measurement: Hemispherical reflectance
First Column: X
Second Column: Y
X Units:  Wavelength (micrometers)
Y Units:  Reflectance (percent)
First X Value: 15.3853
Last X Value: 2.00032
Number of X Values: 2256
Additional information: o01aa.txt
 
15.3853	3.00561
15.3397	3.06981
15.2945	3.08036
15.2495	3.02152
15.2048	3.10798
15.1603	2.9601
15.1161	2.7865
15.0722	2.77369
15.0285	2.76748
14.9851	2.77947
14.9419	2.60507
14.8989	2.57582
14.8563	2.5916
14.8138	2.55667
14.7716	2.55703
14.7296	2.62997
14.6879	2.72673
14.6464	2.69864
14.6052	2.55337
14.5641	2.24589
14.5233	2.01204
14.4828	2.02716
14.4424	2.05168
14.4023	2.00606
14.3624	1.94635
14.3227	2.07496
14.2833	2.26516
14.244	2.227
14.205	2.38506
14.1662	2.51473
14.1276	2.42557
14.0892	2.27525
14.051	2.08129
14.0131	1.86167
13.9753	1.96585
13.9377	2.06924
13.9004	2.47576
13.8632	2.91625
13.8262	3.09513
13.7895	3.14355
13.7529	3.2446
13.7165	3.47699
13.6803	3.70998
13.6443	3.98238
13.6085	4.14619
13.5729	4.18034
13.5374	4.25855
13.5022	4.38641
13.4671	4.57947
13.4322	4.71291
13.3975	4.82954
13.363	4.94567
13.3286	4.94458
13.2944	5.02396
13.2604	5.12517
13.2266	5.11073
13.193	5.19021
13.1595	5.2832
13.1262	5.25874
13.093	5.22334
13.06	5.25159
13.0272	5.18585
12.9946	5.16991
12.9621	5.18597
12.9298	5.1453
12.8976	5.22148
12.8656	5.42575
12.8337	5.49888
12.8021	5.44079
12.7705	5.24582
12.7391	5.20976
12.7079	5.27099
12.6769	5.27354
12.6459	5.24412
12.6152	5.32859
12.5845	5.4245
12.5541	5.51082
12.5238	5.67339
12.4936	5.58041
12.4635	5.49616
12.4337	5.61772
12.4039	5.57265
12.3743	5.65311
12.3448	5.76275
12.3155	5.80248
12.2863	5.98115
12.2573	6.12429
12.2284	6.11446
12.1996	6.29774
12.171	6.49924
12.1425	6.68662
12.1141	6.70697
12.0859	6.82188
12.0578	7.09468
12.0298	7.31557
12.0019	7.50851
11.9742	7.71394
11.9466	7.89182
11.9192	8.0755
11.8918	8.1242
11.8646	8.24064
11.8375	8.19543
11.8106	7.77554
11.7837	7.62992
11.757	7.95277
11.7304	8.18147
11.7039	8.14402
11.6776	8.11889
11.6513	8.07883
11.6252	7.86141
11.5992	7.71176
11.5733	7.47425
11.5475	7.19599
11.5219	6.95089
11.4963	6.50166
11.4709	6.2358
11.4455	6.31347
11.4203	6.22748
11.3952	6.25119
11.3702	6.36382
11.3454	6.59636
11.3206	6.87528
11.2959	7.47633
11.2714	8.17846
11.2469	8.47887
11.2226	8.44183
11.1983	8.3085
11.1742	8.21776
11.1502	8.01533
11.1263	7.9682
11.1024	7.96299
11.0787	7.81475
11.0551	7.80595
11.0316	7.69983
11.0081	7.67997
10.9848	7.63422
10.9616	7.54414
10.9385	7.53027
10.9154	7.58015
10.8925	7.62623
10.8697	7.52519
10.8469	7.54956
10.8243	7.62507
10.8017	7.69311
10.7793	7.76239
10.7569	7.65839
10.7346	7.61402
10.7125	7.70091
10.6904	7.74591
10.6684	7.72348
10.6465	7.59375
10.6247	7.44242
10.6029	7.53955
10.5813	7.54718
10.5597	7.56094
10.5383	7.60291
10.5169	7.54081
10.4956	7.51717
10.4744	7.57896
10.4533	7.55735
10.4323	7.36171
10.4113	7.23996
10.3904	7.25973
10.3697	7.18035
10.349	7.02797
10.3284	6.89471
10.3078	6.78315
10.2874	6.65588
10.267	6.54258
10.2467	6.47238
10.2265	6.43101
10.2064	6.28465
10.1863	6.02345
10.1663	5.86171
10.1464	5.70358
10.1266	5.58737
10.1069	5.6234
10.0872	5.5339
10.0676	5.43343
10.0481	5.41838
10.0287	5.3918
10.0093	5.34797
9.99005	5.23791
9.97084	5.1409
9.95169	5.05384
9.93263	4.93096
9.91364	4.81224
9.89472	4.74244
9.87587	4.74417
9.8571	4.74898
9.83839	4.88724
9.81976	4.81322
9.80119	4.67884
9.78271	4.57445
9.76428	4.48159
9.74592	4.44974
9.72764	4.39557
9.70943	4.33592
9.69128	4.38294
9.6732	4.54437
9.65518	4.613
9.63724	4.54346
9.61935	4.48107
9.60155	4.39305
9.5838	4.26292
9.56611	4.29456
9.5485	4.4123
9.53094	4.41982
9.51345	4.48785
9.49604	4.60739
9.47867	4.63499
9.46137	4.59287
9.44414	4.77544
9.42697	5.10977
9.40986	5.27765
9.39281	5.4953
9.37583	5.74569
9.35891	5.96985
9.34204	6.25215
9.32524	6.34982
9.3085	6.32263
9.29182	6.58911
9.27519	6.73242
9.25863	6.79796
9.24213	6.89919
9.22568	7.0549
9.2093	7.22343
9.19297	7.50186
9.17669	7.7775
9.16048	8.0022
9.14433	8.23003
9.12823	8.36021
9.11218	8.57018
9.0962	8.80249
9.08027	8.9362
9.06439	9.04447
9.04858	9.39358
9.03281	9.63507
9.0171	9.63451
9.00145	9.85108
8.98585	10.1642
8.9703	10.3115
8.9548	10.4813
8.93937	10.8148
8.92398	10.9307
8.90865	10.9792
8.89337	11.2067
8.87814	11.5751
8.86296	11.7932
8.84784	11.9107
8.83277	12.1587
8.81774	12.4764
8.80277	12.7505
8.78786	12.9315
8.77298	13.0777
8.75816	13.2327
8.7434	13.3972
8.72868	13.6272
8.714	13.7189
8.69938	13.7222
8.68481	13.708
8.67029	13.6922
8.65581	13.6872
8.64139	13.5214
8.62701	13.4133
8.61268	13.6872
8.5984	14.1328
8.58416	14.4822
8.56997	14.9312
8.55583	15.302
8.54174	15.5433
8.52769	15.9505
8.51368	16.3111
8.49973	16.5091
8.48582	16.6306
8.47195	16.8271
8.45813	17.1392
8.44436	17.5546
8.43062	17.9407
8.41693	18.1345
8.4033	18.3434
8.3897	18.5737
8.37614	18.8392
8.36264	19.0299
8.34917	19.316
8.33574	19.6597
8.32236	20.0374
8.30903	20.3337
8.29573	20.6921
8.28248	21.117
8.26927	21.5864
8.2561	22.1441
8.24298	22.594
8.2299	22.9676
8.21685	23.4014
8.20385	23.851
8.19089	24.2436
8.17797	24.554
8.16509	24.7997
8.15225	24.9158
8.13946	25.0845
8.1267	25.2373
8.11398	25.3617
8.10131	25.4189
8.08867	25.3637
8.07606	25.3451
8.0635	25.3206
8.05099	25.3389
8.0385	25.5434
8.02606	25.7659
8.01366	25.8446
8.00129	25.9229
7.98896	26.021
7.97667	26.043
7.96442	26.0638
7.9522	26.0387
7.94002	26.0425
7.92788	26.0042
7.91578	25.8808
7.90371	25.7509
7.89168	25.7286
7.87969	25.7177
7.86773	25.7567
7.85581	25.782
7.84392	25.7079
7.83207	25.6379
7.82026	25.6205
7.80849	25.6646
7.79674	25.7185
7.78503	25.7971
7.77337	25.9058
7.76173	26.0231
7.75012	26.1434
7.73856	26.1194
7.72703	26.0977
7.71553	26.0966
7.70406	25.9956
7.69263	25.8614
7.68123	25.8032
7.66987	25.6778
7.65855	25.5345
7.64725	25.3768
7.63598	25.1571
7.62475	25.0032
7.61356	24.8624
7.60239	24.675
7.59126	24.4929
7.58017	24.3584
7.5691	24.3578
7.55806	24.4075
7.54707	24.3672
7.5361	24.2694
7.52516	24.1702
7.51425	24.0971
7.50338	24.0124
7.49253	23.8539
7.48172	23.6483
7.47094	23.5211
7.46019	23.3583
7.44947	23.026
7.43879	22.7452
7.42813	22.5
7.4175	22.2884
7.4069	22.1205
7.39634	21.8507
7.3858	21.4917
7.37529	21.1891
7.36482	20.9327
7.35437	20.5961
7.34396	20.2405
7.33357	19.8997
7.32321	19.5268
7.31288	19.151
7.30258	18.7518
7.29231	18.342
7.28207	17.9995
7.27185	17.6019
7.26167	17.2381
7.25152	16.951
7.24139	16.6319
7.23129	16.5004
7.22122	16.3383
7.21117	16.1732
7.20116	15.9205
7.19117	15.6489
7.18121	15.5654
7.17128	15.6189
7.16137	15.4425
7.1515	15.2453
7.14164	15.114
7.13182	15.1172
7.12203	15.266
7.11225	15.3334
7.10251	15.281
7.0928	15.1825
7.08311	14.9961
7.07344	14.7891
7.06381	14.6594
7.0542	14.5986
7.04461	14.5575
7.03506	14.2939
7.02552	14.0894
7.01601	13.8965
7.00653	13.6999
6.99708	13.6189
6.98765	13.538
6.97824	13.4022
6.96886	13.4408
6.95951	13.5602
6.95018	13.4567
6.94087	13.3169
6.9316	13.3445
6.92234	13.3986
6.91311	13.4127
6.90391	13.4056
6.89473	13.2925
6.88557	13.2569
6.87644	13.3456
6.86733	13.6464
6.85824	13.7872
6.84918	13.6012
6.84015	13.5619
6.83114	13.7133
6.82215	13.8468
6.81319	13.8614
6.80424	13.9258
6.79532	14.206
6.78643	14.3821
6.77756	14.3395
6.76871	14.3952
6.75989	14.4693
6.75109	14.5485
6.74231	14.6237
6.73355	14.7754
6.72482	15.014
6.71611	15.2509
6.70742	15.3228
6.69875	15.3149
6.69011	15.5336
6.68149	15.8607
6.67289	15.9576
6.66431	16.1034
6.65576	16.2835
6.64722	16.7058
6.63871	17.2734
6.63022	17.2188
6.62175	17.1192
6.61331	17.3942
6.60488	17.6216
6.59648	17.8973
6.5881	18.2059
6.57974	18.5235
6.5714	18.8083
6.56308	18.9511
6.55478	19.1883
6.54651	19.4117
6.53825	19.5531
6.53001	19.9146
6.5218	20.4149
6.51361	20.5488
6.50544	20.8754
6.49729	21.6391
6.48915	22.0789
6.48104	22.2381
6.47295	22.4531
6.46488	22.6572
6.45683	22.9844
6.4488	23.3471
6.44079	23.7438
6.4328	24.2211
6.42482	24.5813
6.41687	25.1396
6.40894	25.0147
6.40103	24.4818
6.39314	24.3745
6.38526	24.3467
6.37741	24.3534
6.36957	24.3686
6.36176	24.0593
6.35396	23.9341
6.34618	24.006
6.33843	23.6948
6.33069	23.2759
6.32297	23.0643
6.31527	22.9213
6.30758	22.771
6.29992	22.6097
6.29227	22.5563
6.28465	22.5536
6.27704	22.5335
6.26945	22.4842
6.26188	22.4419
6.25432	22.4309
6.24679	22.4854
6.23927	22.4718
6.23177	22.4156
6.22429	22.3443
6.21683	22.2951
6.20938	22.35
6.20195	22.3753
6.19454	22.4124
6.18715	22.657
6.17978	22.5566
6.17242	22.3921
6.16508	22.5867
6.15776	22.7921
6.15045	22.8739
6.14317	23.0107
6.1359	23.046
6.12864	23.1989
6.12141	23.6037
6.11419	24.0982
6.10699	24.1725
6.0998	24.1657
6.09263	24.3119
6.08549	24.5396
6.07835	24.9992
6.07123	25.3136
6.06413	25.2776
6.05705	25.7429
6.04998	26.6306
6.04293	26.4571
6.0359	26.0492
6.02888	26.0643
6.02187	26.3826
6.01489	26.7229
6.00792	26.7519
6.00096	26.8633
5.99403	27.3085
5.98711	27.5547
5.9802	27.5197
5.97331	27.7241
5.96644	27.8168
5.95958	27.6344
5.95274	27.7331
5.94591	27.9786
5.9391	28.5049
5.9323	28.4879
5.92552	28.2105
5.91876	28.2733
5.91201	28.4275
5.90528	28.6985
5.89856	29.2759
5.89186	29.4383
5.88517	29.778
5.8785	30.0093
5.87184	29.564
5.8652	29.6378
5.85857	29.6976
5.85196	29.6706
5.84536	29.6773
5.83878	29.9235
5.83221	30.2722
5.82566	30.6719
5.81912	30.871
5.81259	30.6235
5.80608	30.5512
5.79959	30.6903
5.79311	30.7275
5.78665	30.8836
5.78019	31.0693
5.77376	31.3592
5.76734	31.8088
5.76093	31.6178
5.75453	31.3472
5.74815	31.4677
5.74179	31.4348
5.73543	31.4628
5.7291	31.4907
5.72277	31.659
5.71646	31.883
5.71017	31.9132
5.70389	31.6149
5.69762	31.6642
5.69136	31.7946
5.68513	31.601
5.6789	31.6372
5.67268	31.6434
5.66648	31.4555
5.6603	31.4829
5.65413	31.537
5.64797	31.5441
5.64182	31.5457
5.63569	31.1627
5.62957	30.8253
5.62347	30.5808
5.61737	30.3245
5.61129	29.8849
5.60522	29.4101
5.59917	28.8086
5.59313	27.867
5.5871	26.6511
5.58109	25.5295
5.57509	24.7079
5.5691	24.3043
5.56312	24.3625
5.55716	24.8625
5.55121	25.8822
5.54528	27.092
5.53935	28.2086
5.53344	29.0639
5.52754	29.6605
5.52166	30.0415
5.51578	30.3891
5.50992	30.6301
5.50407	30.8622
5.49823	31.0996
5.49241	31.3505
5.4866	31.6209
5.4808	31.9517
5.47501	32.0935
5.46923	32.2419
5.46347	32.4122
5.45772	32.4037
5.45198	32.4208
5.44625	32.4323
5.44054	32.3329
5.43484	32.3422
5.42914	32.4948
5.42347	32.6668
5.4178	32.4325
5.41214	32.1351
5.4065	31.9558
5.40087	31.748
5.39525	31.4686
5.38964	31.1978
5.38404	30.9594
5.37846	30.748
5.37288	30.5713
5.36732	30.3847
5.36177	30.2741
5.35623	30.3255
5.35071	30.4211
5.34519	30.2528
5.33968	30.1214
5.33419	30.1882
5.32871	30.2365
5.32324	30.3157
5.31778	30.4118
5.31233	30.5052
5.30689	30.5257
5.30147	30.5681
5.29605	30.6931
5.29065	30.818
5.28525	30.9039
5.27987	31.1061
5.2745	31.2654
5.26914	31.3556
5.26379	31.4839
5.25845	31.6738
5.25312	31.8866
5.24781	31.9509
5.2425	32.0924
5.23721	32.3152
5.23192	32.5004
5.22665	32.645
5.22138	32.8076
5.21613	32.9988
5.21089	33.1171
5.20566	33.1142
5.20044	33.1693
5.19522	33.14
5.19002	33.1099
5.18483	33.1597
5.17965	33.1324
5.17448	33.1698
5.16933	33.2173
5.16418	33.137
5.15904	33.0236
5.15391	32.9851
5.14879	33.048
5.14368	33.0403
5.13859	33.0082
5.1335	32.9991
5.12842	32.9537
5.12335	32.8928
5.1183	32.9263
5.11325	32.9211
5.10821	32.8954
5.10318	32.8667
5.09817	32.8075
5.09316	32.8277
5.08816	32.8127
5.08317	32.7129
5.07819	32.6201
5.07322	32.5806
5.06826	32.5777
5.06331	32.5554
5.05837	32.5212
5.05344	32.5337
5.04852	32.5288
5.04361	32.5194
5.03871	32.4491
5.03382	32.3428
5.02894	32.2455
5.02406	32.2433
5.0192	32.2594
5.01435	32.2085
5.0095	32.2213
5.00467	32.2757
4.99984	32.294
4.99502	32.3293
4.99021	32.3812
4.98542	32.4071
4.98063	32.478
4.97585	32.5624
4.97108	32.678
4.96632	32.8626
4.96156	33.0009
4.95682	33.1121
4.95209	33.2159
4.94736	33.2191
4.94264	33.2521
4.93794	33.3639
4.93324	33.4478
4.92855	33.4151
4.92387	33.3949
4.9192	33.4777
4.91453	33.5736
4.90988	33.7011
4.90524	33.8738
4.9006	34.0251
4.89597	34.1002
4.89135	34.1104
4.88674	34.0927
4.88214	34.1825
4.87755	34.2712
4.87296	34.2879
4.86839	34.2949
4.86382	34.3498
4.85926	34.4214
4.85471	34.4858
4.85017	34.4823
4.84564	34.4343
4.84111	34.4138
4.8366	34.3791
4.83209	34.348
4.82759	34.398
4.8231	34.4499
4.81862	34.4292
4.81415	34.4201
4.80968	34.4609
4.80522	34.4362
4.80077	34.4206
4.79633	34.4226
4.7919	34.4073
4.78747	34.3862
4.78306	34.4214
4.77865	34.4611
4.77425	34.4968
4.76986	34.5307
4.76547	34.554
4.7611	34.5182
4.75673	34.5244
4.75237	34.5453
4.74802	34.477
4.74367	34.4101
4.73934	34.4077
4.73501	34.3974
4.73069	34.4159
4.72638	34.4257
4.72207	34.4692
4.71777	34.4513
4.71348	34.3738
4.7092	34.3549
4.70493	34.3671
4.70066	34.284
4.69641	34.137
4.69216	34.0008
4.68791	33.9672
4.68368	33.9557
4.67945	33.9999
4.67523	34.0115
4.67102	33.996
4.66682	34.0309
4.66262	34.0709
4.65843	34.083
4.65425	34.0722
4.65007	34.0973
4.64591	34.1728
4.64175	34.1954
4.6376	34.2361
4.63345	34.2946
4.62932	34.3666
4.62519	34.3739
4.62106	34.3844
4.61695	34.3977
4.61284	34.4512
4.60874	34.5298
4.60465	34.5394
4.60056	34.5531
4.59648	34.5295
4.59241	34.476
4.58835	34.5332
4.58429	34.5975
4.58024	34.6271
4.5762	34.596
4.57216	34.63
4.56814	34.6601
4.56411	34.663
4.5601	34.666
4.55609	34.6519
4.55209	34.7093
4.5481	34.6988
4.54411	34.6272
4.54013	34.6368
4.53616	34.7441
4.5322	34.7825
4.52824	34.7266
4.52429	34.6714
4.52034	34.6499
4.51641	34.6479
4.51247	34.5745
4.50855	34.5818
4.50463	34.6857
4.50072	34.6989
4.49682	34.7485
4.49292	34.7646
4.48903	34.7187
4.48515	34.6918
4.48127	34.7453
4.4774	34.8085
4.47354	34.8032
4.46968	34.7283
4.46584	34.7099
4.46199	34.7972
4.45815	34.8721
4.45432	34.8929
4.4505	34.9189
4.44668	34.8766
4.44287	34.841
4.43907	34.843
4.43527	34.8532
4.43148	34.8766
4.4277	34.9062
4.42392	34.9714
4.42015	34.9718
4.41638	34.9872
4.41262	34.9837
4.40887	35.0391
4.40513	35.1338
4.40139	35.0896
4.39765	35.0706
4.39393	35.0854
4.39021	35.1043
4.38649	35.1517
4.38278	35.1208
4.37908	35.014
4.37539	34.9536
4.3717	35.0081
4.36801	35.1381
4.36434	35.1497
4.36067	35.071
4.357	35.0263
4.35335	34.9857
4.34969	35.0118
4.34605	35.0252
4.34241	35.0772
4.33877	35.1313
4.33514	35.1216
4.33152	35.0753
4.32791	35.0091
4.3243	35.0468
4.32069	35.1268
4.3171	35.0965
4.31351	35.0214
4.30992	34.9914
4.30634	35.0476
4.30277	34.9844
4.2992	34.9641
4.29564	35.0024
4.29208	35.0186
4.28853	35.0423
4.28499	35.0734
4.28145	35.0329
4.27792	34.9772
4.27439	34.9657
4.27087	34.9591
4.26735	34.9268
4.26384	34.8865
4.26034	34.8703
4.25684	34.8966
4.25335	34.8639
4.24986	34.8525
4.24638	34.8579
4.24291	34.9385
4.23944	35.0041
4.23598	34.968
4.23252	34.9853
4.22906	35.0492
4.22562	35.0264
4.22218	34.9707
4.21874	34.9646
4.21531	34.9463
4.21189	34.9057
4.20847	34.8618
4.20506	34.8482
4.20165	34.8402
4.19825	34.8362
4.19485	34.8666
4.19146	34.9083
4.18807	34.8732
4.18469	34.7469
4.18132	34.7477
4.17795	34.8038
4.17458	34.8748
4.17123	34.8923
4.16787	34.7982
4.16453	34.6519
4.16118	34.6397
4.15785	34.7216
4.15451	34.7893
4.15119	34.7842
4.14787	34.7578
4.14455	34.6944
4.14124	34.6437
4.13794	34.675
4.13464	34.6829
4.13134	34.662
4.12805	34.6828
4.12477	34.6759
4.12149	34.662
4.11822	34.6063
4.11495	34.5692
4.11168	34.556
4.10843	34.6162
4.10517	34.6503
4.10192	34.5921
4.09868	34.5046
4.09545	34.4315
4.09221	34.4114
4.08899	34.4052
4.08576	34.3708
4.08255	34.3024
4.07933	34.2227
4.07613	34.2349
4.07292	34.2657
4.06973	34.2135
4.06654	34.1365
4.06335	34.0446
4.06017	34.0003
4.05699	34.0048
4.05382	33.8723
4.05065	33.7084
4.04749	33.6043
4.04433	33.4632
4.04118	33.2732
4.03803	33.0368
4.03489	32.847
4.03175	32.655
4.02862	32.4087
4.02549	32.2035
4.02237	31.9058
4.01925	31.6687
4.01614	31.472
4.01303	31.2085
4.00993	30.854
4.00683	30.4854
4.00373	30.0888
4.00064	29.6635
3.99756	29.2505
3.99448	28.8404
3.9914	28.4649
3.98833	28.1595
3.98527	27.9825
3.98221	27.866
3.97915	27.8307
3.9761	27.8355
3.97305	27.8193
3.97001	27.8594
3.96697	28.021
3.96394	28.1956
3.96091	28.4314
3.95789	28.6947
3.95487	29.011
3.95186	29.3433
3.94885	29.6473
3.94584	29.9587
3.94284	30.287
3.93984	30.5808
3.93685	30.7818
3.93386	30.8684
3.93088	30.9592
3.9279	31.0479
3.92493	31.16
3.92196	31.2346
3.919	31.3231
3.91604	31.4093
3.91308	31.4805
3.91013	31.5048
3.90718	31.5014
3.90424	31.5199
3.9013	31.4866
3.89837	31.4905
3.89544	31.5415
3.89252	31.5525
3.8896	31.5779
3.88668	31.6066
3.88377	31.6092
3.88086	31.6492
3.87796	31.6899
3.87506	31.6992
3.87217	31.7048
3.86928	31.7714
3.86639	31.7981
3.86351	31.7807
3.86064	31.7334
3.85776	31.6964
3.8549	31.7182
3.85203	31.7391
3.84917	31.7481
3.84631	31.6779
3.84346	31.6455
3.84062	31.759
3.83777	31.8517
3.83494	31.9806
3.8321	32.0341
3.82927	32.0804
3.82644	32.1459
3.82362	32.1464
3.82081	32.3055
3.81799	32.4437
3.81518	32.4729
3.81238	32.515
3.80958	32.6388
3.80678	32.7399
3.80399	32.8501
3.8012	32.9569
3.79841	32.9773
3.79563	33.0781
3.79286	33.1931
3.79008	33.2315
3.78731	33.2858
3.78455	33.2962
3.78179	33.2959
3.77903	33.3187
3.77628	33.3086
3.77353	33.274
3.77079	33.3206
3.76805	33.2996
3.76531	33.349
3.76258	33.3324
3.75985	33.3488
3.75713	33.3678
3.7544	33.4118
3.75169	33.4001
3.74898	33.3346
3.74627	33.3285
3.74356	33.2649
3.74086	33.2566
3.73816	33.2876
3.73547	33.2846
3.73278	33.217
3.7301	33.1561
3.72741	33.2114
3.72474	33.2473
3.72206	33.2545
3.71939	33.1205
3.71673	33.0441
3.71406	33.1325
3.71141	33.1651
3.70875	33.1292
3.7061	33.1142
3.70345	33.1387
3.70081	33.1229
3.69817	33.0243
3.69553	32.9728
3.6929	33.0153
3.69027	32.9868
3.68765	32.8869
3.68503	32.862
3.68241	32.9533
3.6798	32.9034
3.67719	32.8222
3.67458	32.8526
3.67198	32.8678
3.66938	32.865
3.66678	32.7983
3.66419	32.7782
3.66161	32.807
3.65902	32.778
3.65644	32.7396
3.65387	32.7898
3.65129	32.7797
3.64872	32.6672
3.64616	32.6302
3.64359	32.6838
3.64103	32.7047
3.63848	32.636
3.63593	32.5402
3.63338	32.5026
3.63084	32.536
3.6283	32.5537
3.62576	32.5489
3.62322	32.4644
3.62069	32.4068
3.61817	32.3465
3.61564	32.3791
3.61312	32.4903
3.61061	32.4831
3.6081	32.3863
3.60559	32.3375
3.60308	32.3335
3.60058	32.2937
3.59808	32.2059
3.59558	32.1474
3.59309	32.1212
3.59061	32.1798
3.58812	32.1499
3.58564	32.0478
3.58316	31.9657
3.58069	31.9522
3.57822	31.8644
3.57575	31.7712
3.57328	31.7235
3.57082	31.7148
3.56836	31.7115
3.56591	31.7252
3.56346	31.6436
3.56101	31.604
3.55857	31.6473
3.55613	31.5986
3.55369	31.4742
3.55126	31.4331
3.54883	31.4077
3.5464	31.3463
3.54397	31.1553
3.54155	30.9733
3.53914	30.9196
3.53672	30.854
3.53431	30.7066
3.5319	30.5926
3.5295	30.4585
3.5271	30.3506
3.5247	30.2048
3.52231	29.9208
3.51991	29.7101
3.51753	29.5487
3.51514	29.3118
3.51276	29.1274
3.51038	29.0144
3.50801	28.8972
3.50563	28.73
3.50327	28.6184
3.5009	28.4379
3.49854	28.29
3.49618	28.2724
3.49382	28.1872
3.49147	28.0199
3.48912	27.9166
3.48677	27.8303
3.48443	27.7662
3.48209	27.703
3.47975	27.6817
3.47742	27.6869
3.47509	27.6362
3.47276	27.684
3.47044	27.9294
3.46812	28.1616
3.4658	28.2925
3.46348	28.5355
3.46117	28.693
