Name: Cryolite Na_3AlF_6
Type: Mineral
Class: Halides
Subclass: 
Particle Size: 0-45um
Sample No.: H-1A
Owner: JPL
Wavelength range: VNIR-SWIR
Origin: Denmark, Greenland, Ivigtut.
Collected by:  Ward's
Description: 





Measurement: Hemispherical reflectance
First Column: X
Second Column: Y
X Units: Wavelength (micrometers)
Y Units: Reflectance (percent)
First X Value: 2.500
Last X Value: 0.400
Number of X Values: 2101
Additional information: h01aa.txt

2.500  86.394331
2.499  86.294684
2.498  86.384241
2.497  86.468972
2.496  86.251995
2.495  86.408442
2.494  86.238276
2.493  86.210388
2.492  86.353879
2.491  86.094232
2.490  86.173624
2.489  86.067364
2.488  86.171180
2.487  86.032888
2.486  85.998198
2.485  85.979064
2.484  85.871952
2.483  85.970358
2.482  85.813175
2.481  85.941605
2.480  85.893618
2.479  85.882608
2.478  85.813424
2.477  85.749138
2.476  85.811536
2.475  85.500839
2.474  85.468886
2.473  85.599335
2.472  85.477823
2.471  85.611861
2.470  85.647552
2.469  85.685350
2.468  85.793828
2.467  85.748091
2.466  85.808105
2.465  85.794009
2.464  85.873028
2.463  85.824149
2.462  85.917711
2.461  85.950659
2.460  85.930585
2.459  85.982130
2.458  85.924492
2.457  85.960561
2.456  86.003219
2.455  86.078513
2.454  86.019093
2.453  86.134158
2.452  86.187630
2.451  86.189160
2.450  86.233064
2.449  86.319512
2.448  86.253419
2.447  86.347387
2.446  86.426423
2.445  86.453022
2.444  86.422309
2.443  86.527622
2.442  86.481404
2.441  86.502104
2.440  86.621164
2.439  86.629154
2.438  86.653547
2.437  86.703401
2.436  86.702372
2.435  86.707840
2.434  86.686711
2.433  86.832809
2.432  86.810701
2.431  86.861140
2.430  86.843447
2.429  86.852777
2.428  86.952418
2.427  86.905285
2.426  86.912279
2.425  86.897878
2.424  86.799219
2.423  86.833280
2.422  86.934808
2.421  86.912316
2.420  86.862781
2.419  86.809571
2.418  86.884197
2.417  86.903080
2.416  86.888115
2.415  86.849953
2.414  86.822453
2.413  86.896487
2.412  86.840517
2.411  86.812419
2.410  86.859663
2.409  86.895048
2.408  86.863658
2.407  86.854153
2.406  86.899267
2.405  86.868440
2.404  86.885929
2.403  86.898532
2.402  86.903947
2.401  86.908726
2.400  86.950309
2.399  87.033788
2.398  87.017397
2.397  87.068875
2.396  87.108294
2.395  87.217078
2.394  87.232249
2.393  87.221262
2.392  87.185153
2.391  87.236608
2.390  87.252393
2.389  87.269495
2.388  87.325992
2.387  87.436976
2.386  87.439621
2.385  87.409474
2.384  87.472139
2.383  87.575326
2.382  87.620320
2.381  87.624630
2.380  87.667986
2.379  87.644810
2.378  87.726184
2.377  87.869876
2.376  87.892364
2.375  87.927691
2.374  87.970048
2.373  88.004187
2.372  88.062753
2.371  88.085415
2.370  88.079022
2.369  88.127409
2.368  88.176817
2.367  88.240238
2.366  88.283982
2.365  88.313896
2.364  88.424445
2.363  88.509547
2.362  88.487625
2.361  88.538152
2.360  88.580379
2.359  88.598898
2.358  88.578917
2.357  88.619604
2.356  88.715519
2.355  88.720762
2.354  88.743191
2.353  88.758915
2.352  88.826048
2.351  88.893704
2.350  88.888305
2.349  88.951492
2.348  89.026684
2.347  89.042545
2.346  89.032359
2.345  89.112380
2.344  89.208326
2.343  89.295314
2.342  89.266421
2.341  89.288718
2.340  89.354333
2.339  89.345929
2.338  89.370513
2.337  89.416349
2.336  89.501667
2.335  89.568254
2.334  89.631790
2.333  89.719357
2.332  89.696982
2.331  89.716626
2.330  89.794500
2.329  89.848463
2.328  89.851894
2.327  89.868712
2.326  89.854660
2.325  89.912393
2.324  89.994152
2.323  89.964912
2.322  89.990939
2.321  90.034839
2.320  90.040914
2.319  90.032349
2.318  90.019283
2.317  90.069573
2.316  90.121995
2.315  90.130387
2.314  90.158440
2.313  90.166788
2.312  90.294168
2.311  90.274347
2.310  90.207339
2.309  90.152468
2.308  90.209681
2.307  90.262607
2.306  90.177553
2.305  90.200119
2.304  90.230107
2.303  90.282498
2.302  90.303808
2.301  90.343407
2.300  90.260957
2.299  90.339756
2.298  90.374045
2.297  90.333563
2.296  90.268470
2.295  90.359711
2.294  90.341005
2.293  90.312063
2.292  90.307136
2.291  90.303417
2.290  90.325574
2.289  90.371297
2.288  90.415880
2.287  90.341997
2.286  90.396757
2.285  90.429459
2.284  90.403560
2.283  90.379768
2.282  90.420597
2.281  90.424554
2.280  90.416224
2.279  90.413546
2.278  90.472066
2.277  90.483996
2.276  90.510106
2.275  90.472332
2.274  90.415949
2.273  90.534890
2.272  90.591400
2.271  90.473545
2.270  90.421947
2.269  90.459184
2.268  90.557870
2.267  90.459735
2.266  90.505215
2.265  90.478547
2.264  90.525265
2.263  90.501586
2.262  90.495869
2.261  90.508856
2.260  90.425080
2.259  90.420905
2.258  90.531186
2.257  90.426996
2.256  90.332786
2.255  90.417629
2.254  90.480135
2.253  90.448365
2.252  90.596882
2.251  90.405893
2.250  90.297207
2.249  90.359311
2.248  90.375992
2.247  90.360337
2.246  90.359937
2.245  90.243179
2.244  90.421946
2.243  90.277029
2.242  90.408046
2.241  90.349576
2.240  90.249828
2.239  90.233288
2.238  90.279249
2.237  90.310018
2.236  90.259954
2.235  90.277660
2.234  90.373037
2.233  90.360778
2.232  90.383583
2.231  90.489368
2.230  90.461624
2.229  90.468052
2.228  90.417290
2.227  90.418015
2.226  90.357022
2.225  90.383864
2.224  90.431530
2.223  90.511743
2.222  90.579732
2.221  90.518086
2.220  90.525674
2.219  90.582685
2.218  90.562157
2.217  90.626740
2.216  90.695152
2.215  90.619708
2.214  90.722278
2.213  90.659982
2.212  90.785024
2.211  90.747191
2.210  90.789768
2.209  90.850301
2.208  90.835284
2.207  90.836462
2.206  90.839751
2.205  90.877982
2.204  90.972910
2.203  91.006536
2.202  90.981654
2.201  90.996789
2.200  91.029675
2.199  91.035712
2.198  91.034203
2.197  91.068898
2.196  91.101142
2.195  91.039535
2.194  91.177910
2.193  91.078419
2.192  91.082375
2.191  91.113904
2.190  91.089815
2.189  91.144300
2.188  91.024704
2.187  91.144323
2.186  91.123511
2.185  91.196190
2.184  91.187485
2.183  91.200272
2.182  91.220778
2.181  91.312139
2.180  91.263876
2.179  91.314571
2.178  91.304649
2.177  91.327963
2.176  91.372864
2.175  91.347408
2.174  91.362340
2.173  91.441995
2.172  91.475231
2.171  91.475238
2.170  91.501329
2.169  91.594900
2.168  91.541332
2.167  91.733554
2.166  91.653227
2.165  91.681865
2.164  91.865669
2.163  91.892752
2.162  91.889516
2.161  91.883105
2.160  91.917688
2.159  92.015276
2.158  92.038262
2.157  92.047920
2.156  92.059367
2.155  92.104480
2.154  92.146082
2.153  92.061591
2.152  92.142367
2.151  92.114209
2.150  92.095739
2.149  92.181216
2.148  92.183335
2.147  92.279402
2.146  92.235417
2.145  92.189840
2.144  92.213458
2.143  92.166459
2.142  92.255217
2.141  92.240411
2.140  92.213568
2.139  92.218621
2.138  92.182635
2.137  92.245252
2.136  92.204150
2.135  92.200039
2.134  92.163841
2.133  92.120811
2.132  92.074600
2.131  92.091620
2.130  92.061754
2.129  92.030836
2.128  92.026674
2.127  91.970212
2.126  91.902462
2.125  91.860973
2.124  91.845333
2.123  91.746176
2.122  91.666053
2.121  91.625128
2.120  91.593904
2.119  91.517117
2.118  91.497078
2.117  91.472339
2.116  91.465017
2.115  91.399924
2.114  91.302053
2.113  91.203837
2.112  91.138657
2.111  91.108845
2.110  91.038957
2.109  91.001067
2.108  90.972186
2.107  90.931989
2.106  90.888202
2.105  90.884913
2.104  90.812797
2.103  90.698496
2.102  90.682150
2.101  90.713136
2.100  90.610679
2.099  90.588583
2.098  90.622861
2.097  90.632756
2.096  90.642893
2.095  90.609208
2.094  90.607523
2.093  90.658543
2.092  90.687284
2.091  90.711561
2.090  90.640200
2.089  90.639690
2.088  90.685520
2.087  90.656022
2.086  90.733403
2.085  90.798539
2.084  90.686329
2.083  90.718522
2.082  90.733621
2.081  90.733973
2.080  90.783547
2.079  90.777141
2.078  90.786487
2.077  90.739673
2.076  90.717151
2.075  90.824929
2.074  90.852030
2.073  90.836926
2.072  90.876907
2.071  90.781938
2.070  90.727390
2.069  90.851420
2.068  90.903579
2.067  90.905099
2.066  90.883457
2.065  90.899984
2.064  90.903152
2.063  90.885293
2.062  90.915704
2.061  90.916368
2.060  90.947042
2.059  90.952095
2.058  90.951399
2.057  90.986836
2.056  91.005233
2.055  91.079242
2.054  91.047838
2.053  91.092471
2.052  91.139782
2.051  91.061118
2.050  91.100124
2.049  91.093391
2.048  91.108616
2.047  91.083086
2.046  91.108511
2.045  91.186024
2.044  91.172178
2.043  91.157009
2.042  91.123194
2.041  91.191378
2.040  91.202684
2.039  91.219056
2.038  91.178979
2.037  91.213248
2.036  91.225177
2.035  91.207023
2.034  91.155516
2.033  91.136016
2.032  91.182066
2.031  91.196528
2.030  91.222605
2.029  91.227521
2.028  91.208271
2.027  91.222543
2.026  91.225478
2.025  91.254881
2.024  91.213632
2.023  91.202351
2.022  91.149265
2.021  91.195512
2.020  91.197617
2.019  91.186735
2.018  91.105524
2.017  91.195764
2.016  91.153034
2.015  91.120658
2.014  91.156671
2.013  91.250938
2.012  91.221635
2.011  91.208099
2.010  91.157549
2.009  91.091488
2.008  91.129067
2.007  91.182292
2.006  91.158055
2.005  91.208878
2.004  91.199499
2.003  91.126769
2.002  91.181788
2.001  91.164214
2.000  91.078335
1.999  91.096184
1.998  91.172728
1.997  91.078780
1.996  91.064790
1.995  91.037756
1.994  90.961658
1.993  90.933022
1.992  91.026467
1.991  90.977937
1.990  90.927087
1.989  90.915608
1.988  90.809515
1.987  90.796196
1.986  90.812026
1.985  90.747777
1.984  90.715771
1.983  90.823120
1.982  90.695397
1.981  90.663120
1.980  90.683049
1.979  90.632030
1.978  90.653623
1.977  90.503915
1.976  90.525982
1.975  90.568548
1.974  90.475121
1.973  90.464249
1.972  90.436751
1.971  90.338110
1.970  90.291400
1.969  90.243284
1.968  90.189187
1.967  90.180860
1.966  90.050767
1.965  90.083107
1.964  89.927793
1.963  89.899038
1.962  89.825477
1.961  89.664565
1.960  89.625761
1.959  89.561452
1.958  89.367834
1.957  89.355256
1.956  89.303101
1.955  89.150181
1.954  89.112090
1.953  89.136794
1.952  89.000851
1.951  89.008928
1.950  89.074146
1.949  88.993636
1.948  88.972273
1.947  88.989501
1.946  89.021798
1.945  89.064183
1.944  89.008267
1.943  88.987761
1.942  88.891195
1.941  88.940700
1.940  88.793195
1.939  88.742140
1.938  88.580960
1.937  88.512393
1.936  88.277051
1.935  88.379386
1.934  88.146998
1.933  88.026187
1.932  88.000450
1.931  87.952196
1.930  87.905213
1.929  87.877519
1.928  87.964124
1.927  88.163589
1.926  88.223483
1.925  88.349964
1.924  88.483716
1.923  88.570127
1.922  88.787512
1.921  88.913561
1.920  89.064403
1.919  89.179478
1.918  89.299004
1.917  89.412908
1.916  89.521893
1.915  89.701487
1.914  89.762066
1.913  89.868296
1.912  89.912877
1.911  90.013240
1.910  90.051016
1.909  90.240136
1.908  90.254120
1.907  90.294283
1.906  90.402916
1.905  90.461504
1.904  90.537512
1.903  90.611125
1.902  90.793545
1.901  90.845107
1.900  90.917256
1.899  90.810524
1.898  90.924822
1.897  91.089798
1.896  91.194286
1.895  91.270248
1.894  91.253929
1.893  91.325979
1.892  91.478377
1.891  91.499127
1.890  91.584993
1.889  91.537987
1.888  91.692849
1.887  91.682196
1.886  91.758902
1.885  91.809360
1.884  91.816807
1.883  91.855143
1.882  91.904358
1.881  91.952572
1.880  91.932099
1.879  91.941191
1.878  91.992600
1.877  92.136182
1.876  92.022775
1.875  92.050889
1.874  92.127605
1.873  92.099895
1.872  92.177086
1.871  92.227293
1.870  92.250012
1.869  92.231820
1.868  92.318328
1.867  92.419777
1.866  92.389729
1.865  92.348083
1.864  92.332814
1.863  92.378393
1.862  92.388965
1.861  92.449967
1.860  92.445991
1.859  92.451846
1.858  92.422326
1.857  92.455049
1.856  92.478116
1.855  92.572558
1.854  92.500955
1.853  92.572756
1.852  92.555705
1.851  92.539522
1.850  92.526402
1.849  92.494880
1.848  92.553046
1.847  92.566947
1.846  92.549263
1.845  92.550811
1.844  92.596963
1.843  92.608002
1.842  92.577504
1.841  92.599439
1.840  92.560403
1.839  92.594285
1.838  92.602004
1.837  92.624023
1.836  92.593256
1.835  92.598385
1.834  92.627480
1.833  92.636127
1.832  92.670745
1.831  92.658311
1.830  92.636433
1.829  92.567435
1.828  92.593930
1.827  92.616849
1.826  92.640617
1.825  92.603825
1.824  92.664172
1.823  92.675094
1.822  92.673745
1.821  92.662366
1.820  92.682724
1.819  92.675272
1.818  92.625442
1.817  92.614065
1.816  92.651690
1.815  92.673137
1.814  92.642101
1.813  92.654637
1.812  92.699964
1.811  92.730739
1.810  92.719066
1.809  92.685767
1.808  92.701412
1.807  92.686693
1.806  92.712353
1.805  92.715413
1.804  92.740041
1.803  92.758731
1.802  92.731575
1.801  92.776189
1.800  92.798496
1.799  92.801360
1.798  92.785899
1.797  92.706516
1.796  92.731175
1.795  92.769480
1.794  92.682273
1.793  92.649543
1.792  92.710096
1.791  92.761736
1.790  92.733874
1.789  92.725035
1.788  92.744251
1.787  92.697180
1.786  92.641000
1.785  92.624896
1.784  92.624983
1.783  92.648967
1.782  92.664814
1.781  92.684041
1.780  92.749797
1.779  92.738381
1.778  92.716757
1.777  92.698370
1.776  92.670427
1.775  92.684009
1.774  92.733977
1.773  92.707354
1.772  92.666471
1.771  92.683559
1.770  92.676191
1.769  92.673838
1.768  92.690303
1.767  92.695469
1.766  92.650289
1.765  92.662123
1.764  92.735156
1.763  92.653356
1.762  92.607869
1.761  92.619788
1.760  92.661065
1.759  92.668677
1.758  92.675402
1.757  92.673883
1.756  92.626443
1.755  92.657650
1.754  92.660871
1.753  92.631463
1.752  92.681399
1.751  92.720478
1.750  92.775805
1.749  92.736113
1.748  92.755316
1.747  92.789689
1.746  92.798104
1.745  92.743165
1.744  92.742400
1.743  92.809105
1.742  92.839776
1.741  92.843342
1.740  92.776169
1.739  92.757263
1.738  92.825610
1.737  92.797526
1.736  92.827095
1.735  92.854519
1.734  92.856668
1.733  92.873187
1.732  92.828906
1.731  92.924854
1.730  92.868205
1.729  92.837094
1.728  92.854079
1.727  92.819839
1.726  92.891237
1.725  92.915413
1.724  92.869070
1.723  92.866508
1.722  92.882205
1.721  92.920460
1.720  92.914668
1.719  92.938634
1.718  92.875131
1.717  92.878684
1.716  92.926747
1.715  92.918907
1.714  92.896767
1.713  92.877198
1.712  92.893780
1.711  92.817085
1.710  92.859281
1.709  92.864426
1.708  92.912684
1.707  92.880658
1.706  92.866653
1.705  92.867967
1.704  92.859173
1.703  92.862754
1.702  92.862745
1.701  92.893064
1.700  92.906666
1.699  92.936506
1.698  92.932691
1.697  92.924767
1.696  92.892484
1.695  92.938227
1.694  92.963072
1.693  92.824751
1.692  92.817320
1.691  92.883528
1.690  92.885306
1.689  92.834892
1.688  92.798138
1.687  92.856879
1.686  92.919825
1.685  92.875762
1.684  92.923751
1.683  92.884216
1.682  92.874838
1.681  92.884218
1.680  92.827319
1.679  92.822463
1.678  92.818922
1.677  92.808188
1.676  92.978242
1.675  92.932341
1.674  92.894816
1.673  92.829289
1.672  92.864884
1.671  92.915474
1.670  92.809647
1.669  92.904111
1.668  92.927565
1.667  92.953402
1.666  92.923251
1.665  92.788856
1.664  92.886762
1.663  92.938926
1.662  92.843317
1.661  92.850264
1.660  92.944480
1.659  92.837696
1.658  92.917697
1.657  92.859671
1.656  92.852261
1.655  92.804914
1.654  92.874367
1.653  92.879206
1.652  92.971897
1.651  92.915332
1.650  92.900062
1.649  92.951279
1.648  92.838711
1.647  92.906192
1.646  92.929713
1.645  92.881065
1.644  92.942315
1.643  92.943689
1.642  93.011394
1.641  92.768141
1.640  92.966177
1.639  92.909936
1.638  92.927567
1.637  93.000505
1.636  92.898733
1.635  92.861868
1.634  92.989118
1.633  92.892874
1.632  92.906187
1.631  92.919279
1.630  92.852817
1.629  92.786190
1.628  92.981092
1.627  92.865284
1.626  92.973584
1.625  92.924693
1.624  92.951624
1.623  92.901588
1.622  93.004172
1.621  92.904060
1.620  92.896624
1.619  92.981419
1.618  92.882489
1.617  92.970786
1.616  92.969529
1.615  92.936985
1.614  92.893280
1.613  92.890858
1.612  92.962053
1.611  92.944379
1.610  92.940410
1.609  92.942615
1.608  92.982266
1.607  92.993256
1.606  93.015626
1.605  92.981653
1.604  92.954095
1.603  92.900580
1.602  92.956641
1.601  93.028426
1.600  92.990448
1.599  92.842189
1.598  92.886477
1.597  92.904414
1.596  92.954640
1.595  92.937382
1.594  92.925038
1.593  92.909801
1.592  92.894940
1.591  92.920311
1.590  92.934961
1.589  92.907040
1.588  92.902754
1.587  92.946126
1.586  92.928973
1.585  92.960115
1.584  92.891203
1.583  92.946659
1.582  92.985167
1.581  92.924510
1.580  92.925585
1.579  92.876792
1.578  92.855955
1.577  92.894202
1.576  92.973081
1.575  92.874537
1.574  92.885163
1.573  92.923155
1.572  92.998545
1.571  92.945344
1.570  92.855352
1.569  92.898793
1.568  92.886240
1.567  92.860845
1.566  92.836919
1.565  92.889882
1.564  92.900144
1.563  92.870139
1.562  92.863185
1.561  92.860744
1.560  92.811279
1.559  92.825537
1.558  92.833401
1.557  92.826106
1.556  92.862141
1.555  92.893929
1.554  92.790773
1.553  92.809444
1.552  92.889628
1.551  92.871166
1.550  92.791453
1.549  92.757670
1.548  92.781426
1.547  92.831190
1.546  92.913844
1.545  92.814634
1.544  92.755872
1.543  92.744527
1.542  92.739391
1.541  92.805073
1.540  92.778356
1.539  92.772230
1.538  92.748125
1.537  92.746918
1.536  92.759518
1.535  92.740152
1.534  92.720613
1.533  92.716258
1.532  92.720901
1.531  92.713495
1.530  92.687668
1.529  92.716496
1.528  92.670899
1.527  92.710132
1.526  92.740808
1.525  92.676980
1.524  92.691651
1.523  92.686889
1.522  92.632368
1.521  92.622664
1.520  92.693837
1.519  92.695815
1.518  92.677604
1.517  92.718701
1.516  92.709856
1.515  92.660386
1.514  92.673644
1.513  92.628829
1.512  92.615537
1.511  92.638063
1.510  92.629674
1.509  92.608814
1.508  92.625287
1.507  92.628723
1.506  92.604894
1.505  92.616332
1.504  92.543915
1.503  92.472107
1.502  92.514941
1.501  92.523867
1.500  92.477166
1.499  92.490691
1.498  92.503626
1.497  92.519470
1.496  92.552663
1.495  92.563589
1.494  92.502001
1.493  92.522125
1.492  92.509963
1.491  92.478567
1.490  92.454917
1.489  92.428665
1.488  92.480629
1.487  92.469404
1.486  92.518229
1.485  92.461247
1.484  92.366836
1.483  92.396103
1.482  92.398575
1.481  92.410444
1.480  92.349103
1.479  92.354880
1.478  92.424100
1.477  92.433380
1.476  92.374581
1.475  92.345879
1.474  92.310288
1.473  92.258713
1.472  92.235078
1.471  92.264108
1.470  92.256183
1.469  92.232670
1.468  92.251552
1.467  92.207609
1.466  92.190128
1.465  92.186509
1.464  92.186649
1.463  92.149825
1.462  92.109218
1.461  92.005967
1.460  92.039328
1.459  91.972499
1.458  92.043763
1.457  92.018201
1.456  91.934711
1.455  91.960628
1.454  92.041640
1.453  92.031406
1.452  92.079973
1.451  92.102368
1.450  92.079001
1.449  92.108045
1.448  92.239564
1.447  92.282219
1.446  92.192473
1.445  92.167761
1.444  92.217830
1.443  92.267120
1.442  92.273185
1.441  92.304775
1.440  92.201732
1.439  92.226101
1.438  92.270750
1.437  92.242249
1.436  92.290182
1.435  92.203313
1.434  92.226457
1.433  92.231392
1.432  92.275865
1.431  92.206326
1.430  92.129081
1.429  92.202461
1.428  92.282584
1.427  92.259162
1.426  92.257175
1.425  92.304558
1.424  92.394455
1.423  92.310698
1.422  92.365411
1.421  92.361474
1.420  92.381577
1.419  92.377055
1.418  92.411650
1.417  92.462710
