Name: Epidote Ca_2(Al,Fe^3+)_3O.SiO_4.Si_2O_7.OH
Type: Mineral
Class: Silicates
Subclass: Sorosilicate
Particle Size: 45-125um
Sample No.: SS-1C
Owner: JPL
Wavelength range: IR
Origin: USA, Colorado
Collected by Ward's
Description: 





Measurement: Hemispherical reflectance
First Column: X
Second Column: Y
X Units:  Wavelength (micrometers)
Y Units:  Reflectance (percent)
First X Value: 15.3853
Last X Value: 2.00032
Number of X Values: 2256
Additional information: ss01ca.txt
 
15.3853	8.39665
15.3397	8.24487
15.2945	7.98168
15.2495	7.8471
15.2048	7.55285
15.1603	7.33868
15.1161	7.23624
15.0722	6.80734
15.0285	6.38572
14.9851	6.28205
14.9419	5.99165
14.8989	5.44705
14.8563	5.12783
14.8138	5.06537
14.7716	4.89168
14.7296	4.70242
14.6879	4.64912
14.6464	4.66291
14.6052	4.75411
14.5641	4.77981
14.5233	4.67724
14.4828	4.69303
14.4424	4.74015
14.4023	4.45212
14.3624	4.05382
14.3227	3.79132
14.2833	3.59712
14.244	3.24166
14.205	2.84127
14.1662	2.64979
14.1276	2.50723
14.0892	2.40756
14.051	2.31887
14.0131	2.14883
13.9753	2.16727
13.9377	2.20514
13.9004	2.29072
13.8632	2.21276
13.8262	2.09999
13.7895	2.04799
13.7529	1.97301
13.7165	1.75858
13.6803	1.76524
13.6443	2.01476
13.6085	2.2246
13.5729	2.26881
13.5374	2.16461
13.5022	2.24276
13.4671	2.63117
13.4322	2.79774
13.3975	2.8051
13.363	2.83265
13.3286	2.81674
13.2944	3.02734
13.2604	3.13593
13.2266	3.26016
13.193	3.39148
13.1595	3.40767
13.1262	3.33642
13.093	3.31549
13.06	3.27515
13.0272	3.19212
12.9946	3.20367
12.9621	3.21454
12.9298	3.12857
12.8976	3.31387
12.8656	3.60345
12.8337	3.75596
12.8021	3.76986
12.7705	3.82218
12.7391	3.78965
12.7079	3.6475
12.6769	3.86258
12.6459	4.18061
12.6152	4.14375
12.5845	4.10608
12.5541	4.20179
12.5238	4.30428
12.4936	4.38681
12.4635	4.4673
12.4337	4.49428
12.4039	4.3521
12.3743	4.31887
12.3448	4.38029
12.3155	4.39244
12.2863	4.4532
12.2573	4.72935
12.2284	4.94505
12.1996	5.02144
12.171	5.08659
12.1425	5.17942
12.1141	5.36241
12.0859	5.56043
12.0578	5.7425
12.0298	5.87931
12.0019	6.06009
11.9742	6.05789
11.9466	5.95009
11.9192	5.88045
11.8918	5.98426
11.8646	5.96072
11.8375	5.89146
11.8106	5.99446
11.7837	6.15803
11.757	6.2299
11.7304	6.40154
11.7039	6.76265
11.6776	7.03014
11.6513	7.26298
11.6252	7.38829
11.5992	7.22805
11.5733	7.01667
11.5475	7.0794
11.5219	7.26135
11.4963	7.42407
11.4709	7.97408
11.4455	8.62607
11.4203	9.14251
11.3952	9.73029
11.3702	10.3712
11.3454	10.8424
11.3206	11.1427
11.2959	11.2662
11.2714	11.3164
11.2469	11.3429
11.2226	11.0769
11.1983	10.693
11.1742	10.3854
11.1502	10.1357
11.1263	10.0281
11.1024	9.79694
11.0787	9.55544
11.0551	9.32914
11.0316	9.12887
11.0081	8.91193
10.9848	8.69646
10.9616	8.55297
10.9385	8.39591
10.9154	8.25299
10.8925	7.94932
10.8697	7.62277
10.8469	7.36418
10.8243	7.14621
10.8017	7.2481
10.7793	7.59997
10.7569	8.13744
10.7346	8.67488
10.7125	9.35474
10.6904	10.0098
10.6684	10.6099
10.6465	11.3982
10.6247	12.1953
10.6029	12.9982
10.5813	13.9184
10.5597	14.9502
10.5383	15.9589
10.5169	16.6425
10.4956	17.265
10.4744	17.7469
10.4533	17.9318
10.4323	17.9879
10.4113	17.9113
10.3904	17.8898
10.3697	17.7905
10.349	17.4543
10.3284	17.1566
10.3078	16.6612
10.2874	16.1252
10.267	15.5644
10.2467	14.9283
10.2265	14.4097
10.2064	14.1204
10.1863	13.9476
10.1663	13.7386
10.1464	13.5053
10.1266	13.2314
10.1069	12.835
10.0872	12.3478
10.0676	11.6456
10.0481	10.8882
10.0287	10.0207
10.0093	9.00806
9.99005	7.90292
9.97084	6.90754
9.95169	6.10445
9.93263	5.37693
9.91364	4.62692
9.89472	4.2056
9.87587	4.0167
9.8571	3.85424
9.83839	3.8299
9.81976	3.87305
9.80119	3.99499
9.78271	4.10217
9.76428	4.16938
9.74592	4.52844
9.72764	5.02671
9.70943	5.65067
9.69128	6.36942
9.6732	7.02169
9.65518	7.51975
9.63724	7.97047
9.61935	8.4351
9.60155	8.68862
9.5838	8.88845
9.56611	9.18332
9.5485	9.38205
9.53094	9.57414
9.51345	9.89355
9.49604	10.1699
9.47867	10.2901
9.46137	10.2938
9.44414	10.3887
9.42697	10.3849
9.40986	10.3284
9.39281	10.219
9.37583	9.89613
9.35891	9.66758
9.34204	9.60744
9.32524	9.46977
9.3085	9.51086
9.29182	9.55621
9.27519	9.46948
9.25863	9.41873
9.24213	9.28545
9.22568	9.21555
9.2093	9.3591
9.19297	9.51631
9.17669	9.50005
9.16048	9.40527
9.14433	9.19539
9.12823	9.03699
9.11218	9.02622
9.0962	9.11772
9.08027	9.12483
9.06439	9.11207
9.04858	9.24517
9.03281	9.31676
9.0171	9.46938
9.00145	9.56713
8.98585	9.54266
8.9703	9.44863
8.9548	9.43725
8.93937	9.29315
8.92398	9.01929
8.90865	8.78472
8.89337	8.56757
8.87814	8.51543
8.86296	8.48113
8.84784	8.24103
8.83277	8.07527
8.81774	7.96048
8.80277	7.71468
8.78786	7.5848
8.77298	7.4127
8.75816	7.0375
8.7434	6.62056
8.72868	6.33963
8.714	5.90487
8.69938	5.34092
8.68481	4.82775
8.67029	4.31566
8.65581	3.8511
8.64139	3.42534
8.62701	3.17004
8.61268	3.14462
8.5984	3.13494
8.58416	3.10114
8.56997	2.99954
8.55583	2.95889
8.54174	2.94966
8.52769	2.92602
8.51368	2.93148
8.49973	2.92579
8.48582	2.82192
8.47195	2.64319
8.45813	2.57756
8.44436	2.55672
8.43062	2.57237
8.41693	2.63013
8.4033	2.66408
8.3897	2.8809
8.37614	2.98433
8.36264	2.82426
8.34917	2.68817
8.33574	2.68618
8.32236	2.7988
8.30903	2.99128
8.29573	3.0638
8.28248	3.09517
8.26927	3.07748
8.2561	3.0635
8.24298	3.12611
8.2299	3.1711
8.21685	3.27405
8.20385	3.34723
8.19089	3.33251
8.17797	3.31769
8.16509	3.40143
8.15225	3.31048
8.13946	3.20583
8.1267	3.17048
8.11398	3.2055
8.10131	3.24216
8.08867	3.22498
8.07606	3.09226
8.0635	3.09832
8.05099	3.13402
8.0385	3.10542
8.02606	3.21468
8.01366	3.16512
8.00129	3.15812
7.98896	3.19182
7.97667	3.29943
7.96442	3.35934
7.9522	3.3178
7.94002	3.28619
7.92788	3.28783
7.91578	3.27651
7.90371	3.3027
7.89168	3.37171
7.87969	3.41243
7.86773	3.42911
7.85581	3.45234
7.84392	3.55546
7.83207	3.60769
7.82026	3.55316
7.80849	3.64504
7.79674	3.87142
7.78503	3.95173
7.77337	3.93669
7.76173	3.95234
7.75012	3.99452
7.73856	4.08388
7.72703	4.1737
7.71553	4.24018
7.70406	4.36176
7.69263	4.53525
7.68123	4.64214
7.66987	4.6923
7.65855	4.72513
7.64725	4.79517
7.63598	4.86581
7.62475	4.93984
7.61356	5.13458
7.60239	5.21034
7.59126	5.17159
7.58017	5.18065
7.5691	5.16638
7.55806	5.20271
7.54707	5.4283
7.5361	5.74382
7.52516	5.80264
7.51425	5.66526
7.50338	5.75215
7.49253	5.95028
7.48172	6.09444
7.47094	5.99847
7.46019	5.90022
7.44947	5.93684
7.43879	6.05392
7.42813	6.14749
7.4175	6.21127
7.4069	6.23127
7.39634	6.34201
7.3858	6.47213
7.37529	6.52956
7.36482	6.50159
7.35437	6.5206
7.34396	6.55295
7.33357	6.61786
7.32321	6.71488
7.31288	6.80881
7.30258	6.85992
7.29231	6.92427
7.28207	6.99593
7.27185	7.01822
7.26167	7.09894
7.25152	7.18953
7.24139	7.21633
7.23129	7.17802
7.22122	7.28148
7.21117	7.42876
7.20116	7.44716
7.19117	7.45318
7.18121	7.52011
7.17128	7.61206
7.16137	7.72362
7.1515	7.83801
7.14164	7.91528
7.13182	7.89778
7.12203	7.99648
7.11225	8.15348
7.10251	8.34241
7.0928	8.51758
7.08311	8.55191
7.07344	8.56919
7.06381	8.64172
7.0542	8.8119
7.04461	8.98367
7.03506	9.00179
7.02552	9.08992
7.01601	9.1636
7.00653	9.19845
6.99708	9.18288
6.98765	9.18582
6.97824	9.21692
6.96886	9.29891
6.95951	9.39385
6.95018	9.37246
6.94087	9.39006
6.9316	9.44486
6.92234	9.46646
6.91311	9.56532
6.90391	9.68145
6.89473	9.74606
6.88557	9.77626
6.87644	9.86716
6.86733	10.0894
6.85824	10.0897
6.84918	10.0364
6.84015	10.1192
6.83114	10.1791
6.82215	10.1789
6.81319	10.2277
6.80424	10.3364
6.79532	10.4668
6.78643	10.4996
6.77756	10.517
6.76871	10.538
6.75989	10.5702
6.75109	10.6399
6.74231	10.6344
6.73355	10.6197
6.72482	10.7045
6.71611	10.8472
6.70742	10.9529
6.69875	10.9574
6.69011	11.0516
6.68149	11.1459
6.67289	11.1704
6.66431	11.2671
6.65576	11.3007
6.64722	11.4309
6.63871	11.5542
6.63022	11.5177
6.62175	11.4815
6.61331	11.5429
6.60488	11.6058
6.59648	11.6044
6.5881	11.637
6.57974	11.82
6.5714	11.9849
6.56308	11.9708
6.55478	11.9676
6.54651	12.0158
6.53825	12.0182
6.53001	12.0795
6.5218	12.228
6.51361	12.3023
6.50544	12.4075
6.49729	12.6619
6.48915	12.7839
6.48104	12.7913
6.47295	12.7883
6.46488	12.7199
6.45683	12.7115
6.4488	12.8094
6.44079	12.8098
6.4328	12.7959
6.42482	12.7317
6.41687	12.8675
6.40894	12.8746
6.40103	12.699
6.39314	12.6233
6.38526	12.6273
6.37741	12.6172
6.36957	12.5156
6.36176	12.4233
6.35396	12.3158
6.34618	12.1852
6.33843	12.0379
6.33069	11.8584
6.32297	11.7033
6.31527	11.5305
6.30758	11.3675
6.29992	11.2772
6.29227	11.1758
6.28465	10.9939
6.27704	10.8379
6.26945	10.8451
6.26188	10.8451
6.25432	10.7041
6.24679	10.5816
6.23927	10.4913
6.23177	10.378
6.22429	10.3021
6.21683	10.2375
6.20938	10.2193
6.20195	10.1848
6.19454	10.1251
6.18715	10.0951
6.17978	9.9661
6.17242	9.80219
6.16508	9.66596
6.15776	9.57102
6.15045	9.55824
6.14317	9.43313
6.1359	9.2365
6.12864	9.19581
6.12141	9.22385
6.11419	9.17231
6.10699	9.03393
6.0998	8.98092
6.09263	9.00053
6.08549	8.9237
6.07835	8.98244
6.07123	9.06825
6.06413	9.05538
6.05705	9.09955
6.04998	9.18518
6.04293	9.11914
6.0359	8.8954
6.02888	8.72312
6.02187	8.6784
6.01489	8.62686
6.00792	8.48625
6.00096	8.37956
5.99403	8.31849
5.98711	8.13294
5.9802	7.87191
5.97331	7.71586
5.96644	7.66974
5.95958	7.55552
5.95274	7.44411
5.94591	7.37503
5.9391	7.44139
5.9323	7.45223
5.92552	7.42846
5.91876	7.50116
5.91201	7.54295
5.90528	7.60633
5.89856	7.82836
5.89186	7.96222
5.88517	8.10285
5.8785	8.26181
5.87184	8.29026
5.8652	8.39939
5.85857	8.47535
5.85196	8.56995
5.84536	8.63576
5.83878	8.71253
5.83221	8.88367
5.82566	9.05459
5.81912	9.12427
5.81259	9.09687
5.80608	9.13027
5.79959	9.23986
5.79311	9.25404
5.78665	9.23699
5.78019	9.25558
5.77376	9.36091
5.76734	9.52247
5.76093	9.45832
5.75453	9.25918
5.74815	9.2186
5.74179	9.26926
5.73543	9.31149
5.7291	9.35934
5.72277	9.44567
5.71646	9.50131
5.71017	9.49168
5.70389	9.36177
5.69762	9.34072
5.69136	9.45275
5.68513	9.49783
5.6789	9.51169
5.67268	9.41164
5.66648	9.35112
5.6603	9.4359
5.65413	9.51402
5.64797	9.52946
5.64182	9.48448
5.63569	9.50513
5.62957	9.58971
5.62347	9.59658
5.61737	9.61236
5.61129	9.63588
5.60522	9.57303
5.59917	9.52256
5.59313	9.51542
5.5871	9.47583
5.58109	9.47859
5.57509	9.48168
5.5691	9.6333
5.56312	9.9458
5.55716	10.2139
5.55121	10.5499
5.54528	11.0129
5.53935	11.4955
5.53344	11.8521
5.52754	12.171
5.52166	12.5402
5.51578	12.8113
5.50992	13.066
5.50407	13.3361
5.49823	13.4799
5.49241	13.7059
5.4866	13.9561
5.4808	14.1463
5.47501	14.3279
5.46923	14.5768
5.46347	14.8304
5.45772	15.0132
5.45198	15.0722
5.44625	15.1537
5.44054	15.308
5.43484	15.4901
5.42914	15.5909
5.42347	15.6626
5.4178	15.6053
5.41214	15.5413
5.4065	15.5236
5.40087	15.4347
5.39525	15.3671
5.38964	15.3164
5.38404	15.2883
5.37846	15.1854
5.37288	15.0252
5.36732	14.8827
5.36177	14.7995
5.35623	14.7443
5.35071	14.6715
5.34519	14.5797
5.33968	14.5682
5.33419	14.574
5.32871	14.5743
5.32324	14.6979
5.31778	14.8591
5.31233	14.8739
5.30689	14.905
5.30147	14.9358
5.29605	14.9324
5.29065	14.9697
5.28525	14.9699
5.27987	14.9502
5.2745	14.8786
5.26914	14.8796
5.26379	14.9319
5.25845	14.8607
5.25312	14.7844
5.24781	14.8505
5.2425	14.9501
5.23721	14.9757
5.23192	15.0222
5.22665	15.1727
5.22138	15.2793
5.21613	15.3727
5.21089	15.4131
5.20566	15.4509
5.20044	15.5732
5.19522	15.649
5.19002	15.7345
5.18483	15.9109
5.17965	16.0845
5.17448	16.3393
5.16933	16.5784
5.16418	16.7635
5.15904	16.9349
5.15391	17.037
5.14879	17.1198
5.14368	17.2574
5.13859	17.3843
5.1335	17.455
5.12842	17.5172
5.12335	17.4931
5.1183	17.4503
5.11325	17.4458
5.10821	17.4457
5.10318	17.3811
5.09817	17.2304
5.09316	17.1553
5.08816	17.1923
5.08317	17.1661
5.07819	17.0777
5.07322	17.1168
5.06826	17.2164
5.06331	17.1668
5.05837	17.1283
5.05344	17.1604
5.04852	17.1501
5.04361	17.1041
5.03871	17.0329
5.03382	17.008
5.02894	17.0314
5.02406	17.0857
5.0192	17.1294
5.01435	17.0862
5.0095	16.9921
5.00467	16.8632
4.99984	16.6875
4.99502	16.5181
4.99021	16.3247
4.98542	16.0448
4.98063	15.7832
4.97585	15.5204
4.97108	15.3004
4.96632	15.1555
4.96156	14.9921
4.95682	14.8971
4.95209	14.8939
4.94736	14.8851
4.94264	14.9688
4.93794	15.0676
4.93324	15.1198
4.92855	15.2526
4.92387	15.4643
4.9192	15.5929
4.91453	15.6245
4.90988	15.6995
4.90524	15.8588
4.9006	16.0259
4.89597	16.1328
4.89135	16.1737
4.88674	16.2267
4.88214	16.3034
4.87755	16.5275
4.87296	16.9095
4.86839	17.2865
4.86382	17.6367
4.85926	18.0429
4.85471	18.5528
4.85017	18.9753
4.84564	19.2927
4.84111	19.5639
4.8366	19.7652
4.83209	19.965
4.82759	20.1491
4.8231	20.2954
4.81862	20.4575
4.81415	20.5872
4.80968	20.7388
4.80522	20.9725
4.80077	21.2528
4.79633	21.5502
4.7919	21.8721
4.78747	22.2919
4.78306	22.8472
4.77865	23.4222
4.77425	23.9618
4.76986	24.5466
4.76547	25.1717
4.7611	25.8221
4.75673	26.4113
4.75237	26.8813
4.74802	27.2945
4.74367	27.6484
4.73934	28.0439
4.73501	28.3812
4.73069	28.6279
4.72638	28.818
4.72207	28.8816
4.71777	28.8612
4.71348	28.8467
4.7092	28.8172
4.70493	28.8073
4.70066	28.7546
4.69641	28.7392
4.69216	28.7876
4.68791	28.9177
4.68368	29.0629
4.67945	29.0944
4.67523	29.1912
4.67102	29.3913
4.66682	29.4908
4.66262	29.6335
4.65843	29.7646
4.65425	29.811
4.65007	29.8437
4.64591	29.9436
4.64175	29.9944
4.6376	30.0197
4.63345	30.0485
4.62932	29.9903
4.62519	29.9656
4.62106	30.0124
4.61695	30.0351
4.61284	30.1516
4.60874	30.2987
4.60465	30.4778
4.60056	30.6535
4.59648	31.0401
4.59241	31.4858
4.58835	31.9061
4.58429	32.4178
4.58024	32.9674
4.5762	33.531
4.57216	34.1071
4.56814	34.6598
4.56411	35.2507
4.5601	35.7465
4.55609	36.2251
4.55209	36.6994
4.5481	37.2145
4.54411	37.7204
4.54013	38.2193
4.53616	38.6828
4.5322	39.0347
4.52824	39.4032
4.52429	39.7591
4.52034	40.1662
4.51641	40.5834
4.51247	40.9251
4.50855	41.256
4.50463	41.6163
4.50072	41.9695
4.49682	42.3831
4.49292	42.7725
4.48903	43.069
4.48515	43.3896
4.48127	43.7718
4.4774	44.1709
4.47354	44.4619
4.46968	44.7187
4.46584	44.9399
4.46199	45.247
4.45815	45.5128
4.45432	45.7918
4.4505	46.0946
4.44668	46.3567
4.44287	46.5577
4.43907	46.7526
4.43527	46.9768
4.43148	47.235
4.4277	47.4323
4.42392	47.5732
4.42015	47.7624
4.41638	47.95
4.41262	48.0826
4.40887	48.2667
4.40513	48.3899
4.40139	48.4956
4.39765	48.6572
4.39393	48.8848
4.39021	49.1141
4.38649	49.2893
4.38278	49.3845
4.37908	49.515
4.37539	49.6572
4.3717	49.7649
4.36801	49.9375
4.36434	50.1247
4.36067	50.2607
4.357	50.3563
4.35335	50.3518
4.34969	50.4283
4.34605	50.5633
4.34241	50.6585
4.33877	50.7593
4.33514	50.8304
4.33152	50.9782
4.32791	51.1233
4.3243	51.2104
4.32069	51.2362
4.3171	51.2977
4.31351	51.3704
4.30992	51.4173
4.30634	51.4664
4.30277	51.6109
4.2992	51.7348
4.29564	51.7644
4.29208	51.8478
4.28853	51.9697
4.28499	52.0538
4.28145	52.1038
4.27792	52.1373
4.27439	52.2126
4.27087	52.3222
4.26735	52.3488
4.26384	52.3627
4.26034	52.3513
4.25684	52.2951
4.25335	52.4408
4.24986	52.6364
4.24638	52.8037
4.24291	52.844
4.23944	52.8732
4.23598	52.9912
4.23252	53.0271
4.22906	53.0818
4.22562	53.1273
4.22218	53.1339
4.21874	53.1745
4.21531	53.2414
4.21189	53.2306
4.20847	53.2581
4.20506	53.3127
4.20165	53.3037
4.19825	53.3527
4.19485	53.4676
4.19146	53.5357
4.18807	53.6471
4.18469	53.7876
4.18132	53.8767
4.17795	53.927
4.17458	53.9746
4.17123	53.9898
4.16787	54.0992
4.16453	54.1703
4.16118	54.1843
4.15785	54.2108
4.15451	54.2467
4.15119	54.3611
4.14787	54.4377
4.14455	54.4314
4.14124	54.4005
4.13794	54.4144
4.13464	54.3827
4.13134	54.3286
4.12805	54.3102
4.12477	54.3255
4.12149	54.4067
4.11822	54.4329
4.11495	54.3923
4.11168	54.3594
4.10843	54.283
4.10517	54.2607
4.10192	54.3548
4.09868	54.3258
4.09545	54.1878
4.09221	54.073
4.08899	54.0057
4.08576	53.9191
4.08255	53.7967
4.07933	53.6657
4.07613	53.5836
4.07292	53.49
4.06973	53.3415
4.06654	53.2177
4.06335	53.0606
4.06017	52.8321
4.05699	52.6316
4.05382	52.4248
4.05065	52.1657
4.04749	51.8077
4.04433	51.3275
4.04118	50.7666
4.03803	50.1495
4.03489	49.5873
4.03175	49.0771
4.02862	48.573
4.02549	47.9927
4.02237	47.4531
4.01925	46.9883
4.01614	46.4757
4.01303	45.9484
4.00993	45.3272
4.00683	44.6637
4.00373	44.0444
4.00064	43.4389
3.99756	42.8505
3.99448	42.3437
3.9914	41.903
3.98833	41.5979
3.98527	41.4958
3.98221	41.502
3.97915	41.5301
3.9761	41.5857
3.97305	41.7941
3.97001	42.0392
3.96697	42.2501
3.96394	42.4479
3.96091	42.7647
3.95789	43.2003
3.95487	43.6591
3.95186	44.1932
3.94885	44.7271
3.94584	45.2296
3.94284	45.7052
3.93984	46.2543
3.93685	46.7263
3.93386	47.0043
3.93088	47.1899
3.9279	47.378
3.92493	47.501
3.92196	47.6708
3.919	47.8751
3.91604	48.0513
3.91308	48.1838
3.91013	48.2492
3.90718	48.2813
3.90424	48.3552
3.9013	48.5016
3.89837	48.5423
3.89544	48.5732
3.89252	48.6096
3.8896	48.6187
3.88668	48.6713
3.88377	48.7247
3.88086	48.8012
3.87796	48.8164
3.87506	48.8709
3.87217	48.9462
3.86928	48.978
3.86639	48.9872
3.86351	49.0149
3.86064	49.0346
3.85776	49.037
3.8549	49.0817
3.85203	49.1643
3.84917	49.258
3.84631	49.2798
3.84346	49.3422
3.84062	49.5281
3.83777	49.6484
3.83494	49.87
3.8321	50.2001
3.82927	50.5132
3.82644	50.7939
3.82362	51.1373
3.82081	51.3916
3.81799	51.7075
3.81518	52.046
3.81238	52.2901
3.80958	52.5776
3.80678	52.9727
3.80399	53.3283
3.8012	53.6721
3.79841	53.947
3.79563	54.2076
3.79286	54.495
3.79008	54.8164
3.78731	55.0029
3.78455	55.0458
3.78179	55.1189
3.77903	55.1632
3.77628	55.2197
3.77353	55.2523
3.77079	55.2352
3.76805	55.2686
3.76531	55.2969
3.76258	55.2264
3.75985	55.1669
3.75713	55.1176
3.7544	55.0511
3.75169	54.9611
3.74898	54.7976
3.74627	54.6778
3.74356	54.6584
3.74086	54.6508
3.73816	54.5622
3.73547	54.5141
3.73278	54.4438
3.7301	54.3148
3.72741	54.2036
3.72474	54.1135
3.72206	54.0356
3.71939	53.9337
3.71673	53.8875
3.71406	53.8616
3.71141	53.821
3.70875	53.7479
3.7061	53.6034
3.70345	53.5371
3.70081	53.5055
3.69817	53.4047
3.69553	53.2955
3.6929	53.2393
3.69027	53.22
3.68765	53.2341
3.68503	53.1523
3.68241	53.0372
3.6798	53.0097
3.67719	53.0572
3.67458	53.0578
3.67198	53.0399
3.66938	53.0795
3.66678	53.0309
3.66419	52.9377
3.66161	52.919
3.65902	52.9525
3.65644	52.9537
3.65387	52.8677
3.65129	52.7941
3.64872	52.7865
3.64616	52.8082
3.64359	52.7291
3.64103	52.5972
3.63848	52.5378
3.63593	52.4707
3.63338	52.3486
3.63084	52.3056
3.6283	52.2981
3.62576	52.1822
3.62322	52.0388
3.62069	51.962
3.61817	51.8762
3.61564	51.8043
3.61312	51.6865
3.61061	51.568
3.6081	51.4843
3.60559	51.3681
3.60308	51.2621
3.60058	51.1104
3.59808	50.9751
3.59558	50.8308
3.59309	50.7172
3.59061	50.6348
3.58812	50.473
3.58564	50.26
3.58316	50.0961
3.58069	49.9207
3.57822	49.715
3.57575	49.5307
3.57328	49.3748
3.57082	49.2429
3.56836	49.189
3.56591	49.1407
3.56346	49.0243
3.56101	48.8378
3.55857	48.6824
3.55613	48.5024
3.55369	48.2438
3.55126	48.0592
3.54883	47.9307
3.5464	47.7372
3.54397	47.5356
3.54155	47.2142
3.53914	46.8566
3.53672	46.5705
3.53431	46.2574
3.5319	45.8589
3.5295	45.4784
3.5271	45.0271
3.5247	44.5055
3.52231	43.962
3.51991	43.4023
3.51753	42.8889
3.51514	42.4928
3.51276	42.1339
3.51038	41.8471
3.50801	41.5595
3.50563	41.2077
3.50327	40.8068
3.5009	40.4924
3.49854	40.2793
3.49618	40.0158
3.49382	39.7498
3.49147	39.5457
3.48912	39.287
3.48677	38.9655
3.48443	38.7142
3.48209	38.4856
3.47975	38.3043
3.47742	38.1109
3.47509	38.0305
3.47276	38.0859
3.47044	38.2916
3.46812	38.5316
