Name: Gypsum CaSO_4.2H_2O
Type: Mineral
Class: Sulfates
Subclass: 
Particle Size: 0-45um
Sample No.: SO-2B
Owner: JPL
Wavelength range: IR
Origin: USA, Utah
Collected by Ward's
Description: 





Measurement: Hemispherical reflectance
First Column: X
Second Column: Y
X Units:  Wavelength (micrometers)
Y Units:  Reflectance (percent)
First X Value: 15.3853
Last X Value: 2.00032
Number of X Values: 2256
Additional information: so02ba.txt
 
15.3853	1.81
15.3397	2.08288
15.2945	2.10813
15.2495	2.14051
15.2048	2.20508
15.1603	2.35806
15.1161	2.57494
15.0722	2.74183
15.0285	2.68713
14.9851	2.74297
14.9419	3.00006
14.8989	3.0894
14.8563	3.19956
14.8138	3.26391
14.7716	3.53194
14.7296	3.54255
14.6879	3.28785
14.6464	3.24279
14.6052	3.21463
14.5641	2.95784
14.5233	2.63142
14.4828	2.64362
14.4424	2.34806
14.4023	2.14144
14.3624	2.16024
14.3227	1.86395
14.2833	1.90764
14.244	2.11207
14.205	1.93785
14.1662	2.00006
14.1276	2.27206
14.0892	2.38156
14.051	2.31238
14.0131	2.32893
13.9753	2.50019
13.9377	2.60482
13.9004	2.69068
13.8632	2.85469
13.8262	2.91858
13.7895	2.80624
13.7529	2.73658
13.7165	2.72295
13.6803	3.0686
13.6443	3.25479
13.6085	3.32452
13.5729	3.39931
13.5374	3.17179
13.5022	3.17396
13.4671	3.29596
13.4322	3.33757
13.3975	3.47738
13.363	3.66365
13.3286	3.67968
13.2944	3.76552
13.2604	3.91695
13.2266	4.02828
13.193	4.18675
13.1595	4.22539
13.1262	4.30795
13.093	4.23206
13.06	4.05549
13.0272	4.05014
12.9946	4.20875
12.9621	4.31179
12.9298	4.42974
12.8976	4.56714
12.8656	4.61599
12.8337	4.50864
12.8021	4.42156
12.7705	4.48478
12.7391	4.64888
12.7079	4.6315
12.6769	4.54665
12.6459	4.61547
12.6152	4.58433
12.5845	4.73375
12.5541	4.95281
12.5238	4.90594
12.4936	4.73019
12.4635	4.63832
12.4337	4.61787
12.4039	4.75136
12.3743	4.83742
12.3448	4.86973
12.3155	4.83837
12.2863	4.85793
12.2573	4.90296
12.2284	4.96562
12.1996	5.01911
12.171	5.0243
12.1425	5.06083
12.1141	5.04437
12.0859	4.98213
12.0578	5.0287
12.0298	5.1982
12.0019	5.1246
11.9742	5.00946
11.9466	5.05991
11.9192	5.10561
11.8918	5.03417
11.8646	4.97185
11.8375	5.02168
11.8106	4.95515
11.7837	5.02284
11.757	5.21989
11.7304	5.17535
11.7039	5.11491
11.6776	5.07784
11.6513	5.05523
11.6252	5.04532
11.5992	5.03015
11.5733	5.014
11.5475	5.08182
11.5219	5.0672
11.4963	4.89758
11.4709	4.91762
11.4455	5.01865
11.4203	5.04572
11.3952	5.06931
11.3702	5.04021
11.3454	4.9715
11.3206	4.9374
11.2959	5.03109
11.2714	5.07712
11.2469	5.075
11.2226	5.11564
11.1983	4.942
11.1742	4.76533
11.1502	4.88488
11.1263	4.98346
11.1024	4.88474
11.0787	4.86027
11.0551	4.91368
11.0316	4.96181
11.0081	5.01332
10.9848	5.01574
10.9616	4.9846
10.9385	4.95423
10.9154	4.93041
10.8925	5.02589
10.8697	4.92327
10.8469	4.74926
10.8243	4.73731
10.8017	4.91438
10.7793	5.09393
10.7569	5.07952
10.7346	4.87674
10.7125	4.69816
10.6904	4.81696
10.6684	4.85153
10.6465	4.7937
10.6247	4.86286
10.6029	4.8899
10.5813	4.90352
10.5597	4.78869
10.5383	4.61394
10.5169	4.61778
10.4956	4.78541
10.4744	4.87022
10.4533	4.86048
10.4323	4.88776
10.4113	4.85748
10.3904	4.76149
10.3697	4.7135
10.349	4.7606
10.3284	4.80907
10.3078	4.77557
10.2874	4.78274
10.267	4.67891
10.2467	4.59664
10.2265	4.608
10.2064	4.66922
10.1863	4.70445
10.1663	4.63706
10.1464	4.52447
10.1266	4.51093
10.1069	4.52039
10.0872	4.45562
10.0676	4.43828
10.0481	4.43694
10.0287	4.55446
10.0093	4.59178
9.99005	4.36511
9.97084	4.00437
9.95169	3.85125
9.93263	3.96543
9.91364	4.15336
9.89472	4.29575
9.87587	4.40994
9.8571	4.43475
9.83839	4.50676
9.81976	4.60148
9.80119	4.64296
9.78271	4.67941
9.76428	4.61624
9.74592	4.6235
9.72764	4.52372
9.70943	4.45151
9.69128	4.52528
9.6732	4.56037
9.65518	4.47703
9.63724	4.48554
9.61935	4.62937
9.60155	4.58616
9.5838	4.40371
9.56611	4.39371
9.5485	4.44639
9.53094	4.477
9.51345	4.46684
9.49604	4.42341
9.47867	4.34944
9.46137	4.33581
9.44414	4.27519
9.42697	4.24189
9.40986	4.21753
9.39281	4.13079
9.37583	4.09918
9.35891	4.15095
9.34204	4.23773
9.32524	4.13198
9.3085	4.11258
9.29182	4.18995
9.27519	4.15272
9.25863	3.96624
9.24213	3.86659
9.22568	3.93142
9.2093	4.0059
9.19297	3.81035
9.17669	3.68819
9.16048	3.74423
9.14433	3.7383
9.12823	3.8779
9.11218	3.96771
9.0962	3.97622
9.08027	4.05397
9.06439	4.13608
9.04858	4.30697
9.03281	4.63814
9.0171	4.89007
9.00145	5.09306
8.98585	5.23963
8.9703	5.45394
8.9548	5.76481
8.93937	5.97675
8.92398	6.07637
8.90865	6.08934
8.89337	6.12097
8.87814	6.11498
8.86296	6.21777
8.84784	6.51681
8.83277	6.58433
8.81774	6.48819
8.80277	6.55479
8.78786	6.73489
8.77298	6.90272
8.75816	6.93075
8.7434	6.98622
8.72868	7.0991
8.714	7.07388
8.69938	6.93518
8.68481	6.87043
8.67029	6.79294
8.65581	6.76241
8.64139	6.67615
8.62701	6.56203
8.61268	6.60875
8.5984	6.72803
8.58416	6.70064
8.56997	6.62847
8.55583	6.71767
8.54174	6.76743
8.52769	6.78175
8.51368	6.80308
8.49973	6.80245
8.48582	6.85697
8.47195	7.00517
8.45813	7.0726
8.44436	6.97876
8.43062	6.9017
8.41693	6.83243
8.4033	6.63447
8.3897	6.51871
8.37614	6.3383
8.36264	6.10592
8.34917	6.14209
8.33574	5.95389
8.32236	5.42365
8.30903	4.90138
8.29573	4.74174
8.28248	4.50851
8.26927	4.06709
8.2561	3.73878
8.24298	3.31836
8.2299	2.91114
8.21685	2.66003
8.20385	2.38146
8.19089	2.0074
8.17797	1.7544
8.16509	1.60739
8.15225	1.45123
8.13946	1.34963
8.1267	1.31924
8.11398	1.20667
8.10131	1.05666
8.08867	1.00616
8.07606	0.957516
8.0635	0.932937
8.05099	0.854491
8.0385	0.742639
8.02606	0.690031
8.01366	0.617074
8.00129	0.554899
7.98896	0.609122
7.97667	0.602077
7.96442	0.606178
7.9522	0.63322
7.94002	0.608542
7.92788	0.564606
7.91578	0.574055
7.90371	0.569316
7.89168	0.603559
7.87969	0.594333
7.86773	0.635198
7.85581	0.702817
7.84392	0.729959
7.83207	0.74874
7.82026	0.855471
7.80849	0.905626
7.79674	0.939001
7.78503	0.94863
7.77337	0.991751
7.76173	1.19059
7.75012	1.23016
7.73856	1.20411
7.72703	1.23955
7.71553	1.38121
7.70406	1.43437
7.69263	1.54747
7.68123	1.63321
7.66987	1.75825
7.65855	1.91462
7.64725	2.03444
7.63598	2.09249
7.62475	2.16715
7.61356	2.21969
7.60239	2.33458
7.59126	2.45687
7.58017	2.58735
7.5691	2.68834
7.55806	2.79928
7.54707	2.83921
7.5361	2.92825
7.52516	3.17224
7.51425	3.32028
7.50338	3.39898
7.49253	3.59708
7.48172	3.89708
7.47094	4.10706
7.46019	4.17016
7.44947	4.25074
7.43879	4.50193
7.42813	4.68505
7.4175	4.86815
7.4069	5.1512
7.39634	5.34978
7.3858	5.58898
7.37529	5.84201
7.36482	6.00381
7.35437	6.23766
7.34396	6.51923
7.33357	6.72606
7.32321	6.79667
7.31288	6.97832
7.30258	7.26454
7.29231	7.5251
7.28207	7.70765
7.27185	7.86049
7.26167	8.09985
7.25152	8.45898
7.24139	8.76601
7.23129	8.89084
7.22122	9.01759
7.21117	9.24539
7.20116	9.40136
7.19117	9.63234
7.18121	9.82833
7.17128	10.0471
7.16137	10.3373
7.1515	10.5424
7.14164	10.7469
7.13182	10.8802
7.12203	10.9625
7.11225	11.1503
7.10251	11.4168
7.0928	11.6719
7.08311	11.838
7.07344	11.9831
7.06381	12.1621
7.0542	12.4627
7.04461	12.7593
7.03506	12.8308
7.02552	12.8421
7.01601	12.9546
7.00653	13.2154
6.99708	13.432
6.98765	13.5919
6.97824	13.7488
6.96886	13.9947
6.95951	14.2669
6.95018	14.1963
6.94087	14.2295
6.9316	14.3671
6.92234	14.4699
6.91311	14.6238
6.90391	14.7274
6.89473	14.7193
6.88557	14.7686
6.87644	14.9718
6.86733	15.4649
6.85824	15.6191
6.84918	15.4347
6.84015	15.4178
6.83114	15.492
6.82215	15.5395
6.81319	15.4934
6.80424	15.573
6.79532	15.882
6.78643	16.0979
6.77756	16.0897
6.76871	16.1281
6.75989	16.1443
6.75109	16.1696
6.74231	16.1314
6.73355	16.194
6.72482	16.317
6.71611	16.4027
6.70742	16.4452
6.69875	16.4037
6.69011	16.3743
6.68149	16.3784
6.67289	16.3312
6.66431	16.2552
6.65576	16.1342
6.64722	16.2603
6.63871	16.5429
6.63022	16.3056
6.62175	15.9536
6.61331	15.7683
6.60488	15.6096
6.59648	15.5304
6.5881	15.4022
6.57974	15.2538
6.5714	15.1436
6.56308	14.7601
6.55478	14.5344
6.54651	14.3613
6.53825	14.1706
6.53001	14.1351
6.5218	14.2982
6.51361	14.2205
6.50544	14.1754
6.49729	14.3383
6.48915	14.2779
6.48104	14.1329
6.47295	14.0851
6.46488	13.8865
6.45683	13.7541
6.4488	13.6813
6.44079	13.6938
6.4328	13.7278
6.42482	13.7341
6.41687	13.9126
6.40894	13.7232
6.40103	13.2924
6.39314	12.9814
6.38526	12.7834
6.37741	12.5898
6.36957	12.361
6.36176	12.0802
6.35396	11.8257
6.34618	11.641
6.33843	11.1711
6.33069	10.6703
6.32297	10.2891
6.31527	9.90783
6.30758	9.49619
6.29992	9.09595
6.29227	8.67493
6.28465	8.23683
6.27704	7.74291
6.26945	7.17077
6.26188	6.64576
6.25432	6.14739
6.24679	5.64306
6.23927	5.08253
6.23177	4.47836
6.22429	3.94563
6.21683	3.39853
6.20938	2.83787
6.20195	2.49799
6.19454	2.37112
6.18715	2.17719
6.17978	1.94626
6.17242	1.83365
6.16508	1.84679
6.15776	1.84733
6.15045	1.74778
6.14317	1.68906
6.1359	1.71744
6.12864	1.82834
6.12141	1.97877
6.11419	2.24094
6.10699	2.61949
6.0998	3.02507
6.09263	3.36987
6.08549	3.78329
6.07835	4.41062
6.07123	4.94635
6.06413	5.32858
6.05705	5.77794
6.04998	6.32161
6.04293	6.55277
6.0359	6.60861
6.02888	6.75756
6.02187	6.80469
6.01489	6.80893
6.00792	6.66901
6.00096	6.35103
5.99403	6.05226
5.98711	5.6055
5.9802	5.06594
5.97331	4.5603
5.96644	4.02453
5.95958	3.43025
5.95274	2.90717
5.94591	2.58741
5.9391	2.46356
5.9323	2.31051
5.92552	2.26219
5.91876	2.52229
5.91201	2.99712
5.90528	3.62107
5.89856	4.35595
5.89186	5.04597
5.88517	5.8852
5.8785	6.81981
5.87184	7.53354
5.8652	8.40839
5.85857	9.24196
5.85196	9.99716
5.84536	10.7902
5.83878	11.6357
5.83221	12.4044
5.82566	13.1301
5.81912	13.708
5.81259	14.1318
5.80608	14.666
5.79959	15.1993
5.79311	15.6529
5.78665	16.1666
5.78019	16.6805
5.77376	17.2752
5.76734	17.9954
5.76093	18.2703
5.75453	18.4976
5.74815	19.0002
5.74179	19.3219
5.73543	19.7038
5.7291	20.0694
5.72277	20.5879
5.71646	21.1324
5.71017	21.5902
5.70389	21.8027
5.69762	22.0547
5.69136	22.4243
5.68513	22.6944
5.6789	23.012
5.67268	23.4029
5.66648	23.6498
5.6603	23.9639
5.65413	24.2826
5.64797	24.706
5.64182	25.1803
5.63569	25.2566
5.62957	25.3293
5.62347	25.5637
5.61737	25.9113
5.61129	26.1642
5.60522	26.3847
5.59917	26.6212
5.59313	26.807
5.5871	27.1419
5.58109	27.4693
5.57509	27.5608
5.5691	27.6104
5.56312	27.8028
5.55716	28.0756
5.55121	28.3728
5.54528	28.6432
5.53935	28.9081
5.53344	29.2162
5.52754	29.639
5.52166	30.0682
5.51578	30.4681
5.50992	30.7657
5.50407	31.1006
5.49823	31.455
5.49241	31.8271
5.4866	32.152
5.4808	32.4951
5.47501	32.6745
5.46923	32.9778
5.46347	33.3232
5.45772	33.434
5.45198	33.4962
5.44625	33.6969
5.44054	33.8859
5.43484	34.0505
5.42914	34.2861
5.42347	34.6403
5.4178	34.6726
5.41214	34.6949
5.4065	34.8317
5.40087	34.9092
5.39525	34.9042
5.38964	34.9464
5.38404	35.0046
5.37846	35.1104
5.37288	35.253
5.36732	35.4021
5.36177	35.4868
5.35623	35.5904
5.35071	35.7839
5.34519	35.8935
5.33968	35.8954
5.33419	35.9657
5.32871	36.0718
5.32324	36.2446
5.31778	36.3516
5.31233	36.4127
5.30689	36.4996
5.30147	36.5638
5.29605	36.6277
5.29065	36.7778
5.28525	36.8962
5.27987	37.0109
5.2745	37.0543
5.26914	37.1574
5.26379	37.2145
5.25845	37.3068
5.25312	37.4
5.24781	37.5075
5.2425	37.6167
5.23721	37.7081
5.23192	37.7656
5.22665	37.8037
5.22138	37.8363
5.21613	37.9244
5.21089	37.897
5.20566	37.8198
5.20044	37.8827
5.19522	37.7726
5.19002	37.5976
5.18483	37.5491
5.17965	37.4772
5.17448	37.38
5.16933	37.2685
5.16418	37.0939
5.15904	36.9238
5.15391	36.8815
5.14879	36.8751
5.14368	36.773
5.13859	36.6818
5.1335	36.5731
5.12842	36.462
5.12335	36.3811
5.1183	36.2895
5.11325	36.2438
5.10821	36.2014
5.10318	36.2261
5.09817	36.16
5.09316	36.0177
5.08816	35.9743
5.08317	35.9788
5.07819	35.8704
5.07322	35.7198
5.06826	35.6089
5.06331	35.6414
5.05837	35.6749
5.05344	35.6417
5.04852	35.5847
5.04361	35.5365
5.03871	35.5504
5.03382	35.5296
5.02894	35.5192
5.02406	35.5816
5.0192	35.5941
5.01435	35.5519
5.0095	35.488
5.00467	35.4352
4.99984	35.353
4.99502	35.2592
4.99021	35.091
4.98542	34.6911
4.98063	34.1866
4.97585	33.9197
4.97108	34.03
4.96632	34.3708
4.96156	34.7108
4.95682	34.972
4.95209	35.0111
4.94736	34.953
4.94264	34.9203
4.93794	34.933
4.93324	34.8974
4.92855	34.7193
4.92387	34.5194
4.9192	34.3738
4.91453	34.176
4.90988	33.9948
4.90524	33.75
4.9006	33.5595
4.89597	33.4183
4.89135	33.2219
4.88674	32.948
4.88214	32.6434
4.87755	32.3351
4.87296	32.0762
4.86839	31.9165
4.86382	31.7617
4.85926	31.531
4.85471	31.2155
4.85017	30.9872
4.84564	30.8016
4.84111	30.5228
4.8366	30.1793
4.83209	29.8837
4.82759	29.5351
4.8231	29.1073
4.81862	28.6836
4.81415	28.1997
4.80968	27.6824
4.80522	27.1432
4.80077	26.5979
4.79633	25.9154
4.7919	25.1073
4.78747	24.2428
4.78306	23.3464
4.77865	22.3944
4.77425	21.3328
4.76986	20.1737
4.76547	18.9143
4.7611	17.6869
4.75673	16.5647
4.75237	15.4742
4.74802	14.4802
4.74367	13.6201
4.73934	12.9412
4.73501	12.5272
4.73069	12.3827
4.72638	12.4392
4.72207	12.613
4.71777	12.8292
4.71348	13.0145
4.7092	13.1227
4.70493	13.2047
4.70066	13.3396
4.69641	13.4431
4.69216	13.4896
4.68791	13.5136
4.68368	13.5599
4.67945	13.6721
4.67523	13.745
4.67102	13.9044
4.66682	14.0865
4.66262	14.2096
4.65843	14.3889
4.65425	14.564
4.65007	14.6221
4.64591	14.6043
4.64175	14.5826
4.6376	14.4941
4.63345	14.4161
4.62932	14.3495
4.62519	14.2924
4.62106	14.0974
4.61695	13.8098
4.61284	13.5409
4.60874	13.3304
4.60465	13.1108
4.60056	12.8708
4.59648	12.5489
4.59241	12.1632
4.58835	11.7891
4.58429	11.438
4.58024	11.0943
4.5762	10.7001
4.57216	10.343
4.56814	10.0142
4.56411	9.69298
4.5601	9.41693
4.55609	9.1802
4.55209	8.93965
4.5481	8.67088
4.54411	8.41555
4.54013	8.32402
4.53616	8.32462
4.5322	8.28321
4.52824	8.23288
4.52429	8.18399
4.52034	8.08962
4.51641	8.08054
4.51247	8.10524
4.50855	8.09806
4.50463	8.04323
4.50072	8.00616
4.49682	7.91985
4.49292	7.911
4.48903	7.92998
4.48515	7.92213
4.48127	7.83865
4.4774	7.84124
4.47354	7.91183
4.46968	7.90876
4.46584	7.8955
4.46199	7.92399
4.45815	7.97259
4.45432	7.98688
4.4505	8.0474
4.44668	8.2127
4.44287	8.3465
4.43907	8.53964
4.43527	8.68515
4.43148	8.78056
4.4277	8.96808
4.42392	9.23292
4.42015	9.47428
4.41638	9.62946
4.41262	9.75077
4.40887	9.96736
4.40513	10.2761
4.40139	10.514
4.39765	10.7163
4.39393	10.9055
4.39021	11.1874
4.38649	11.398
4.38278	11.5752
4.37908	11.8651
4.37539	12.1799
4.3717	12.4231
4.36801	12.6308
4.36434	12.8599
4.36067	13.0932
4.357	13.3444
4.35335	13.5668
4.34969	13.7797
4.34605	14.095
4.34241	14.4318
4.33877	14.7055
4.33514	14.9983
4.33152	15.4012
4.32791	15.8058
4.3243	16.1309
4.32069	16.5553
4.3171	17.0916
4.31351	17.6539
4.30992	18.1436
4.30634	18.691
4.30277	19.2294
4.2992	19.7756
4.29564	20.3541
4.29208	20.9582
4.28853	21.5425
4.28499	22.1297
4.28145	22.7037
4.27792	23.255
4.27439	23.7336
4.27087	24.1994
4.26735	24.7511
4.26384	25.2845
4.26034	25.8605
4.25684	26.386
4.25335	26.8771
4.24986	27.356
4.24638	27.7785
4.24291	28.2443
4.23944	28.8133
4.23598	29.2793
4.23252	29.7099
4.22906	30.2045
4.22562	30.7179
4.22218	31.1949
4.21874	31.5196
4.21531	31.881
4.21189	32.3777
4.20847	32.8459
4.20506	33.2522
4.20165	33.6359
4.19825	34.0359
4.19485	34.5432
4.19146	34.9786
4.18807	35.4022
4.18469	35.7655
4.18132	36.0587
4.17795	36.3805
4.17458	36.7661
4.17123	37.1914
4.16787	37.6259
4.16453	37.9678
4.16118	38.2626
4.15785	38.5745
4.15451	38.9037
4.15119	39.2871
4.14787	39.6605
4.14455	39.9735
4.14124	40.3033
4.13794	40.705
4.13464	41.0367
4.13134	41.3222
4.12805	41.6605
4.12477	41.9117
4.12149	42.1756
4.11822	42.4723
4.11495	42.7665
4.11168	43.1694
4.10843	43.5401
4.10517	43.844
4.10192	44.0755
4.09868	44.3599
4.09545	44.6926
4.09221	44.9836
4.08899	45.2833
4.08576	45.6231
4.08255	45.9422
4.07933	46.2044
4.07613	46.5017
4.07292	46.8575
4.06973	47.0997
4.06654	47.3839
4.06335	47.7647
4.06017	48.0392
4.05699	48.2789
4.05382	48.5122
4.05065	48.8241
4.04749	49.0997
4.04433	49.3678
4.04118	49.6895
4.03803	49.901
4.03489	50.1105
4.03175	50.4109
4.02862	50.6702
4.02549	50.8606
4.02237	51.047
4.01925	51.2912
4.01614	51.5258
4.01303	51.686
4.00993	51.8367
4.00683	52.115
4.00373	52.3071
4.00064	52.3727
3.99756	52.4261
3.99448	52.484
3.9914	52.5395
3.98833	52.5323
3.98527	52.4168
3.98221	52.1693
3.97915	51.9184
3.9761	51.8386
3.97305	51.964
3.97001	52.2067
3.96697	52.5632
3.96394	53.1176
3.96091	53.6152
3.95789	54.0671
3.95487	54.549
3.95186	54.8782
3.94885	55.1985
3.94584	55.4879
3.94284	55.7289
3.93984	55.9358
3.93685	56.1861
3.93386	56.4106
3.93088	56.574
3.9279	56.7517
3.92493	56.9123
3.92196	57.0217
3.919	57.116
3.91604	57.2742
3.91308	57.4355
3.91013	57.6044
3.90718	57.679
3.90424	57.7575
3.9013	57.8507
3.89837	57.8623
3.89544	57.8692
3.89252	57.8633
3.8896	57.7544
3.88668	57.5918
3.88377	57.4361
3.88086	57.17
3.87796	56.7758
3.87506	56.4896
3.87217	56.4936
3.86928	56.8019
3.86639	57.271
3.86351	57.7351
3.86064	58.0701
3.85776	58.3438
3.8549	58.6133
3.85203	58.8138
3.84917	58.9804
3.84631	59.0719
3.84346	59.0522
3.84062	59.1615
3.83777	59.3172
3.83494	59.3089
3.8321	59.3128
3.82927	59.4141
3.82644	59.4999
3.82362	59.5173
3.82081	59.4874
3.81799	59.3872
3.81518	59.4583
3.81238	59.558
3.80958	59.5186
3.80678	59.4674
3.80399	59.5157
3.8012	59.5131
3.79841	59.4795
3.79563	59.4596
3.79286	59.3729
3.79008	59.3812
3.78731	59.4088
3.78455	59.3939
3.78179	59.4087
3.77903	59.424
3.77628	59.4482
3.77353	59.5067
3.77079	59.4491
3.76805	59.4405
3.76531	59.4896
3.76258	59.5156
3.75985	59.477
3.75713	59.3681
3.7544	59.3254
3.75169	59.298
3.74898	59.2454
3.74627	59.2536
3.74356	59.2293
3.74086	59.1714
3.73816	59.1676
3.73547	59.1355
3.73278	59.1514
3.7301	59.0991
3.72741	59.0514
3.72474	59.0256
3.72206	58.9209
3.71939	58.9119
3.71673	58.9262
3.71406	59.0056
3.71141	59.0416
3.70875	58.9966
3.7061	59.011
3.70345	58.9603
3.70081	58.8531
3.69817	58.8195
3.69553	58.7924
3.6929	58.711
3.69027	58.5917
3.68765	58.5105
3.68503	58.5262
3.68241	58.5069
3.6798	58.4355
3.67719	58.2931
3.67458	58.1147
3.67198	58.0424
3.66938	58.0131
3.66678	57.9014
3.66419	57.7554
3.66161	57.6394
3.65902	57.4847
3.65644	57.4022
3.65387	57.2235
3.65129	57.0422
3.64872	56.9863
3.64616	56.9063
3.64359	56.8124
3.64103	56.714
3.63848	56.5885
3.63593	56.4749
3.63338	56.3172
3.63084	56.1637
3.6283	56.0729
3.62576	55.9153
3.62322	55.7161
3.62069	55.5864
3.61817	55.4891
3.61564	55.3214
3.61312	55.1489
3.61061	54.9708
3.6081	54.7763
3.60559	54.5982
3.60308	54.3736
3.60058	54.202
3.59808	54.0517
3.59558	53.8803
3.59309	53.7579
3.59061	53.5831
3.58812	53.4012
3.58564	53.2066
3.58316	53.0281
3.58069	52.879
3.57822	52.7688
3.57575	52.6677
3.57328	52.5864
3.57082	52.4364
3.56836	52.2923
3.56591	52.1988
3.56346	52.1048
3.56101	52.0647
3.55857	51.8782
3.55613	51.7347
3.55369	51.6017
3.55126	51.4627
3.54883	51.3653
3.5464	51.2834
3.54397	51.1962
3.54155	51.063
3.53914	50.9431
3.53672	50.9158
3.53431	50.9117
3.5319	50.8456
3.5295	50.6938
3.5271	50.5393
3.5247	50.4208
3.52231	50.3416
3.51991	50.2525
3.51753	50.1457
3.51514	50.0567
3.51276	49.8841
3.51038	49.7578
3.50801	49.6887
3.50563	49.5525
3.50327	49.4232
3.5009	49.3099
3.49854	49.189
3.49618	49.0163
3.49382	48.8302
3.49147	48.7339
3.48912	48.5687
3.48677	48.4552
3.48443	48.338
3.48209	48.1374
3.47975	48.0426
3.47742	47.9351
3.47509	47.7757
3.47276	47.5766
3.47044	47.4056
3.46812	47.3091
3.4658	47.1821
3.46348	46.9767
3.46117	46.8368
