Name: Sphalerite (Zn,Fe)S
Type: Mineral
Class: Sulfides
Subclass: 
Particle Size: 45-125um
Sample No.: S-1A
Owner: JPL
Wavelength range: IR
Origin: USA, Oklahoma, Ottawa County, Picher
Collected by JPL
Description: 





Measurement: Hemispherical reflectance
First Column: X
Second Column: Y
X Units:  Wavelength (micrometers)
Y Units:  Reflectance (percent)
First X Value: 15.3853
Last X Value: 2.00032
Number of X Values: 2256
Additional information: s01aa.txt
 
15.3853	27.0514
15.3397	29.7563
15.2945	31.7692
15.2495	32.9968
15.2048	33.4973
15.1603	32.9411
15.1161	31.4759
15.0722	29.3499
15.0285	26.4877
14.9851	23.8127
14.9419	22.9957
14.8989	24.5441
14.8563	27.1783
14.8138	29.2033
14.7716	30.7268
14.7296	32.117
14.6879	33.2538
14.6464	34.2537
14.6052	35.1802
14.5641	35.9304
14.5233	36.5774
14.4828	37.1964
14.4424	37.8506
14.4023	38.6124
14.3624	39.3778
14.3227	40.121
14.2833	40.9524
14.244	41.7186
14.205	42.2568
14.1662	42.7063
14.1276	42.9303
14.0892	43.1433
14.051	43.45
14.0131	43.7066
13.9753	43.9433
13.9377	43.8671
13.9004	43.9216
13.8632	44.2879
13.8262	44.6063
13.7895	44.8353
13.7529	45.033
13.7165	45.1044
13.6803	45.2108
13.6443	45.4716
13.6085	45.776
13.5729	45.9098
13.5374	45.9774
13.5022	46.1905
13.4671	46.3975
13.4322	46.3931
13.3975	46.4411
13.363	46.5801
13.3286	46.689
13.2944	46.831
13.2604	46.8988
13.2266	46.9399
13.193	47.0423
13.1595	47.0917
13.1262	47.206
13.093	47.3092
13.06	47.2759
13.0272	47.225
12.9946	47.3633
12.9621	47.4127
12.9298	47.4513
12.8976	47.5991
12.8656	47.697
12.8337	47.654
12.8021	47.5633
12.7705	47.7097
12.7391	47.868
12.7079	47.9039
12.6769	47.935
12.6459	48.0596
12.6152	48.1761
12.5845	48.3093
12.5541	48.3638
12.5238	48.4159
12.4936	48.571
12.4635	48.8099
12.4337	48.9368
12.4039	49.1186
12.3743	49.3418
12.3448	49.3711
12.3155	49.4636
12.2863	49.628
12.2573	49.7902
12.2284	49.9835
12.1996	50.0968
12.171	50.2811
12.1425	50.3706
12.1141	50.4641
12.0859	50.5299
12.0578	50.5592
12.0298	50.6673
12.0019	50.8398
11.9742	50.9636
11.9466	50.9399
11.9192	51.0606
11.8918	51.1476
11.8646	51.067
11.8375	51.0911
11.8106	51.1782
11.7837	51.2922
11.757	51.2486
11.7304	51.2038
11.7039	51.2972
11.6776	51.3695
11.6513	51.2651
11.6252	51.2045
11.5992	51.3494
11.5733	51.334
11.5475	51.1175
11.5219	51.029
11.4963	50.9569
11.4709	51.0406
11.4455	51.0961
11.4203	51.0738
11.3952	51.0311
11.3702	50.9917
11.3454	51.0542
11.3206	51.0864
11.2959	51.0339
11.2714	50.9825
11.2469	50.946
11.2226	50.9463
11.1983	50.9237
11.1742	50.855
11.1502	50.8551
11.1263	50.8995
11.1024	50.9
11.0787	50.931
11.0551	50.896
11.0316	50.8414
11.0081	50.7855
10.9848	50.7981
10.9616	50.7586
10.9385	50.7093
10.9154	50.7414
10.8925	50.6701
10.8697	50.6857
10.8469	50.8127
10.8243	50.792
10.8017	50.7467
10.7793	50.7813
10.7569	50.7967
10.7346	50.7243
10.7125	50.7674
10.6904	50.6259
10.6684	50.4946
10.6465	50.5785
10.6247	50.6254
10.6029	50.6657
10.5813	50.615
10.5597	50.5613
10.5383	50.4811
10.5169	50.3349
10.4956	50.3034
10.4744	50.314
10.4533	50.2493
10.4323	50.148
10.4113	50.0676
10.3904	49.8941
10.3697	49.7968
10.349	49.8259
10.3284	49.8581
10.3078	49.7245
10.2874	49.6391
10.267	49.6639
10.2467	49.5992
10.2265	49.5647
10.2064	49.6238
10.1863	49.6003
10.1663	49.4946
10.1464	49.3583
10.1266	49.3159
10.1069	49.36
10.0872	49.3804
10.0676	49.4332
10.0481	49.4762
10.0287	49.3415
10.0093	49.2942
9.99005	49.3301
9.97084	49.2752
9.95169	49.2582
9.93263	49.3011
9.91364	49.3184
9.89472	49.3341
9.87587	49.2763
9.8571	49.2603
9.83839	49.3359
9.81976	49.4095
9.80119	49.3484
9.78271	49.3509
9.76428	49.4335
9.74592	49.4262
9.72764	49.4202
9.70943	49.4824
9.69128	49.4716
9.6732	49.4376
9.65518	49.496
9.63724	49.4708
9.61935	49.3597
9.60155	49.3931
9.5838	49.3988
9.56611	49.3803
9.5485	49.3034
9.53094	49.2719
9.51345	49.3054
9.49604	49.2688
9.47867	49.2378
9.46137	49.237
9.44414	49.2461
9.42697	49.3366
9.40986	49.4105
9.39281	49.4402
9.37583	49.4317
9.35891	49.4811
9.34204	49.5447
9.32524	49.571
9.3085	49.5677
9.29182	49.5585
9.27519	49.5867
9.25863	49.6366
9.24213	49.5487
9.22568	49.3893
9.2093	49.387
9.19297	49.3781
9.17669	49.3536
9.16048	49.4199
9.14433	49.5055
9.12823	49.5457
9.11218	49.5824
9.0962	49.6874
9.08027	49.6573
9.06439	49.6602
9.04858	49.7028
9.03281	49.7427
9.0171	49.7063
9.00145	49.6963
8.98585	49.7144
8.9703	49.7118
8.9548	49.8132
8.93937	49.9185
8.92398	49.922
8.90865	49.9496
8.89337	49.9755
8.87814	50.0131
8.86296	50.0516
8.84784	50.1477
8.83277	50.2188
8.81774	50.2948
8.80277	50.258
8.78786	50.1808
8.77298	50.3395
8.75816	50.533
8.7434	50.5172
8.72868	50.5403
8.714	50.6917
8.69938	50.8517
8.68481	50.891
8.67029	50.9062
8.65581	50.9854
8.64139	51.1619
8.62701	51.1154
8.61268	51.085
8.5984	51.1613
8.58416	51.152
8.56997	51.2312
8.55583	51.3211
8.54174	51.3081
8.52769	51.2762
8.51368	51.4273
8.49973	51.4259
8.48582	51.3933
8.47195	51.4724
8.45813	51.4557
8.44436	51.5467
8.43062	51.7107
8.41693	51.7982
8.4033	51.8357
8.3897	51.9073
8.37614	51.9786
8.36264	52.1204
8.34917	52.2687
8.33574	52.331
8.32236	52.3168
8.30903	52.3802
8.29573	52.4704
8.28248	52.5761
8.26927	52.7218
8.2561	52.8946
8.24298	53.0464
8.2299	53.0952
8.21685	53.1442
8.20385	53.2642
8.19089	53.4037
8.17797	53.54
8.16509	53.6341
8.15225	53.6932
8.13946	53.8262
8.1267	53.9373
8.11398	53.943
8.10131	54.0806
8.08867	54.2495
8.07606	54.3878
8.0635	54.4321
8.05099	54.4857
8.0385	54.5022
8.02606	54.481
8.01366	54.5937
8.00129	54.6809
7.98896	54.6592
7.97667	54.6558
7.96442	54.7964
7.9522	54.9219
7.94002	54.9735
7.92788	55.0352
7.91578	55.0815
7.90371	55.1144
7.89168	55.1393
7.87969	55.1566
7.86773	55.1565
7.85581	55.1618
7.84392	55.172
7.83207	55.2407
7.82026	55.2429
7.80849	55.2667
7.79674	55.2988
7.78503	55.2999
7.77337	55.2891
7.76173	55.2936
7.75012	55.2864
7.73856	55.2977
7.72703	55.3366
7.71553	55.3778
7.70406	55.3505
7.69263	55.35
7.68123	55.323
7.66987	55.3151
7.65855	55.3786
7.64725	55.3996
7.63598	55.3334
7.62475	55.3416
7.61356	55.3886
7.60239	55.4169
7.59126	55.4644
7.58017	55.4989
7.5691	55.5535
7.55806	55.5855
7.54707	55.4958
7.5361	55.5147
7.52516	55.5349
7.51425	55.4904
7.50338	55.5277
7.49253	55.5758
7.48172	55.5762
7.47094	55.6513
7.46019	55.6782
7.44947	55.6381
7.43879	55.6484
7.42813	55.6636
7.4175	55.6244
7.4069	55.5877
7.39634	55.5869
7.3858	55.663
7.37529	55.6783
7.36482	55.6323
7.35437	55.5907
7.34396	55.573
7.33357	55.5454
7.32321	55.4809
7.31288	55.4261
7.30258	55.3825
7.29231	55.3431
7.28207	55.4302
7.27185	55.5004
7.26167	55.406
7.25152	55.3522
7.24139	55.3576
7.23129	55.3896
7.22122	55.4408
7.21117	55.5182
7.20116	55.5028
7.19117	55.4223
7.18121	55.4847
7.17128	55.5482
7.16137	55.4758
7.1515	55.4394
7.14164	55.3913
7.13182	55.2601
7.12203	55.2375
7.11225	55.2073
7.10251	55.1404
7.0928	55.1697
7.08311	55.1894
7.07344	55.1868
7.06381	55.179
7.0542	55.166
7.04461	55.1258
7.03506	54.9554
7.02552	54.9301
7.01601	54.9321
7.00653	54.9196
6.99708	54.9775
6.98765	54.9345
6.97824	54.8988
6.96886	55.0781
6.95951	55.207
6.95018	55.0558
6.94087	54.9582
6.9316	54.9227
6.92234	54.9361
6.91311	54.9945
6.90391	54.9728
6.89473	54.8877
6.88557	54.9017
6.87644	54.9848
6.86733	55.2192
6.85824	55.35
6.84918	55.1469
6.84015	54.9818
6.83114	55.101
6.82215	55.1638
6.81319	55.0299
6.80424	55.0729
6.79532	55.2454
6.78643	55.2503
6.77756	55.241
6.76871	55.2639
6.75989	55.2105
6.75109	55.1629
6.74231	55.1097
6.73355	55.1197
6.72482	55.2525
6.71611	55.3388
6.70742	55.2905
6.69875	55.2145
6.69011	55.3091
6.68149	55.4243
6.67289	55.3347
6.66431	55.2286
6.65576	55.2043
6.64722	55.3968
6.63871	55.5812
6.63022	55.4666
6.62175	55.235
6.61331	55.1999
6.60488	55.2561
6.59648	55.3104
6.5881	55.2455
6.57974	55.2557
6.5714	55.2654
6.56308	55.0685
6.55478	55.035
6.54651	54.9572
6.53825	54.7416
6.53001	54.6525
6.5218	54.7293
6.51361	54.6112
6.50544	54.6306
6.49729	54.8036
6.48915	54.7369
6.48104	54.5436
6.47295	54.3922
6.46488	54.1734
6.45683	54.0709
6.4488	54.0723
6.44079	54.0949
6.4328	54.1389
6.42482	54.2367
6.41687	54.4724
6.40894	54.3522
6.40103	54.1107
6.39314	54.0672
6.38526	54.0406
6.37741	54.132
6.36957	54.1679
6.36176	54.092
6.35396	54.2022
6.34618	54.3979
6.33843	54.2976
6.33069	54.1341
6.32297	54.0922
6.31527	54.0384
6.30758	54.0016
6.29992	53.9382
6.29227	53.946
6.28465	54.0381
6.27704	54.0863
6.26945	54.0693
6.26188	54.0585
6.25432	54.061
6.24679	54.0866
6.23927	54.0532
6.23177	54.0547
6.22429	54.1555
6.21683	54.1759
6.20938	54.136
6.20195	54.1576
6.19454	54.2326
6.18715	54.312
6.17978	54.2276
6.17242	54.153
6.16508	54.1817
6.15776	54.1545
6.15045	54.0513
6.14317	54.0392
6.1359	54.0615
6.12864	54.0673
6.12141	54.1393
6.11419	54.247
6.10699	54.1105
6.0998	53.9793
6.09263	53.9974
6.08549	54.0517
6.07835	54.236
6.07123	54.308
6.06413	54.1443
6.05705	54.2995
6.04998	54.729
6.04293	54.5262
6.0359	54.1641
6.02888	54.1268
6.02187	54.1387
6.01489	54.1103
6.00792	54.037
6.00096	54.0698
5.99403	54.2506
5.98711	54.3286
5.9802	54.2242
5.97331	54.3382
5.96644	54.4256
5.95958	54.2882
5.95274	54.3087
5.94591	54.4188
5.9391	54.5888
5.9323	54.5004
5.92552	54.3333
5.91876	54.3597
5.91201	54.3891
5.90528	54.395
5.89856	54.5866
5.89186	54.6196
5.88517	54.7206
5.8785	54.7105
5.87184	54.3991
5.8652	54.4174
5.85857	54.3968
5.85196	54.2963
5.84536	54.3001
5.83878	54.3665
5.83221	54.4362
5.82566	54.591
5.81912	54.6006
5.81259	54.4121
5.80608	54.3032
5.79959	54.2768
5.79311	54.3054
5.78665	54.3388
5.78019	54.3421
5.77376	54.4388
5.76734	54.6629
5.76093	54.5082
5.75453	54.3457
5.74815	54.384
5.74179	54.2584
5.73543	54.2912
5.7291	54.3612
5.72277	54.3542
5.71646	54.4187
5.71017	54.5135
5.70389	54.3886
5.69762	54.3562
5.69136	54.4467
5.68513	54.4752
5.6789	54.5253
5.67268	54.513
5.66648	54.4645
5.6603	54.4683
5.65413	54.4709
5.64797	54.5258
5.64182	54.6462
5.63569	54.5596
5.62957	54.423
5.62347	54.3784
5.61737	54.3684
5.61129	54.3084
5.60522	54.3127
5.59917	54.328
5.59313	54.2642
5.5871	54.2619
5.58109	54.3205
5.57509	54.2875
5.5691	54.2742
5.56312	54.3147
5.55716	54.2469
5.55121	54.1931
5.54528	54.2288
5.53935	54.2696
5.53344	54.2346
5.52754	54.2546
5.52166	54.3221
5.51578	54.3052
5.50992	54.2962
5.50407	54.2914
5.49823	54.2801
5.49241	54.2944
5.4866	54.3038
5.4808	54.3236
5.47501	54.3095
5.46923	54.2949
5.46347	54.3285
5.45772	54.2708
5.45198	54.2479
5.44625	54.2625
5.44054	54.2555
5.43484	54.2377
5.42914	54.269
5.42347	54.3516
5.4178	54.2774
5.41214	54.198
5.4065	54.218
5.40087	54.214
5.39525	54.1464
5.38964	54.095
5.38404	54.0455
5.37846	54.0169
5.37288	54.1037
5.36732	54.1277
5.36177	54.0468
5.35623	54.0577
5.35071	54.0783
5.34519	53.9387
5.33968	53.9042
5.33419	53.9401
5.32871	53.8989
5.32324	53.8853
5.31778	53.8723
5.31233	53.8619
5.30689	53.8729
5.30147	53.9295
5.29605	53.9445
5.29065	53.9208
5.28525	53.8505
5.27987	53.8296
5.2745	53.8183
5.26914	53.8236
5.26379	53.8267
5.25845	53.7792
5.25312	53.7125
5.24781	53.7062
5.2425	53.7053
5.23721	53.6658
5.23192	53.6388
5.22665	53.5888
5.22138	53.5622
5.21613	53.5908
5.21089	53.5605
5.20566	53.5184
5.20044	53.5485
5.19522	53.5695
5.19002	53.5425
5.18483	53.4899
5.17965	53.5009
5.17448	53.5008
5.16933	53.4614
5.16418	53.4607
5.15904	53.4508
5.15391	53.4423
5.14879	53.4397
5.14368	53.3707
5.13859	53.2835
5.1335	53.2372
5.12842	53.1388
5.12335	53.0997
5.1183	53.1096
5.11325	53.0747
5.10821	53.0635
5.10318	53.028
5.09817	52.9712
5.09316	52.9817
5.08816	52.9885
5.08317	52.9153
5.07819	52.8991
5.07322	52.9351
5.06826	52.8394
5.06331	52.7891
5.05837	52.7569
5.05344	52.6965
5.04852	52.6373
5.04361	52.6325
5.03871	52.6076
5.03382	52.5598
5.02894	52.513
5.02406	52.4322
5.0192	52.3996
5.01435	52.363
5.0095	52.2655
5.00467	52.2037
4.99984	52.155
4.99502	52.1771
4.99021	52.1505
4.98542	52.0767
4.98063	52.0733
4.97585	52.079
4.97108	52.0305
4.96632	51.9452
4.96156	51.8889
4.95682	51.7971
4.95209	51.699
4.94736	51.6857
4.94264	51.6992
4.93794	51.6747
4.93324	51.5505
4.92855	51.4663
4.92387	51.463
4.9192	51.407
4.91453	51.3106
4.90988	51.25
4.90524	51.1757
4.9006	51.1358
4.89597	51.0807
4.89135	51.02
4.88674	50.9429
4.88214	50.861
4.87755	50.7973
4.87296	50.6942
4.86839	50.5455
4.86382	50.4665
4.85926	50.4705
4.85471	50.4889
4.85017	50.4149
4.84564	50.2665
4.84111	50.1794
4.8366	50.1601
4.83209	50.0527
4.82759	49.9814
4.8231	49.948
4.81862	49.8573
4.81415	49.7633
4.80968	49.6609
4.80522	49.5466
4.80077	49.5334
4.79633	49.4401
4.7919	49.2436
4.78747	49.1282
4.78306	49.0685
4.77865	49.0558
4.77425	48.9909
4.76986	48.8558
4.76547	48.7424
4.7611	48.6667
4.75673	48.5847
4.75237	48.5026
4.74802	48.3465
4.74367	48.3017
4.73934	48.2551
4.73501	48.0819
4.73069	48.0046
4.72638	47.9503
4.72207	47.8101
4.71777	47.6938
4.71348	47.5584
4.7092	47.4136
4.70493	47.3367
4.70066	47.2313
4.69641	47.1375
4.69216	47.0443
4.68791	46.9114
4.68368	46.7463
4.67945	46.6228
4.67523	46.5928
4.67102	46.488
4.66682	46.3644
4.66262	46.1976
4.65843	46.0113
4.65425	45.9022
4.65007	45.7654
4.64591	45.6216
4.64175	45.5485
4.6376	45.463
4.63345	45.3177
4.62932	45.1864
4.62519	45.1079
4.62106	44.9931
4.61695	44.7984
4.61284	44.6545
4.60874	44.5521
4.60465	44.4196
4.60056	44.2859
4.59648	44.1422
4.59241	43.9618
4.58835	43.8034
4.58429	43.6887
4.58024	43.5999
4.5762	43.4618
4.57216	43.31
4.56814	43.2164
4.56411	43.0983
4.5601	42.9097
4.55609	42.6818
4.55209	42.5261
4.5481	42.4642
4.54411	42.2963
4.54013	42.1318
4.53616	42.003
4.5322	41.8481
4.52824	41.7244
4.52429	41.6445
4.52034	41.4921
4.51641	41.3196
4.51247	41.1585
4.50855	40.9929
4.50463	40.7968
4.50072	40.5785
4.49682	40.3961
4.49292	40.2647
4.48903	40.1818
4.48515	40.0211
4.48127	39.8096
4.4774	39.6255
4.47354	39.4868
4.46968	39.2901
4.46584	39.0524
4.46199	38.8675
4.45815	38.7507
4.45432	38.6094
4.4505	38.4847
4.44668	38.3386
4.44287	38.1598
4.43907	38.0344
4.43527	37.9009
4.43148	37.717
4.4277	37.5132
4.42392	37.3329
4.42015	37.1729
4.41638	36.93
4.41262	36.757
4.40887	36.6542
4.40513	36.4993
4.40139	36.3909
4.39765	36.2239
4.39393	35.9551
4.39021	35.78
4.38649	35.5852
4.38278	35.45
4.37908	35.3859
4.37539	35.2169
4.3717	35.0142
4.36801	34.8925
4.36434	34.7241
4.36067	34.4796
4.357	34.2875
4.35335	34.1159
4.34969	33.9085
4.34605	33.6881
4.34241	33.5726
4.33877	33.5045
4.33514	33.3057
4.33152	33.1172
4.32791	32.9706
4.3243	32.7611
4.32069	32.5836
4.3171	32.4441
4.31351	32.2742
4.30992	32.1357
4.30634	31.9675
4.30277	31.7706
4.2992	31.6255
4.29564	31.4518
4.29208	31.2641
4.28853	31.1167
4.28499	30.9848
4.28145	30.8292
4.27792	30.6628
4.27439	30.5045
4.27087	30.3034
4.26735	30.1304
4.26384	29.9616
4.26034	29.7491
4.25684	29.6001
4.25335	29.5132
4.24986	29.3135
4.24638	29.0785
4.24291	28.9082
4.23944	28.7377
4.23598	28.6408
4.23252	28.5156
4.22906	28.3269
4.22562	28.1904
4.22218	28.0768
4.21874	27.8843
4.21531	27.6639
4.21189	27.4101
4.20847	27.1724
4.20506	27.0711
4.20165	26.9598
4.19825	26.7712
4.19485	26.6046
4.19146	26.4145
4.18807	26.3645
4.18469	26.2606
4.18132	25.9983
4.17795	25.7804
4.17458	25.6393
4.17123	25.5037
4.16787	25.3525
4.16453	25.2261
4.16118	25.0866
4.15785	24.9366
4.15451	24.7196
4.15119	24.5586
4.14787	24.4908
4.14455	24.3792
4.14124	24.2074
4.13794	24.0201
4.13464	23.8598
4.13134	23.767
4.12805	23.6403
4.12477	23.4438
4.12149	23.2226
4.11822	23.1367
4.11495	22.9944
4.11168	22.875
4.10843	22.7661
4.10517	22.5361
4.10192	22.3864
4.09868	22.2916
4.09545	22.2182
4.09221	22.1121
4.08899	21.9108
4.08576	21.7904
4.08255	21.6307
4.07933	21.5023
4.07613	21.4485
4.07292	21.3038
4.06973	21.1537
4.06654	20.999
4.06335	20.8587
4.06017	20.6909
4.05699	20.4752
4.05382	20.404
4.05065	20.3687
4.04749	20.3052
4.04433	20.1973
4.04118	20.0306
4.03803	19.8834
4.03489	19.712
4.03175	19.5718
4.02862	19.5046
4.02549	19.3576
4.02237	19.2154
4.01925	19.0917
4.01614	18.9527
4.01303	18.9042
4.00993	18.8283
4.00683	18.7252
4.00373	18.583
4.00064	18.4458
3.99756	18.3304
3.99448	18.1952
3.9914	18.1351
3.98833	18.039
3.98527	17.947
3.98221	17.8054
3.97915	17.6203
3.9761	17.5136
3.97305	17.428
3.97001	17.3674
3.96697	17.2545
3.96394	17.2072
3.96091	17.0754
3.95789	16.8942
3.95487	16.8255
3.95186	16.7534
3.94885	16.7113
3.94584	16.6306
3.94284	16.5717
3.93984	16.4498
3.93685	16.2544
3.93386	16.1726
3.93088	16.1004
3.9279	16.0187
3.92493	15.9697
3.92196	15.8634
3.919	15.8171
3.91604	15.7356
3.91308	15.565
3.91013	15.4187
3.90718	15.2391
3.90424	15.1111
3.9013	15.1832
3.89837	15.2106
3.89544	15.0713
3.89252	14.9748
3.8896	14.8988
3.88668	14.8112
3.88377	14.7535
3.88086	14.6827
3.87796	14.5369
3.87506	14.3973
3.87217	14.2982
3.86928	14.2462
3.86639	14.1886
3.86351	14.0272
3.86064	13.9213
3.85776	13.908
3.8549	13.8946
3.85203	13.8185
3.84917	13.7918
3.84631	13.7611
3.84346	13.6301
3.84062	13.5349
3.83777	13.4088
3.83494	13.3796
3.8321	13.368
3.82927	13.1951
3.82644	13.0002
3.82362	12.9683
3.82081	12.863
3.81799	12.7329
3.81518	12.7479
3.81238	12.8066
3.80958	12.7991
3.80678	12.7291
3.80399	12.5704
3.8012	12.5542
3.79841	12.5288
3.79563	12.4643
3.79286	12.3517
3.79008	12.304
3.78731	12.2311
3.78455	12.1417
3.78179	12.0457
3.77903	11.9875
3.77628	11.9132
3.77353	11.875
3.77079	11.7854
3.76805	11.6622
3.76531	11.6759
3.76258	11.7414
3.75985	11.6603
3.75713	11.5376
3.7544	11.4661
3.75169	11.3985
3.74898	11.3201
3.74627	11.3437
3.74356	11.3156
3.74086	11.2401
3.73816	11.1231
3.73547	11.0436
3.73278	11.0666
3.7301	11.0535
3.72741	10.9621
3.72474	10.8998
3.72206	10.9032
3.71939	10.8705
3.71673	10.8318
3.71406	10.7699
3.71141	10.6445
3.70875	10.5614
3.7061	10.5204
3.70345	10.4683
3.70081	10.3538
3.69817	10.2988
3.69553	10.3154
3.6929	10.4002
3.69027	10.3319
3.68765	10.1828
3.68503	10.1231
3.68241	10.0556
3.6798	10.1239
3.67719	10.2099
3.67458	10.144
3.67198	10.0566
3.66938	9.94532
3.66678	9.86064
3.66419	9.8357
3.66161	9.79369
3.65902	9.78145
3.65644	9.73783
3.65387	9.68257
3.65129	9.69691
3.64872	9.73745
3.64616	9.74887
3.64359	9.79167
3.64103	9.75153
3.63848	9.63849
3.63593	9.54339
3.63338	9.49496
3.63084	9.46544
3.6283	9.4607
3.62576	9.42642
3.62322	9.42374
3.62069	9.38094
3.61817	9.3312
3.61564	9.24988
3.61312	9.23897
3.61061	9.24137
3.6081	9.22942
3.60559	9.23236
3.60308	9.15399
3.60058	9.12879
3.59808	9.0572
3.59558	9.06753
3.59309	9.09382
3.59061	9.05883
3.58812	9.02811
3.58564	9.02094
3.58316	9.02151
3.58069	9.00189
3.57822	8.98445
3.57575	8.95551
3.57328	8.86433
3.57082	8.78393
3.56836	8.75511
3.56591	8.77626
3.56346	8.89948
3.56101	8.99607
3.55857	8.9509
3.55613	8.83034
3.55369	8.7865
3.55126	8.83629
3.54883	8.85961
3.5464	8.72035
3.54397	8.6809
3.54155	8.76382
3.53914	8.78408
3.53672	8.72286
3.53431	8.6521
3.5319	8.69638
3.5295	8.69981
3.5271	8.65696
3.5247	8.68524
3.52231	8.67445
3.51991	8.67335
3.51753	8.69808
3.51514	8.70302
3.51276	8.59807
3.51038	8.60458
3.50801	8.64002
3.50563	8.61399
3.50327	8.54077
3.5009	8.5675
3.49854	8.56428
3.49618	8.51796
3.49382	8.52674
3.49147	8.46694
3.48912	8.4861
3.48677	8.53527
3.48443	8.53784
3.48209	8.59028
3.47975	8.62609
3.47742	8.66026
3.47509	8.684
3.47276	8.60419
3.47044	8.53448
3.46812	8.43249
3.4658	8.48324
3.46348	8.6285
3.46117	8.53022
