Name: Muscovite KAl_2(Si_3Al)O_10(OH,F)_2
Type: Mineral
Class: Silicates
Subclass: Phyllosilicates
Particle Size: 45-125um
Sample No.: PS-16A
Owner: JPL
Wavelength range: IR
Origin: USA, Connecticut
Collected by Ward's
Description: 





Measurement: Hemispherical reflectance
First Column: X
Second Column: Y
X Units:  Wavelength (micrometers)
Y Units:  Reflectance (percent)
First X Value: 15.3853
Last X Value: 2.00032
Number of X Values: 2256
Additional information: ps16aa.txt
 
15.3853	2.66084
15.3397	2.7933
15.2945	3.13104
15.2495	3.19806
15.2048	2.99933
15.1603	3.03005
15.1161	3.14538
15.0722	3.23728
15.0285	3.23015
14.9851	3.31732
14.9419	3.31916
14.8989	2.95865
14.8563	2.85529
14.8138	2.91083
14.7716	3.12022
14.7296	3.20063
14.6879	3.19577
14.6464	3.17648
14.6052	3.52922
14.5641	3.64743
14.5233	3.44793
14.4828	3.31738
14.4424	3.18693
14.4023	3.11584
14.3624	3.19408
14.3227	3.38311
14.2833	3.25125
14.244	3.26832
14.205	3.38887
14.1662	3.75049
14.1276	4.0239
14.0892	3.91234
14.051	3.82574
14.0131	3.93602
13.9753	4.17778
13.9377	4.40197
13.9004	4.47684
13.8632	4.50949
13.8262	4.39712
13.7895	4.14374
13.7529	4.08896
13.7165	4.34825
13.6803	4.45805
13.6443	4.42205
13.6085	4.40823
13.5729	4.40956
13.5374	4.64185
13.5022	4.83074
13.4671	4.7435
13.4322	4.52749
13.3975	4.27015
13.363	4.12257
13.3286	4.1681
13.2944	4.1691
13.2604	4.06154
13.2266	3.88976
13.193	3.8466
13.1595	3.86299
13.1262	3.8422
13.093	3.79932
13.06	3.70322
13.0272	3.55557
12.9946	3.45161
12.9621	3.5429
12.9298	3.69986
12.8976	4.0553
12.8656	4.37661
12.8337	4.69622
12.8021	4.90766
12.7705	5.06071
12.7391	5.10117
12.7079	5.06312
12.6769	5.04244
12.6459	5.15058
12.6152	5.1868
12.5845	5.20079
12.5541	5.13113
12.5238	5.08327
12.4936	5.04976
12.4635	5.02089
12.4337	4.94081
12.4039	4.8282
12.3743	4.73797
12.3448	4.70504
12.3155	4.76854
12.2863	4.91057
12.2573	4.93308
12.2284	5.14897
12.1996	5.44383
12.171	5.43395
12.1425	5.51449
12.1141	5.84374
12.0859	5.99995
12.0578	6.03804
12.0298	6.27846
12.0019	6.45799
11.9742	6.52354
11.9466	6.74259
11.9192	7.13347
11.8918	7.4252
11.8646	7.63301
11.8375	7.79101
11.8106	7.80952
11.7837	7.86081
11.757	8.04811
11.7304	8.17249
11.7039	8.29992
11.6776	8.4213
11.6513	8.429
11.6252	8.3736
11.5992	8.35583
11.5733	8.31954
11.5475	8.22056
11.5219	8.13191
11.4963	8.17889
11.4709	8.08996
11.4455	8.09955
11.4203	8.10124
11.3952	8.07957
11.3702	8.02516
11.3454	7.92801
11.3206	7.99239
11.2959	8.02375
11.2714	7.96653
11.2469	8.03208
11.2226	7.99272
11.1983	7.89964
11.1742	7.90997
11.1502	8.00675
11.1263	8.0578
11.1024	8.03016
11.0787	8.17207
11.0551	8.20927
11.0316	8.17181
11.0081	8.07788
10.9848	7.96655
10.9616	7.65674
10.9385	7.63668
10.9154	7.71455
10.8925	7.79931
10.8697	7.74997
10.8469	7.61774
10.8243	7.58909
10.8017	7.52204
10.7793	7.47486
10.7569	7.47874
10.7346	7.50376
10.7125	7.50336
10.6904	7.37883
10.6684	7.33595
10.6465	7.32892
10.6247	7.40671
10.6029	7.52702
10.5813	7.5905
10.5597	7.70635
10.5383	7.96051
10.5169	8.16778
10.4956	8.37645
10.4744	8.64538
10.4533	8.9834
10.4323	9.31563
10.4113	9.63158
10.3904	9.94411
10.3697	10.2009
10.349	10.5421
10.3284	10.8587
10.3078	11.0632
10.2874	11.3692
10.267	11.757
10.2467	12.1031
10.2265	12.5337
10.2064	12.9652
10.1863	13.3171
10.1663	13.7258
10.1464	14.062
10.1266	14.2971
10.1069	14.4013
10.0872	14.4148
10.0676	14.5112
10.0481	14.7136
10.0287	14.8917
10.0093	15.2014
9.99005	15.4259
9.97084	15.4626
9.95169	15.5085
9.93263	15.7413
9.91364	16.0291
9.89472	16.2579
9.87587	16.4435
9.8571	16.5579
9.83839	16.7036
9.81976	16.9193
9.80119	17.1947
9.78271	17.5541
9.76428	18.0976
9.74592	18.5968
9.72764	19.1716
9.70943	19.9631
9.69128	20.7925
9.6732	21.6196
9.65518	22.24
9.63724	22.7462
9.61935	23.0363
9.60155	22.9603
9.5838	22.6202
9.56611	21.8589
9.5485	20.7419
9.53094	19.4407
9.51345	18.1172
9.49604	17.0932
9.47867	16.337
9.46137	15.7878
9.44414	15.8201
9.42697	16.2186
9.40986	16.7141
9.39281	17.168
9.37583	17.7166
9.35891	18.3589
9.34204	19.0178
9.32524	19.6004
9.3085	20.1978
9.29182	20.5539
9.27519	20.9008
9.25863	21.3914
9.24213	21.8558
9.22568	22.1339
9.2093	22.3429
9.19297	22.4524
9.17669	22.5309
9.16048	22.6343
9.14433	22.5378
9.12823	22.3145
9.11218	21.9994
9.0962	21.6038
9.08027	21.2504
9.06439	21.0934
9.04858	21.0251
9.03281	20.8118
9.0171	20.5899
9.00145	20.4344
8.98585	20.2477
8.9703	20.0376
8.9548	19.7645
8.93937	19.5535
8.92398	19.3403
8.90865	19.0628
8.89337	18.8551
8.87814	18.6815
8.86296	18.5285
8.84784	18.3507
8.83277	18.1189
8.81774	17.8017
8.80277	17.3539
8.78786	17.0179
8.77298	16.849
8.75816	16.492
8.7434	15.8979
8.72868	15.3005
8.714	14.807
8.69938	14.2519
8.68481	13.5759
8.67029	12.8347
8.65581	12.072
8.64139	11.3589
8.62701	10.8436
8.61268	10.7151
8.5984	10.8116
8.58416	10.779
8.56997	10.6163
8.55583	10.477
8.54174	10.2331
8.52769	9.94943
8.51368	9.76848
8.49973	9.67836
8.48582	9.53747
8.47195	9.37688
8.45813	9.2616
8.44436	9.12537
8.43062	9.02061
8.41693	8.89745
8.4033	8.77255
8.3897	8.55935
8.37614	8.52739
8.36264	8.47957
8.34917	8.30215
8.33574	8.15629
8.32236	8.02984
8.30903	7.97637
8.29573	7.89434
8.28248	7.58869
8.26927	7.44941
8.2561	7.41016
8.24298	7.25213
8.2299	7.12874
8.21685	7.00319
8.20385	6.83854
8.19089	6.62226
8.17797	6.44698
8.16509	6.09431
8.15225	5.71809
8.13946	5.31621
8.1267	5.0564
8.11398	4.91645
8.10131	4.59545
8.08867	4.23169
8.07606	3.98529
8.0635	3.72676
8.05099	3.44913
8.0385	3.32331
8.02606	3.32366
8.01366	3.25081
8.00129	3.07215
7.98896	2.90033
7.97667	2.80093
7.96442	2.81489
7.9522	2.78186
7.94002	2.71245
7.92788	2.60706
7.91578	2.42445
7.90371	2.40322
7.89168	2.51403
7.87969	2.50321
7.86773	2.50424
7.85581	2.59933
7.84392	2.5843
7.83207	2.67538
7.82026	2.74303
7.80849	2.75495
7.79674	2.74595
7.78503	2.67188
7.77337	2.69099
7.76173	2.78943
7.75012	2.88837
7.73856	3.01125
7.72703	2.95931
7.71553	2.89978
7.70406	3.05012
7.69263	3.19335
7.68123	3.2715
7.66987	3.32851
7.65855	3.43774
7.64725	3.47788
7.63598	3.39379
7.62475	3.52364
7.61356	3.62307
7.60239	3.67526
7.59126	3.81349
7.58017	3.8925
7.5691	3.9447
7.55806	4.10721
7.54707	4.22922
7.5361	4.37789
7.52516	4.45854
7.51425	4.43321
7.50338	4.37711
7.49253	4.48329
7.48172	4.65018
7.47094	4.67493
7.46019	4.72186
7.44947	4.88118
7.43879	4.96005
7.42813	4.93837
7.4175	4.94687
7.4069	5.1134
7.39634	5.19301
7.3858	5.28123
7.37529	5.4534
7.36482	5.54334
7.35437	5.58847
7.34396	5.64772
7.33357	5.65248
7.32321	5.61429
7.31288	5.67406
7.30258	5.8456
7.29231	5.9217
7.28207	5.98333
7.27185	6.1197
7.26167	6.21082
7.25152	6.21463
7.24139	6.2866
7.23129	6.42765
7.22122	6.55095
7.21117	6.62275
7.20116	6.68769
7.19117	6.78871
7.18121	6.94431
7.17128	7.04895
7.16137	7.089
7.1515	7.17039
7.14164	7.25746
7.13182	7.2532
7.12203	7.372
7.11225	7.47772
7.10251	7.53412
7.0928	7.63442
7.08311	7.69201
7.07344	7.79795
7.06381	7.89151
7.0542	7.94901
7.04461	8.02769
7.03506	8.0431
7.02552	8.1366
7.01601	8.28187
7.00653	8.41929
6.99708	8.40867
6.98765	8.42645
6.97824	8.46624
6.96886	8.62824
6.95951	8.84112
6.95018	8.74991
6.94087	8.68504
6.9316	8.83461
6.92234	9.00367
6.91311	9.16235
6.90391	9.29518
6.89473	9.39141
6.88557	9.52303
6.87644	9.59245
6.86733	9.72514
6.85824	9.82268
6.84918	9.82263
6.84015	9.91682
6.83114	10.0348
6.82215	10.0613
6.81319	10.0829
6.80424	10.1678
6.79532	10.3532
6.78643	10.4711
6.77756	10.4207
6.76871	10.4423
6.75989	10.5087
6.75109	10.5063
6.74231	10.5707
6.73355	10.7141
6.72482	10.8153
6.71611	10.8842
6.70742	10.8553
6.69875	10.8438
6.69011	10.9989
6.68149	11.1893
6.67289	11.2871
6.66431	11.2994
6.65576	11.328
6.64722	11.5488
6.63871	11.802
6.63022	11.7675
6.62175	11.6991
6.61331	11.7478
6.60488	11.6996
6.59648	11.7489
6.5881	11.8532
6.57974	11.8832
6.5714	11.9837
6.56308	11.981
6.55478	11.9904
6.54651	12.073
6.53825	12.1695
6.53001	12.2845
6.5218	12.5092
6.51361	12.6002
6.50544	12.8076
6.49729	13.1711
6.48915	13.3234
6.48104	13.3183
6.47295	13.3059
6.46488	13.3594
6.45683	13.4817
6.4488	13.5993
6.44079	13.7003
6.4328	13.7667
6.42482	13.8109
6.41687	14.0924
6.40894	14.0126
6.40103	13.6885
6.39314	13.5814
6.38526	13.5393
6.37741	13.4766
6.36957	13.3894
6.36176	13.2402
6.35396	13.1632
6.34618	13.183
6.33843	13.0854
6.33069	13.0101
6.32297	12.9506
6.31527	12.7984
6.30758	12.6587
6.29992	12.5769
6.29227	12.4414
6.28465	12.401
6.27704	12.4432
6.26945	12.3538
6.26188	12.1984
6.25432	12.1131
6.24679	12.1173
6.23927	12.0403
6.23177	11.9696
6.22429	11.9521
6.21683	11.9612
6.20938	11.938
6.20195	11.9179
6.19454	11.9297
6.18715	11.9934
6.17978	11.9351
6.17242	11.8377
6.16508	11.8997
6.15776	11.9752
6.15045	12.0236
6.14317	12.1448
6.1359	12.1664
6.12864	12.1912
6.12141	12.3041
6.11419	12.407
6.10699	12.3218
6.0998	12.3001
6.09263	12.3909
6.08549	12.4789
6.07835	12.6579
6.07123	12.6593
6.06413	12.4459
6.05705	12.4566
6.04998	12.7709
6.04293	12.6725
6.0359	12.4675
6.02888	12.4008
6.02187	12.3636
6.01489	12.3873
6.00792	12.3596
6.00096	12.3327
5.99403	12.4131
5.98711	12.407
5.9802	12.3618
5.97331	12.3585
5.96644	12.3207
5.95958	12.2004
5.95274	12.1337
5.94591	12.1382
5.9391	12.2921
5.9323	12.2711
5.92552	12.1534
5.91876	12.1378
5.91201	12.1434
5.90528	12.219
5.89856	12.4764
5.89186	12.542
5.88517	12.6062
5.8785	12.7107
5.87184	12.6685
5.8652	12.7379
5.85857	12.7526
5.85196	12.7575
5.84536	12.8073
5.83878	12.9213
5.83221	13.1655
5.82566	13.3688
5.81912	13.3252
5.81259	13.2085
5.80608	13.1844
5.79959	13.1759
5.79311	13.1728
5.78665	13.183
5.78019	13.2068
5.77376	13.3234
5.76734	13.519
5.76093	13.4042
5.75453	13.1931
5.74815	13.1522
5.74179	13.1519
5.73543	13.1341
5.7291	13.1224
5.72277	13.1424
5.71646	13.106
5.71017	13.1179
5.70389	13.1128
5.69762	13.0395
5.69136	13.0122
5.68513	12.9693
5.6789	12.8915
5.67268	12.8682
5.66648	12.8731
5.6603	12.8473
5.65413	12.746
5.64797	12.6408
5.64182	12.603
5.63569	12.5519
5.62957	12.4635
5.62347	12.4033
5.61737	12.3525
5.61129	12.325
5.60522	12.2906
5.59917	12.2258
5.59313	12.114
5.5871	12.0606
5.58109	12.0844
5.57509	12.0801
5.5691	12.0346
5.56312	12.0271
5.55716	12.0382
5.55121	12.137
5.54528	12.2158
5.53935	12.2549
5.53344	12.2993
5.52754	12.4123
5.52166	12.524
5.51578	12.7458
5.50992	12.8426
5.50407	12.8626
5.49823	12.9356
5.49241	13.1373
5.4866	13.3144
5.4808	13.4507
5.47501	13.5282
5.46923	13.5587
5.46347	13.6225
5.45772	13.6381
5.45198	13.6799
5.44625	13.802
5.44054	13.8987
5.43484	13.9148
5.42914	13.9988
5.42347	14.1535
5.4178	14.1286
5.41214	14.0402
5.4065	13.9981
5.40087	14.0455
5.39525	14.1471
5.38964	14.164
5.38404	14.1162
5.37846	14.1276
5.37288	14.2119
5.36732	14.3032
5.36177	14.3784
5.35623	14.4659
5.35071	14.5885
5.34519	14.6961
5.33968	14.7738
5.33419	14.8678
5.32871	14.9371
5.32324	15.0122
5.31778	15.1657
5.31233	15.3256
5.30689	15.4429
5.30147	15.5724
5.29605	15.7492
5.29065	15.9177
5.28525	16.0617
5.27987	16.2923
5.2745	16.4915
5.26914	16.6962
5.26379	16.8714
5.25845	17.0451
5.25312	17.304
5.24781	17.5271
5.2425	17.728
5.23721	18.0694
5.23192	18.3947
5.22665	18.6541
5.22138	18.867
5.21613	19.2071
5.21089	19.4987
5.20566	19.689
5.20044	19.8901
5.19522	20.1193
5.19002	20.2661
5.18483	20.3609
5.17965	20.6026
5.17448	20.8827
5.16933	21.0441
5.16418	21.2093
5.15904	21.4134
5.15391	21.499
5.14879	21.5764
5.14368	21.7777
5.13859	22.0443
5.1335	22.2118
5.12842	22.3384
5.12335	22.4794
5.1183	22.6395
5.11325	22.8173
5.10821	23.0203
5.10318	23.1624
5.09817	23.2047
5.09316	23.3123
5.08816	23.4365
5.08317	23.5031
5.07819	23.554
5.07322	23.5999
5.06826	23.6561
5.06331	23.7314
5.05837	23.8396
5.05344	23.893
5.04852	23.9079
5.04361	23.9308
5.03871	24.0242
5.03382	24.1131
5.02894	24.1187
5.02406	24.1595
5.0192	24.2346
5.01435	24.2067
5.0095	24.2216
5.00467	24.2391
4.99984	24.2811
4.99502	24.3424
4.99021	24.4823
4.98542	24.724
4.98063	24.8971
4.97585	25.0958
4.97108	25.3405
4.96632	25.6334
4.96156	26.0576
4.95682	26.3793
4.95209	26.5268
4.94736	26.6678
4.94264	26.8337
4.93794	27.0048
4.93324	27.0623
4.92855	27.0946
4.92387	27.1611
4.9192	27.2472
4.91453	27.285
4.90988	27.4436
4.90524	27.7424
4.9006	28.0509
4.89597	28.3334
4.89135	28.6499
4.88674	28.9728
4.88214	29.2646
4.87755	29.5303
4.87296	29.7971
4.86839	30.0812
4.86382	30.3688
4.85926	30.5701
4.85471	30.7388
4.85017	30.9374
4.84564	31.1544
4.84111	31.3706
4.8366	31.5356
4.83209	31.6107
4.82759	31.6847
4.8231	31.7702
4.81862	31.8545
4.81415	31.903
4.80968	31.9399
4.80522	31.9327
4.80077	31.9077
4.79633	31.8855
4.7919	31.8812
4.78747	31.8277
4.78306	31.8662
4.77865	31.9158
4.77425	32.0272
4.76986	32.27
4.76547	32.5089
4.7611	32.6605
4.75673	32.825
4.75237	33.0227
4.74802	33.1917
4.74367	33.3222
4.73934	33.4988
4.73501	33.6163
4.73069	33.7826
4.72638	33.9926
4.72207	34.1014
4.71777	34.2695
4.71348	34.4626
4.7092	34.6333
4.70493	34.6638
4.70066	34.6492
4.69641	34.777
4.69216	34.836
4.68791	34.9625
4.68368	35.1543
4.67945	35.3315
4.67523	35.4896
4.67102	35.6111
4.66682	35.7907
4.66262	35.9818
4.65843	36.1638
4.65425	36.3923
4.65007	36.5964
4.64591	36.7124
4.64175	36.9837
4.6376	37.313
4.63345	37.5053
4.62932	37.8076
4.62519	38.1927
4.62106	38.4623
4.61695	38.6523
4.61284	38.8964
4.60874	39.1812
4.60465	39.4829
4.60056	39.6786
4.59648	39.7686
4.59241	39.8789
4.58835	40.0726
4.58429	40.249
4.58024	40.3462
4.5762	40.5072
4.57216	40.714
4.56814	40.9288
4.56411	41.0746
4.5601	41.1633
4.55609	41.3138
4.55209	41.4396
4.5481	41.5463
4.54411	41.6695
4.54013	41.7719
4.53616	41.8169
4.5322	41.8569
4.52824	41.971
4.52429	42.1247
4.52034	42.1486
4.51641	42.1896
4.51247	42.2502
4.50855	42.2908
4.50463	42.3413
4.50072	42.4802
4.49682	42.6037
4.49292	42.6556
4.48903	42.7209
4.48515	42.8488
4.48127	42.9094
4.4774	43.0005
4.47354	43.1437
4.46968	43.2779
4.46584	43.4005
4.46199	43.5266
4.45815	43.7146
4.45432	43.9488
4.4505	44.0696
4.44668	44.2721
4.44287	44.4635
4.43907	44.4698
4.43527	44.5603
4.43148	44.8075
4.4277	44.9404
4.42392	45.0999
4.42015	45.2331
4.41638	45.3108
4.41262	45.4341
4.40887	45.5894
4.40513	45.7365
4.40139	45.9247
4.39765	46.1123
4.39393	46.2859
4.39021	46.3843
4.38649	46.5222
4.38278	46.6575
4.37908	46.7293
4.37539	46.7993
4.3717	46.8973
4.36801	47.0232
4.36434	47.1027
4.36067	47.2436
4.357	47.3721
4.35335	47.4473
4.34969	47.5266
4.34605	47.5322
4.34241	47.5696
4.33877	47.6525
4.33514	47.6986
4.33152	47.7788
4.32791	47.8175
4.3243	47.8217
4.32069	47.8413
4.3171	47.8283
4.31351	47.8963
4.30992	47.9968
4.30634	47.9426
4.30277	47.9399
4.2992	47.9777
4.29564	47.9613
4.29208	48.0144
4.28853	48.022
4.28499	48.0808
4.28145	48.1575
4.27792	48.1525
4.27439	48.1469
4.27087	48.162
4.26735	48.1469
4.26384	48.1366
4.26034	48.2044
4.25684	48.3214
4.25335	48.3279
4.24986	48.3023
4.24638	48.3242
4.24291	48.2882
4.23944	48.3158
4.23598	48.337
4.23252	48.3688
4.22906	48.4375
4.22562	48.4549
4.22218	48.4318
4.21874	48.3993
4.21531	48.4221
4.21189	48.4911
4.20847	48.489
4.20506	48.4668
4.20165	48.4453
4.19825	48.4146
4.19485	48.4268
4.19146	48.4317
4.18807	48.4396
4.18469	48.4763
4.18132	48.5414
4.17795	48.4912
4.17458	48.4646
4.17123	48.4417
4.16787	48.4411
4.16453	48.4892
4.16118	48.4947
4.15785	48.4934
4.15451	48.5156
4.15119	48.5467
4.14787	48.5806
4.14455	48.6088
4.14124	48.5896
4.13794	48.5561
4.13464	48.5764
4.13134	48.5789
4.12805	48.5149
4.12477	48.515
4.12149	48.5425
4.11822	48.6162
4.11495	48.631
4.11168	48.6573
4.10843	48.7074
4.10517	48.7111
4.10192	48.7082
4.09868	48.713
4.09545	48.7371
4.09221	48.7395
4.08899	48.6945
4.08576	48.6579
4.08255	48.7509
4.07933	48.8223
4.07613	48.8279
4.07292	48.8316
4.06973	48.8927
4.06654	48.9066
4.06335	48.8736
4.06017	48.855
4.05699	48.8391
4.05382	48.8746
4.05065	48.9615
4.04749	49.0207
4.04433	49.0214
4.04118	48.9573
4.03803	48.987
4.03489	49.0059
4.03175	48.9688
4.02862	48.9793
4.02549	49.0185
4.02237	49.0088
4.01925	49.0462
4.01614	49.043
4.01303	49.0315
4.00993	49.0912
4.00683	49.106
4.00373	49.1177
4.00064	49.1036
3.99756	49.0949
3.99448	49.1936
3.9914	49.2291
3.98833	49.2419
3.98527	49.2049
3.98221	49.1831
3.97915	49.2183
3.9761	49.2316
3.97305	49.249
3.97001	49.3948
3.96697	49.53
3.96394	49.5845
3.96091	49.5412
3.95789	49.5122
3.95487	49.4967
3.95186	49.5536
3.94885	49.6357
3.94584	49.6295
3.94284	49.609
3.93984	49.6694
3.93685	49.7049
3.93386	49.6932
3.93088	49.7639
3.9279	49.831
3.92493	49.8079
3.92196	49.7959
3.919	49.782
3.91604	49.8179
3.91308	49.9254
3.91013	49.9315
3.90718	49.9265
3.90424	49.97
3.9013	49.9607
3.89837	49.9278
3.89544	49.9127
3.89252	49.9151
3.8896	49.9183
3.88668	49.9368
3.88377	49.9723
3.88086	49.9761
3.87796	49.9641
3.87506	49.9346
3.87217	49.8797
3.86928	49.8874
3.86639	49.8685
3.86351	49.8921
3.86064	49.9871
3.85776	49.9566
3.8549	49.8766
3.85203	49.8468
3.84917	49.7901
3.84631	49.7842
3.84346	49.823
3.84062	49.7991
3.83777	49.7274
3.83494	49.7085
3.8321	49.7345
3.82927	49.7082
3.82644	49.7417
3.82362	49.7734
3.82081	49.7295
3.81799	49.7231
3.81518	49.6452
3.81238	49.5666
3.80958	49.562
3.80678	49.5231
3.80399	49.47
3.8012	49.4727
3.79841	49.4572
3.79563	49.3614
3.79286	49.2582
3.79008	49.255
3.78731	49.2848
3.78455	49.2173
3.78179	49.1543
3.77903	49.0976
3.77628	48.9959
3.77353	48.907
3.77079	48.8951
3.76805	48.8223
3.76531	48.6941
3.76258	48.612
3.75985	48.5501
3.75713	48.4655
3.7544	48.3739
3.75169	48.2214
3.74898	48.1289
3.74627	48.0692
3.74356	47.9409
3.74086	47.8535
3.73816	47.711
3.73547	47.6739
3.73278	47.6561
3.7301	47.5324
3.72741	47.357
3.72474	47.2441
3.72206	47.2338
3.71939	47.1386
3.71673	47.0637
3.71406	47.1063
3.71141	47.0867
3.70875	46.9349
3.7061	46.8749
3.70345	46.9075
3.70081	46.8685
3.69817	46.8632
3.69553	46.8018
3.6929	46.7415
3.69027	46.6128
3.68765	46.5034
3.68503	46.4443
3.68241	46.409
3.6798	46.421
3.67719	46.4143
3.67458	46.385
3.67198	46.3111
3.66938	46.2172
3.66678	46.15
3.66419	46.1399
3.66161	46.1169
3.65902	46.0083
3.65644	45.9847
3.65387	45.9423
3.65129	45.7819
3.64872	45.6885
3.64616	45.7584
3.64359	45.7827
3.64103	45.7179
3.63848	45.5961
3.63593	45.5042
3.63338	45.4505
3.63084	45.4081
3.6283	45.3144
3.62576	45.2247
3.62322	45.2649
3.62069	45.2898
3.61817	45.1969
3.61564	45.1189
3.61312	45.1142
3.61061	45.0189
3.6081	44.9027
3.60559	44.788
3.60308	44.694
3.60058	44.5896
3.59808	44.472
3.59558	44.3928
3.59309	44.3965
3.59061	44.3885
3.58812	44.2858
3.58564	44.1626
3.58316	44.0559
3.58069	43.9182
3.57822	43.8079
3.57575	43.7729
3.57328	43.6333
3.57082	43.5747
3.56836	43.5742
3.56591	43.4469
3.56346	43.3666
3.56101	43.4127
3.55857	43.3396
3.55613	43.1187
3.55369	42.95
3.55126	42.8984
3.54883	42.7994
3.5464	42.8121
3.54397	42.7718
3.54155	42.6529
3.53914	42.6496
3.53672	42.5693
3.53431	42.4672
3.5319	42.3558
3.5295	42.2408
3.5271	42.1515
3.5247	42.1712
3.52231	42.1285
3.51991	41.9393
3.51753	41.8294
3.51514	41.7336
3.51276	41.6548
3.51038	41.6155
3.50801	41.5371
3.50563	41.5057
3.50327	41.4142
3.5009	41.3596
3.49854	41.2968
3.49618	41.1922
3.49382	41.0925
3.49147	41.0533
3.48912	41.0281
3.48677	40.9383
3.48443	40.833
3.48209	40.7906
3.47975	40.7137
3.47742	40.581
3.47509	40.4813
3.47276	40.5168
3.47044	40.4753
3.46812	40.3766
3.4658	40.2415
3.46348	40.1581
