Name: Andesite Breccia
Type: Rock
Class: Igneous
Subclass:  Intermediate 
Particle Size: Solid surface
Sample No.: Ward28.txt
Owner: JPL
Wavelength range:  VNIR SWIR IR  
Origin: Ward's Collection of American Rocks.  Sample locality - Ouray, ouray County, Colorado.
Collected by:  Ward's Natural Science
Description: A compact rock with angular fragments of varicolored green
and purple extrusive material embedded in a variegated gray-green to
purple groundmass.
Geologic age - Tertiary (Eocene).


Measurement: Hemispherical reflectance
First Column: X
Second Column: Y
X Units: Wavelength (micrometers)
Y Units: Reflectance (percent)
First X Value: 2.500
Last X Value: 0.400
Number of X Values: 2101
Additional information: None

2.500  26.301151
2.499  26.375313
2.498  26.192745
2.497  26.577415
2.496  26.020755
2.495  26.679381
2.494  26.300789
2.493  26.362297
2.492  26.436335
2.491  26.495462
2.490  26.211605
2.489  26.729780
2.488  26.436629
2.487  26.523430
2.486  26.437045
2.485  26.514560
2.484  26.340611
2.483  26.604636
2.482  26.604435
2.481  26.780329
2.480  26.549246
2.479  26.758999
2.478  26.698653
2.477  26.731976
2.476  26.616209
2.475  26.769252
2.474  26.759801
2.473  26.859834
2.472  26.737647
2.471  26.847377
2.470  26.836120
2.469  26.956791
2.468  26.924044
2.467  26.945182
2.466  26.777549
2.465  26.956372
2.464  27.010124
2.463  27.032699
2.462  27.042875
2.461  27.066887
2.460  27.096945
2.459  27.253017
2.458  27.135384
2.457  27.250321
2.456  27.110254
2.455  27.223478
2.454  27.229379
2.453  27.385266
2.452  27.305628
2.451  27.383000
2.450  27.329704
2.449  27.397513
2.448  27.383782
2.447  27.508587
2.446  27.321776
2.445  27.542428
2.444  27.466966
2.443  27.495354
2.442  27.568243
2.441  27.685329
2.440  27.615111
2.439  27.734565
2.438  27.689180
2.437  27.716213
2.436  27.743357
2.435  27.746235
2.434  27.711036
2.433  27.899176
2.432  27.895215
2.431  28.006243
2.430  27.906865
2.429  27.951712
2.428  28.007627
2.427  28.074724
2.426  28.037155
2.425  28.170806
2.424  28.151610
2.423  28.296355
2.422  28.253178
2.421  28.282533
2.420  28.251382
2.419  28.361655
2.418  28.246192
2.417  28.278419
2.416  28.290354
2.415  28.309637
2.414  28.289166
2.413  28.378888
2.412  28.367831
2.411  28.341857
2.410  28.303058
2.409  28.378575
2.408  28.361856
2.407  28.386129
2.406  28.326566
2.405  28.322662
2.404  28.337793
2.403  28.421469
2.402  28.328246
2.401  28.368354
2.400  28.260783
2.399  28.277864
2.398  28.312140
2.397  28.314560
2.396  28.237599
2.395  28.219167
2.394  28.133739
2.393  28.175156
2.392  28.089853
2.391  28.105869
2.390  28.016563
2.389  27.994432
2.388  27.997695
2.387  27.906594
2.386  27.827850
2.385  27.803753
2.384  27.637681
2.383  27.648508
2.382  27.585093
2.381  27.457897
2.380  27.408375
2.379  27.386929
2.378  27.246916
2.377  27.111910
2.376  27.015626
2.375  26.941868
2.374  26.879860
2.373  26.808435
2.372  26.614766
2.371  26.485579
2.370  26.369187
2.369  26.270335
2.368  26.105344
2.367  25.969432
2.366  25.850734
2.365  25.678244
2.364  25.500311
2.363  25.379869
2.362  25.219800
2.361  25.023439
2.360  24.853406
2.359  24.647563
2.358  24.523514
2.357  24.405199
2.356  24.187731
2.355  24.009892
2.354  23.884124
2.353  23.730838
2.352  23.608138
2.351  23.502584
2.350  23.395455
2.349  23.244462
2.348  23.152827
2.347  23.079991
2.346  22.971321
2.345  22.828542
2.344  22.811418
2.343  22.796917
2.342  22.720693
2.341  22.716700
2.340  22.761832
2.339  22.754260
2.338  22.802669
2.337  22.791573
2.336  22.878116
2.335  22.966273
2.334  23.025122
2.333  23.109393
2.332  23.248421
2.331  23.313789
2.330  23.455310
2.329  23.608467
2.328  23.758911
2.327  23.838166
2.326  23.986482
2.325  24.105218
2.324  24.343361
2.323  24.441052
2.322  24.637677
2.321  24.775821
2.320  24.904596
2.319  25.029481
2.318  25.231566
2.317  25.370192
2.316  25.581801
2.315  25.729087
2.314  25.886041
2.313  26.088061
2.312  26.385201
2.311  26.468528
2.310  26.592931
2.309  26.696623
2.308  26.839012
2.307  26.969384
2.306  27.180237
2.305  27.293322
2.304  27.446859
2.303  27.528568
2.302  27.758982
2.301  27.800632
2.300  28.007510
2.299  28.138946
2.298  28.236972
2.297  28.261626
2.296  28.399953
2.295  28.472786
2.294  28.638081
2.293  28.699608
2.292  28.883963
2.291  28.934929
2.290  29.000197
2.289  29.005077
2.288  29.165833
2.287  29.152974
2.286  29.260551
2.285  29.272979
2.284  29.334022
2.283  29.315745
2.282  29.426486
2.281  29.388254
2.280  29.431249
2.279  29.446746
2.278  29.525010
2.277  29.470545
2.276  29.456152
2.275  29.347833
2.274  29.430856
2.273  29.305094
2.272  29.281302
2.271  29.156685
2.270  29.145570
2.269  29.049312
2.268  28.975093
2.267  28.860977
2.266  28.772216
2.265  28.629988
2.264  28.626474
2.263  28.499722
2.262  28.456118
2.261  28.253978
2.260  28.305534
2.259  28.022766
2.258  27.978336
2.257  27.991714
2.256  27.913823
2.255  27.812542
2.254  27.884710
2.253  27.841025
2.252  27.836163
2.251  27.920948
2.250  27.996861
2.249  28.018891
2.248  28.179141
2.247  28.266669
2.246  28.375278
2.245  28.452199
2.244  28.729044
2.243  28.728152
2.242  28.896177
2.241  29.066952
2.240  29.230350
2.239  29.259731
2.238  29.566193
2.237  29.603053
2.236  29.798867
2.235  29.684094
2.234  29.986309
2.233  29.906952
2.232  29.995386
2.231  29.923456
2.230  30.086816
2.229  30.095184
2.228  30.153052
2.227  30.139941
2.226  30.097022
2.225  30.010143
2.224  30.036532
2.223  29.958862
2.222  30.106982
2.221  29.900816
2.220  30.037139
2.219  29.894379
2.218  30.004390
2.217  29.978205
2.216  30.072614
2.215  29.996719
2.214  30.065845
2.213  30.069203
2.212  30.332087
2.211  30.121868
2.210  30.356509
2.209  30.391240
2.208  30.519726
2.207  30.587168
2.206  30.754602
2.205  30.848233
2.204  31.036689
2.203  31.065238
2.202  31.277082
2.201  31.452339
2.200  31.563489
2.199  31.653329
2.198  31.896308
2.197  31.917787
2.196  32.151487
2.195  32.232084
2.194  32.393042
2.193  32.511844
2.192  32.706024
2.191  32.838471
2.190  32.983598
2.189  33.106076
2.188  33.232449
2.187  33.325958
2.186  33.505035
2.185  33.585811
2.184  33.678744
2.183  33.773604
2.182  33.946288
2.181  34.060192
2.180  34.138201
2.179  34.131706
2.178  34.254713
2.177  34.329250
2.176  34.452857
2.175  34.421819
2.174  34.592389
2.173  34.600674
2.172  34.682591
2.171  34.667718
2.170  34.793606
2.169  34.847906
2.168  34.928380
2.167  34.923435
2.166  34.926847
2.165  34.996130
2.164  35.133286
2.163  35.080254
2.162  35.111902
2.161  35.151775
2.160  35.220366
2.159  35.187154
2.158  35.307067
2.157  35.327033
2.156  35.362058
2.155  35.277659
2.154  35.382102
2.153  35.286255
2.152  35.336956
2.151  35.396586
2.150  35.398990
2.149  35.415488
2.148  35.458239
2.147  35.421996
2.146  35.446492
2.145  35.406972
2.144  35.486971
2.143  35.436712
2.142  35.442748
2.141  35.416908
2.140  35.490997
2.139  35.430348
2.138  35.383000
2.137  35.384626
2.136  35.456277
2.135  35.423139
2.134  35.374316
2.133  35.369477
2.132  35.401177
2.131  35.254768
2.130  35.342826
2.129  35.273243
2.128  35.307387
2.127  35.260302
2.126  35.288169
2.125  35.254627
2.124  35.225580
2.123  35.164882
2.122  35.161023
2.121  35.118010
2.120  35.135106
2.119  35.114321
2.118  35.154772
2.117  35.087635
2.116  35.076684
2.115  35.024494
2.114  35.080972
2.113  35.041059
2.112  35.009841
2.111  35.024535
2.110  35.041012
2.109  34.972105
2.108  34.975529
2.107  34.989684
2.106  34.996424
2.105  34.961328
2.104  34.951923
2.103  34.937596
2.102  34.911657
2.101  34.872409
2.100  34.947553
2.099  34.982781
2.098  34.959122
2.097  34.933322
2.096  34.966360
2.095  34.938146
2.094  34.967055
2.093  34.984640
2.092  34.939416
2.091  34.799888
2.090  34.836536
2.089  34.975377
2.088  34.956426
2.087  34.996290
2.086  34.973148
2.085  34.936224
2.084  34.931238
2.083  34.937038
2.082  34.993602
2.081  34.988994
2.080  34.989540
2.079  34.942676
2.078  34.902224
2.077  34.902758
2.076  34.925304
2.075  34.927784
2.074  34.965298
2.073  34.923014
2.072  34.864483
2.071  34.886096
2.070  34.903017
2.069  34.929064
2.068  34.908363
2.067  34.882137
2.066  34.822861
2.065  34.806054
2.064  34.815360
2.063  34.848020
2.062  34.830947
2.061  34.766118
2.060  34.801664
2.059  34.778719
2.058  34.749499
2.057  34.760757
2.056  34.719258
2.055  34.695270
2.054  34.686555
2.053  34.666091
2.052  34.675692
2.051  34.664092
2.050  34.617062
2.049  34.599801
2.048  34.607753
2.047  34.593491
2.046  34.579164
2.045  34.552220
2.044  34.515575
2.043  34.531398
2.042  34.493175
2.041  34.510502
2.040  34.435001
2.039  34.419619
2.038  34.389184
2.037  34.365983
2.036  34.303512
2.035  34.312940
2.034  34.293576
2.033  34.288753
2.032  34.236077
2.031  34.230483
2.030  34.216873
2.029  34.166689
2.028  34.116805
2.027  34.152274
2.026  34.039911
2.025  34.079202
2.024  34.097269
2.023  34.070239
2.022  33.955492
2.021  33.930905
2.020  33.929397
2.019  33.895526
2.018  33.805332
2.017  33.846679
2.016  33.815193
2.015  33.768675
2.014  33.708784
2.013  33.823095
2.012  33.754877
2.011  33.773819
2.010  33.698990
2.009  33.695642
2.008  33.599677
2.007  33.669064
2.006  33.598901
2.005  33.657664
2.004  33.632191
2.003  33.675721
2.002  33.604708
2.001  33.671450
2.000  33.588465
1.999  33.610316
1.998  33.515553
1.997  33.563663
1.996  33.507417
1.995  33.616825
1.994  33.568397
1.993  33.631192
1.992  33.498975
1.991  33.593995
1.990  33.525870
1.989  33.529399
1.988  33.494613
1.987  33.648787
1.986  33.517088
1.985  33.527316
1.984  33.517930
1.983  33.578395
1.982  33.502880
1.981  33.603230
1.980  33.562523
1.979  33.601450
1.978  33.581342
1.977  33.588453
1.976  33.520251
1.975  33.532330
1.974  33.501848
1.973  33.536752
1.972  33.511942
1.971  33.595861
1.970  33.477393
1.969  33.599006
1.968  33.544645
1.967  33.464644
1.966  33.454187
1.965  33.553645
1.964  33.582991
1.963  33.531686
1.962  33.500332
1.961  33.479751
1.960  33.477293
1.959  33.475636
1.958  33.450434
1.957  33.440757
1.956  33.398030
1.955  33.524587
1.954  33.397789
1.953  33.481473
1.952  33.443351
1.951  33.511222
1.950  33.494166
1.949  33.444338
1.948  33.499316
1.947  33.516963
1.946  33.468316
1.945  33.598972
1.944  33.445203
1.943  33.609594
1.942  33.410757
1.941  33.660590
1.940  33.519480
1.939  33.481397
1.938  33.508804
1.937  33.595511
1.936  33.505554
1.935  33.575390
1.934  33.513844
1.933  33.680594
1.932  33.517370
1.931  33.649458
1.930  33.597023
1.929  33.602704
1.928  33.539361
1.927  33.738540
1.926  33.456427
1.925  33.687779
1.924  33.559813
1.923  33.594020
1.922  33.557936
1.921  33.580373
1.920  33.523546
1.919  33.618538
1.918  33.490680
1.917  33.725192
1.916  33.511977
1.915  33.548472
1.914  33.591077
1.913  33.587421
1.912  33.567988
1.911  33.617572
1.910  33.497270
1.909  33.654486
1.908  33.633580
1.907  33.605709
1.906  33.561766
1.905  33.609066
1.904  33.593256
1.903  33.711588
1.902  33.652655
1.901  33.655245
1.900  33.663602
1.899  33.629687
1.898  33.606845
1.897  33.802179
1.896  33.617907
1.895  33.741494
1.894  33.635499
1.893  33.719642
1.892  33.706867
1.891  33.686104
1.890  33.653245
1.889  33.659501
1.888  33.681742
1.887  33.670625
1.886  33.638426
1.885  33.720147
1.884  33.689788
1.883  33.721918
1.882  33.698783
1.881  33.750039
1.880  33.648511
1.879  33.687895
1.878  33.693668
1.877  33.793752
1.876  33.750585
1.875  33.854706
1.874  33.819677
1.873  33.896489
1.872  33.845986
1.871  33.858147
1.870  33.810550
1.869  33.804374
1.868  33.832855
1.867  33.846938
1.866  33.774338
1.865  33.826398
1.864  33.745075
1.863  33.815855
1.862  33.803029
1.861  33.748990
1.860  33.677812
1.859  33.776471
1.858  33.718323
1.857  33.748638
1.856  33.681782
1.855  33.728316
1.854  33.742020
1.853  33.779100
1.852  33.688453
1.851  33.742194
1.850  33.653084
1.849  33.725675
1.848  33.686998
1.847  33.682156
1.846  33.631406
1.845  33.704351
1.844  33.680613
1.843  33.636015
1.842  33.608542
1.841  33.617857
1.840  33.657414
1.839  33.676450
1.838  33.609853
1.837  33.608087
1.836  33.497061
1.835  33.525935
1.834  33.538910
1.833  33.545861
1.832  33.473885
1.831  33.419613
1.830  33.408360
1.829  33.455423
1.828  33.526767
1.827  33.679455
1.826  33.437713
1.825  33.390898
1.824  33.405496
1.823  33.448538
1.822  33.419156
1.821  33.437630
1.820  33.378287
1.819  33.398133
1.818  33.463670
1.817  33.403731
1.816  33.336569
1.815  33.362066
1.814  33.348730
1.813  33.380400
1.812  33.296991
1.811  33.346212
1.810  33.329088
1.809  33.291523
1.808  33.257775
1.807  33.327535
1.806  33.292247
1.805  33.280615
1.804  33.286026
1.803  33.302541
1.802  33.249698
1.801  33.230503
1.800  33.248204
1.799  33.213520
1.798  33.192325
1.797  33.185729
1.796  33.167658
1.795  33.160311
1.794  33.148506
1.793  33.145577
1.792  33.141850
1.791  33.141643
1.790  33.106750
1.789  33.118901
1.788  33.139638
1.787  33.121960
1.786  33.047190
1.785  33.015642
1.784  33.035238
1.783  33.081834
1.782  33.067083
1.781  32.983446
1.780  32.990466
1.779  32.977243
1.778  32.964620
1.777  32.977260
1.776  32.943770
1.775  32.911188
1.774  32.872460
1.773  32.852236
1.772  32.900960
1.771  32.922363
1.770  32.888134
1.769  32.854693
1.768  32.849925
1.767  32.795354
1.766  32.808076
1.765  32.837119
1.764  32.815549
1.763  32.771434
1.762  32.832279
1.761  32.830952
1.760  32.770268
1.759  32.756068
1.758  32.798553
1.757  32.745093
1.756  32.739761
1.755  32.690392
1.754  32.729336
1.753  32.621220
1.752  32.639831
1.751  32.631273
1.750  32.630974
1.749  32.640336
1.748  32.737107
1.747  32.614052
1.746  32.606717
1.745  32.585066
1.744  32.553830
1.743  32.619861
1.742  32.578721
1.741  32.517528
1.740  32.501343
1.739  32.518613
1.738  32.546483
1.737  32.440977
1.736  32.503017
1.735  32.446173
1.734  32.465734
1.733  32.417173
1.732  32.398358
1.731  32.381393
1.730  32.436155
1.729  32.428277
1.728  32.388578
1.727  32.341878
1.726  32.405536
1.725  32.285690
1.724  32.294890
1.723  32.281001
1.722  32.318020
1.721  32.163671
1.720  32.174461
1.719  32.184881
1.718  32.203058
1.717  32.154468
1.716  32.259470
1.715  32.175260
1.714  32.163413
1.713  32.084136
1.712  32.139134
1.711  32.040421
1.710  32.092435
1.709  32.047012
1.708  32.121439
1.707  32.084456
1.706  32.006993
1.705  32.015826
1.704  32.014049
1.703  31.914522
1.702  31.913038
1.701  31.878420
1.700  31.826758
1.699  31.846332
1.698  31.854976
1.697  31.794282
1.696  31.824490
1.695  31.774735
1.694  31.758610
1.693  31.612550
1.692  31.724564
1.691  31.674362
1.690  31.657829
1.689  31.655258
1.688  31.704571
1.687  31.617397
1.686  31.612417
1.685  31.536425
1.684  31.515061
1.683  31.558903
1.682  31.587272
1.681  31.427716
1.680  31.515982
1.679  31.403260
1.678  31.488540
1.677  31.372964
1.676  31.432669
1.675  31.382710
1.674  31.364932
1.673  31.316586
1.672  31.364086
1.671  31.294266
1.670  31.344753
1.669  31.302584
1.668  31.106586
1.667  31.186401
1.666  31.189512
1.665  31.140134
1.664  31.159380
1.663  31.087002
1.662  31.177690
1.661  31.138825
1.660  31.037496
1.659  31.029246
1.658  31.071502
1.657  30.968628
1.656  31.027152
1.655  30.913100
1.654  31.018868
1.653  30.820589
1.652  30.985392
1.651  30.811495
1.650  30.876636
1.649  30.713187
1.648  30.943855
1.647  30.787971
1.646  30.850490
1.645  30.756998
1.644  30.801863
1.643  30.632052
1.642  30.795391
1.641  30.615068
1.640  30.775970
1.639  30.544588
1.638  30.655857
1.637  30.524673
1.636  30.527268
1.635  30.586949
1.634  30.629369
1.633  30.462720
1.632  30.538145
1.631  30.454584
1.630  30.590612
1.629  30.473750
1.628  30.400011
1.627  30.277895
1.626  30.418120
1.625  30.323141
1.624  30.363837
1.623  30.283234
1.622  30.262410
1.621  30.256991
1.620  30.298735
1.619  30.198898
1.618  30.276545
1.617  30.139509
1.616  30.165269
1.615  30.091098
1.614  30.104293
1.613  30.078577
1.612  30.080970
1.611  29.973543
1.610  30.048284
1.609  29.967521
1.608  30.050835
1.607  29.937384
1.606  29.961931
1.605  29.867901
1.604  29.953370
1.603  29.832305
1.602  29.923171
1.601  29.828329
1.600  29.833756
1.599  29.751508
1.598  29.869584
1.597  29.711574
1.596  29.749439
1.595  29.701008
1.594  29.787374
1.593  29.671072
1.592  29.614863
1.591  29.557074
1.590  29.552291
1.589  29.502725
1.588  29.605796
1.587  29.507181
1.586  29.498501
1.585  29.429864
1.584  29.429303
1.583  29.340280
1.582  29.371300
1.581  29.305587
1.580  29.314128
1.579  29.310247
1.578  29.320379
1.577  29.272741
1.576  29.232177
1.575  29.187485
1.574  29.227848
1.573  29.112453
1.572  29.145745
1.571  29.093248
1.570  29.095584
1.569  29.023568
1.568  29.073684
1.567  29.017204
1.566  29.050266
1.565  28.952389
1.564  29.048836
1.563  28.945102
1.562  28.875905
1.561  28.858294
1.560  28.857371
1.559  28.843395
1.558  28.814762
1.557  28.769723
1.556  28.783398
1.555  28.745501
1.554  28.764112
1.553  28.679286
1.552  28.690835
1.551  28.624189
1.550  28.583432
1.549  28.576433
1.548  28.563669
1.547  28.575738
1.546  28.661585
1.545  28.551958
1.544  28.490398
1.543  28.445174
1.542  28.471987
1.541  28.451535
1.540  28.446103
1.539  28.417715
1.538  28.471119
1.537  28.432636
1.536  28.440895
1.535  28.373850
1.534  28.369781
1.533  28.331184
1.532  28.312819
1.531  28.277601
1.530  28.310646
1.529  28.276261
1.528  28.255486
1.527  28.237724
1.526  28.227662
1.525  28.171833
1.524  28.223958
1.523  28.148000
1.522  28.164485
1.521  28.191738
1.520  28.184138
1.519  28.115413
1.518  28.102389
1.517  28.049612
1.516  28.062890
1.515  28.098744
1.514  28.057176
1.513  28.051491
1.512  28.049330
1.511  28.006804
1.510  28.038595
1.509  28.016947
1.508  27.979152
1.507  28.010346
1.506  27.972943
1.505  27.944010
1.504  27.954826
1.503  27.954898
1.502  27.915155
1.501  27.869241
1.500  27.873422
1.499  27.868368
1.498  27.863683
1.497  27.838025
1.496  27.817382
1.495  27.826688
1.494  27.819404
1.493  27.788040
1.492  27.784222
1.491  27.773709
1.490  27.776551
1.489  27.713858
1.488  27.688475
1.487  27.678277
1.486  27.608353
1.485  27.604469
1.484  27.594255
1.483  27.603141
1.482  27.564862
1.481  27.535019
1.480  27.493770
1.479  27.543812
1.478  27.409433
1.477  27.364029
1.476  27.436694
1.475  27.426483
1.474  27.367268
1.473  27.418334
1.472  27.336845
1.471  27.320980
1.470  27.269365
1.469  27.229268
1.468  27.231868
1.467  27.224299
1.466  27.220747
1.465  27.181733
1.464  27.112682
1.463  27.114910
1.462  27.051285
1.461  27.073623
1.460  26.975155
1.459  27.012240
1.458  26.972225
1.457  26.939108
1.456  26.922546
1.455  26.960298
1.454  26.903035
1.453  26.881089
1.452  26.901860
1.451  26.872895
1.450  26.766200
1.449  26.797024
1.448  26.713707
1.447  26.798680
1.446  26.684194
1.445  26.725299
1.444  26.665286
1.443  26.625579
1.442  26.589754
1.441  26.578424
1.440  26.516331
1.439  26.591558
1.438  26.491504
1.437  26.499649
1.436  26.459097
1.435  26.453369
1.434  26.396383
1.433  26.451997
