Name: Topaz Al_2SiO_4(F,OH)_2
Type: Mineral
Class: Silicates
Subclass: Nesosilicates
Particle Size: 0-45um
Sample No.: NS-6A
Owner: JPL
Wavelength range: IR
Origin: Australia, Western Australia, Grossmont
Collected by Ward's
Description: 





Measurement: Hemispherical reflectance
First Column: X
Second Column: Y
X Units:  Wavelength (micrometers)
Y Units:  Reflectance (percent)
First X Value: 15.3853
Last X Value: 2.00032
Number of X Values: 2256
Additional information: ns06aa.txt
 
15.3853	10.7983
15.3397	10.4743
15.2945	9.95011
15.2495	9.86343
15.2048	9.74466
15.1603	9.49161
15.1161	9.22342
15.0722	8.70131
15.0285	8.26098
14.9851	7.84377
14.9419	7.41195
14.8989	7.14011
14.8563	6.86293
14.8138	6.4764
14.7716	5.81003
14.7296	5.07134
14.6879	4.63348
14.6464	4.22409
14.6052	3.66364
14.5641	3.28665
14.5233	2.8354
14.4828	2.36555
14.4424	2.07029
14.4023	1.93374
14.3624	1.78158
14.3227	1.57442
14.2833	1.515
14.244	1.63269
14.205	1.79321
14.1662	1.73319
14.1276	1.54258
14.0892	1.48579
14.051	1.21101
14.0131	1.12522
13.9753	1.39495
13.9377	1.72121
13.9004	2.00304
13.8632	2.26712
13.8262	2.49723
13.7895	2.90388
13.7529	3.37198
13.7165	3.65821
13.6803	3.86097
13.6443	4.12842
13.6085	4.4572
13.5729	4.88912
13.5374	5.3365
13.5022	5.697
13.4671	5.88594
13.4322	6.25644
13.3975	6.53913
13.363	6.53829
13.3286	6.69136
13.2944	6.89891
13.2604	6.97019
13.2266	7.02584
13.193	7.1945
13.1595	7.29211
13.1262	7.19196
13.093	6.8189
13.06	6.4604
13.0272	6.27334
12.9946	6.09936
12.9621	6.00498
12.9298	6.3524
12.8976	6.85155
12.8656	7.44753
12.8337	8.26907
12.8021	9.01397
12.7705	9.484
12.7391	9.78582
12.7079	10.1064
12.6769	10.2833
12.6459	10.3253
12.6152	10.3865
12.5845	10.5873
12.5541	10.5667
12.5238	10.2722
12.4936	10.2536
12.4635	10.2761
12.4337	10.0842
12.4039	9.88911
12.3743	9.91939
12.3448	9.80875
12.3155	9.6995
12.2863	9.56294
12.2573	9.46611
12.2284	9.34642
12.1996	9.11485
12.171	8.91053
12.1425	8.85488
12.1141	8.79795
12.0859	8.62496
12.0578	8.55522
12.0298	8.39596
12.0019	8.52005
11.9742	8.6665
11.9466	8.54506
11.9192	8.57377
11.8918	8.72008
11.8646	8.77591
11.8375	8.82918
11.8106	8.89457
11.7837	9.05355
11.757	9.37384
11.7304	9.76843
11.7039	10.1877
11.6776	10.6054
11.6513	11.0722
11.6252	11.4566
11.5992	11.8351
11.5733	12.1185
11.5475	12.3579
11.5219	12.5186
11.4963	12.6
11.4709	12.7619
11.4455	12.8659
11.4203	12.9541
11.3952	12.9837
11.3702	13.0066
11.3454	13.1266
11.3206	13.0003
11.2959	12.6994
11.2714	12.4388
11.2469	12.3889
11.2226	12.3557
11.1983	12.3611
11.1742	12.4145
11.1502	12.5115
11.1263	12.4164
11.1024	12.1639
11.0787	12.0076
11.0551	11.9395
11.0316	11.7577
11.0081	11.4848
10.9848	11.4103
10.9616	11.455
10.9385	11.3403
10.9154	11.3541
10.8925	11.562
10.8697	11.6284
10.8469	11.5351
10.8243	11.4888
10.8017	11.4293
10.7793	11.2422
10.7569	11.1143
10.7346	11.1566
10.7125	11.3841
10.6904	11.6869
10.6684	12.022
10.6465	12.3754
10.6247	12.6105
10.6029	12.7475
10.5813	12.8699
10.5597	12.8625
10.5383	12.8302
10.5169	12.8601
10.4956	12.8144
10.4744	12.7598
10.4533	12.5657
10.4323	12.4824
10.4113	12.5065
10.3904	12.4304
10.3697	12.3169
10.349	12.1511
10.3284	11.9846
10.3078	11.8588
10.2874	11.6543
10.267	11.4137
10.2467	11.206
10.2265	10.6859
10.2064	10.2498
10.1863	9.95022
10.1663	9.66885
10.1464	9.45151
10.1266	9.37607
10.1069	9.36638
10.0872	9.41076
10.0676	9.46457
10.0481	9.50016
10.0287	9.48277
10.0093	9.66667
9.99005	9.93638
9.97084	10.132
9.95169	10.2604
9.93263	10.3573
9.91364	10.5001
9.89472	10.5931
9.87587	10.5582
9.8571	10.443
9.83839	10.232
9.81976	10.1213
9.80119	10.0733
9.78271	9.91828
9.76428	9.78525
9.74592	9.58608
9.72764	9.4836
9.70943	9.29587
9.69128	9.1171
9.6732	8.9295
9.65518	8.63338
9.63724	8.52423
9.61935	8.51044
9.60155	8.23375
9.5838	7.9874
9.56611	7.78206
9.5485	7.56862
9.53094	7.46375
9.51345	7.36006
9.49604	7.07401
9.47867	6.75655
9.46137	6.50065
9.44414	6.36949
9.42697	6.2355
9.40986	5.99827
9.39281	5.6119
9.37583	5.25855
9.35891	5.02679
9.34204	4.8992
9.32524	4.80665
9.3085	4.56419
9.29182	4.30166
9.27519	4.00811
9.25863	3.78946
9.24213	3.68657
9.22568	3.56674
9.2093	3.44193
9.19297	3.24681
9.17669	2.96342
9.16048	2.98492
9.14433	3.04987
9.12823	2.86171
9.11218	2.74295
9.0962	2.78593
9.08027	2.58589
9.06439	2.3204
9.04858	2.26459
9.03281	2.27241
9.0171	2.34076
9.00145	2.25563
8.98585	2.07829
8.9703	1.995
8.9548	2.03131
8.93937	2.12445
8.92398	2.02343
8.90865	1.99271
8.89337	2.0565
8.87814	2.07937
8.86296	2.06631
8.84784	2.02218
8.83277	1.92479
8.81774	1.79473
8.80277	1.79992
8.78786	1.74835
8.77298	1.73424
8.75816	1.73056
8.7434	1.76478
8.72868	1.76144
8.714	1.60579
8.69938	1.59044
8.68481	1.51538
8.67029	1.34132
8.65581	1.24974
8.64139	1.2646
8.62701	1.28166
8.61268	1.35889
8.5984	1.40308
8.58416	1.39167
8.56997	1.46902
8.55583	1.47994
8.54174	1.36934
8.52769	1.40595
8.51368	1.50292
8.49973	1.63562
8.48582	1.80962
8.47195	1.97176
8.45813	2.10644
8.44436	2.25899
8.43062	2.34676
8.41693	2.40751
8.4033	2.39371
8.3897	2.33048
8.37614	2.33115
8.36264	2.40517
8.34917	2.62674
8.33574	2.81976
8.32236	2.84408
8.30903	2.95097
8.29573	3.21224
8.28248	3.38043
8.26927	3.45177
8.2561	3.46029
8.24298	3.59523
8.2299	3.78213
8.21685	3.85134
8.20385	4.0413
8.19089	4.22633
8.17797	4.28435
8.16509	4.36085
8.15225	4.5841
8.13946	4.79093
8.1267	4.96246
8.11398	5.05672
8.10131	5.24582
8.08867	5.38392
8.07606	5.35912
8.0635	5.4908
8.05099	5.668
8.0385	5.83381
8.02606	5.98808
8.01366	6.12443
8.00129	6.29227
7.98896	6.40078
7.97667	6.51345
7.96442	6.56154
7.9522	6.78283
7.94002	7.08499
7.92788	7.23435
7.91578	7.44251
7.90371	7.68119
7.89168	7.82322
7.87969	7.97936
7.86773	8.13459
7.85581	8.33732
7.84392	8.5247
7.83207	8.71262
7.82026	8.90614
7.80849	9.15893
7.79674	9.42067
7.78503	9.63237
7.77337	9.80569
7.76173	10.0358
7.75012	10.2863
7.73856	10.4529
7.72703	10.4874
7.71553	10.5162
7.70406	10.6375
7.69263	10.8317
7.68123	10.9606
7.66987	11.0256
7.65855	11.2008
7.64725	11.3868
7.63598	11.4969
7.62475	11.6528
7.61356	11.7721
7.60239	11.8943
7.59126	12.1136
7.58017	12.353
7.5691	12.4797
7.55806	12.6011
7.54707	12.7792
7.5361	12.9772
7.52516	13.2081
7.51425	13.3872
7.50338	13.5766
7.49253	13.7721
7.48172	13.9933
7.47094	14.206
7.46019	14.4065
7.44947	14.5122
7.43879	14.6191
7.42813	14.8058
7.4175	14.9398
7.4069	15.0529
7.39634	15.2589
7.3858	15.4978
7.37529	15.6681
7.36482	15.8944
7.35437	16.1486
7.34396	16.3685
7.33357	16.6128
7.32321	16.7915
7.31288	16.9376
7.30258	17.0545
7.29231	17.1479
7.28207	17.4138
7.27185	17.6195
7.26167	17.6028
7.25152	17.7683
7.24139	17.98
7.23129	18.132
7.22122	18.3377
7.21117	18.6609
7.20116	18.7975
7.19117	18.7893
7.18121	19.0089
7.17128	19.3428
7.16137	19.434
7.1515	19.5576
7.14164	19.6585
7.13182	19.663
7.12203	19.8248
7.11225	19.9585
7.10251	20.0482
7.0928	20.1126
7.08311	20.1899
7.07344	20.2419
7.06381	20.353
7.0542	20.8034
7.04461	21.1204
7.03506	20.813
7.02552	20.7136
7.01601	20.7526
7.00653	20.859
6.99708	21.1283
6.98765	21.2761
6.97824	21.3437
6.96886	21.7066
6.95951	22.1997
6.95018	22.0014
6.94087	21.9505
6.9316	22.1063
6.92234	22.3023
6.91311	22.5647
6.90391	22.7952
6.89473	22.8176
6.88557	22.9112
6.87644	23.2743
6.86733	24.2465
6.85824	24.3716
6.84918	23.7249
6.84015	23.5203
6.83114	23.844
6.82215	24.0241
6.81319	23.8386
6.80424	23.8882
6.79532	24.4395
6.78643	24.6756
6.77756	24.3681
6.76871	24.1951
6.75989	24.0928
6.75109	24.1762
6.74231	24.2215
6.73355	24.3821
6.72482	24.695
6.71611	25.0558
6.70742	25.1111
6.69875	24.8477
6.69011	25.1626
6.68149	25.7586
6.67289	25.7295
6.66431	25.6136
6.65576	25.6502
6.64722	26.4125
6.63871	27.6119
6.63022	27.2569
6.62175	26.5449
6.61331	26.5594
6.60488	26.7026
6.59648	27.1513
6.5881	27.3898
6.57974	27.848
6.5714	28.3442
6.56308	27.849
6.55478	27.8042
6.54651	27.7264
6.53825	27.5391
6.53001	27.7334
6.5218	28.2069
6.51361	28.0144
6.50544	28.3108
6.49729	29.5959
6.48915	29.7858
6.48104	29.0872
6.47295	28.6927
6.46488	28.417
6.45683	28.4794
6.4488	28.6335
6.44079	28.8768
6.4328	29.3132
6.42482	29.8309
6.41687	31.1653
6.40894	30.866
6.40103	29.4721
6.39314	29.1697
6.38526	29.1904
6.37741	29.5029
6.36957	29.8602
6.36176	29.5586
6.35396	29.7434
6.34618	30.5105
6.33843	30.171
6.33069	29.6086
6.32297	29.676
6.31527	29.6565
6.30758	29.6538
6.29992	29.7403
6.29227	29.8207
6.28465	29.7686
6.27704	29.8136
6.26945	29.9365
6.26188	29.9849
6.25432	29.9291
6.24679	29.9692
6.23927	30.0599
6.23177	30.1271
6.22429	30.166
6.21683	30.255
6.20938	30.2605
6.20195	30.2009
6.19454	30.4735
6.18715	31.1833
6.17978	30.8545
6.17242	30.2973
6.16508	30.5576
6.15776	30.7748
6.15045	30.5768
6.14317	30.5096
6.1359	30.3722
6.12864	30.3208
6.12141	30.8949
6.11419	31.701
6.10699	31.1561
6.0998	30.5874
6.09263	30.6127
6.08549	30.866
6.07835	31.6403
6.07123	32.1183
6.06413	31.7297
6.05705	32.4401
6.04998	34.2281
6.04293	33.3148
6.0359	32.0567
6.02888	31.9155
6.02187	32.2488
6.01489	32.7919
6.00792	32.7459
6.00096	32.7646
5.99403	33.4273
5.98711	33.716
5.9802	33.405
5.97331	33.6862
5.96644	33.8633
5.95958	33.37
5.95274	33.3111
5.94591	33.6343
5.9391	34.711
5.9323	34.2658
5.92552	33.1257
5.91876	32.8701
5.91201	32.6953
5.90528	32.8905
5.89856	33.8697
5.89186	33.7622
5.88517	34.0512
5.8785	34.2236
5.87184	32.9596
5.8652	32.7971
5.85857	32.5828
5.85196	32.1609
5.84536	31.9268
5.83878	32.0285
5.83221	32.3592
5.82566	32.9999
5.81912	32.899
5.81259	31.9593
5.80608	31.537
5.79959	31.4725
5.79311	31.4437
5.78665	31.5333
5.78019	31.7661
5.77376	32.4321
5.76734	33.4015
5.76093	32.8486
5.75453	32.3473
5.74815	32.7513
5.74179	32.7022
5.73543	32.6554
5.7291	32.6464
5.72277	32.8098
5.71646	33.0509
5.71017	33.0779
5.70389	32.5412
5.69762	32.2874
5.69136	32.2884
5.68513	31.9257
5.6789	31.855
5.67268	31.5956
5.66648	31.0681
5.6603	30.9915
5.65413	30.8907
5.64797	30.7429
5.64182	30.6536
5.63569	29.7343
5.62957	28.8822
5.62347	28.3164
5.61737	27.8773
5.61129	27.3123
5.60522	26.7496
5.59917	26.2349
5.59313	25.6771
5.5871	25.3525
5.58109	25.2133
5.57509	24.6709
5.5691	23.9487
5.56312	23.5196
5.55716	23.2365
5.55121	22.9627
5.54528	22.6279
5.53935	22.4304
5.53344	22.326
5.52754	22.3132
5.52166	22.2429
5.51578	22.1375
5.50992	22.1542
5.50407	22.234
5.49823	22.2623
5.49241	22.3702
5.4866	22.4878
5.4808	22.7557
5.47501	22.851
5.46923	23.0563
5.46347	23.3521
5.45772	23.3486
5.45198	23.422
5.44625	23.6221
5.44054	23.765
5.43484	23.8792
5.42914	24.1525
5.42347	24.561
5.4178	24.4261
5.41214	24.223
5.4065	24.1326
5.40087	23.99
5.39525	24.0486
5.38964	24.1114
5.38404	24.1547
5.37846	24.1703
5.37288	24.2103
5.36732	24.2816
5.36177	24.4538
5.35623	24.7522
5.35071	25.1052
5.34519	25.1172
5.33968	25.1175
5.33419	25.3142
5.32871	25.5628
5.32324	25.782
5.31778	26.0304
5.31233	26.3225
5.30689	26.575
5.30147	26.8109
5.29605	27.0932
5.29065	27.3709
5.28525	27.5912
5.27987	27.9343
5.2745	28.2698
5.26914	28.5547
5.26379	28.9183
5.25845	29.3754
5.25312	29.8203
5.24781	30.2383
5.2425	30.7812
5.23721	31.3686
5.23192	31.8337
5.22665	32.3227
5.22138	32.8245
5.21613	33.4207
5.21089	33.8261
5.20566	34.1096
5.20044	34.5287
5.19522	34.8654
5.19002	35.1997
5.18483	35.5218
5.17965	35.7586
5.17448	36.0465
5.16933	36.3626
5.16418	36.5659
5.15904	36.7297
5.15391	37.0114
5.14879	37.3274
5.14368	37.4581
5.13859	37.6091
5.1335	37.807
5.12842	37.9847
5.12335	38.1711
5.1183	38.3123
5.11325	38.4362
5.10821	38.5862
5.10318	38.8254
5.09817	39.0278
5.09316	39.1559
5.08816	39.3455
5.08317	39.6226
5.07819	39.7218
5.07322	39.7636
5.06826	39.9354
5.06331	40.1182
5.05837	40.2253
5.05344	40.3202
5.04852	40.3916
5.04361	40.4816
5.03871	40.5841
5.03382	40.6819
5.02894	40.7707
5.02406	40.8885
5.0192	40.9452
5.01435	40.8688
5.0095	40.9013
5.00467	40.9568
4.99984	40.9552
4.99502	40.9772
4.99021	40.9583
4.98542	40.9057
4.98063	40.7767
4.97585	40.7215
4.97108	40.6697
4.96632	40.6237
4.96156	40.6615
4.95682	40.7247
4.95209	40.6949
4.94736	40.6992
4.94264	40.8703
4.93794	41.1315
4.93324	41.425
4.92855	41.6142
4.92387	41.7743
4.9192	42.0654
4.91453	42.3743
4.90988	42.5624
4.90524	42.7997
4.9006	43.1038
4.89597	43.249
4.89135	43.3349
4.88674	43.454
4.88214	43.626
4.87755	43.814
4.87296	43.9578
4.86839	44.072
4.86382	44.2137
4.85926	44.2178
4.85471	44.2234
4.85017	44.2796
4.84564	44.3961
4.84111	44.4813
4.8366	44.5363
4.83209	44.6291
4.82759	44.7525
4.8231	44.867
4.81862	44.8486
4.81415	44.7763
4.80968	44.8292
4.80522	44.9163
4.80077	44.9933
4.79633	45.0195
4.7919	45.0228
4.78747	45.0372
4.78306	45.0975
4.77865	45.1429
4.77425	45.2019
4.76986	45.1786
4.76547	45.1718
4.7611	45.1672
4.75673	45.2201
4.75237	45.2743
4.74802	45.2653
4.74367	45.2877
4.73934	45.349
4.73501	45.473
4.73069	45.5135
4.72638	45.4591
4.72207	45.4198
4.71777	45.4622
4.71348	45.48
4.7092	45.5157
4.70493	45.5451
4.70066	45.5073
4.69641	45.4538
4.69216	45.4496
4.68791	45.4844
4.68368	45.5432
4.67945	45.6146
4.67523	45.6269
4.67102	45.6221
4.66682	45.6297
4.66262	45.6367
4.65843	45.626
4.65425	45.6009
4.65007	45.6808
4.64591	45.7102
4.64175	45.6954
4.6376	45.7525
4.63345	45.7924
4.62932	45.8067
4.62519	45.8376
4.62106	45.8434
4.61695	45.8161
4.61284	45.8308
4.60874	45.8704
4.60465	45.9598
4.60056	46.0185
4.59648	46.0092
4.59241	45.9879
4.58835	45.9755
4.58429	45.9767
4.58024	46.0202
4.5762	46.11
4.57216	46.1155
4.56814	46.115
4.56411	46.1294
4.5601	46.1039
4.55609	46.1408
4.55209	46.235
4.5481	46.2817
4.54411	46.2011
4.54013	46.166
4.53616	46.1928
4.5322	46.2646
4.52824	46.3675
4.52429	46.3823
4.52034	46.3989
4.51641	46.4092
4.51247	46.396
4.50855	46.4171
4.50463	46.4484
4.50072	46.4664
4.49682	46.4819
4.49292	46.443
4.48903	46.4175
4.48515	46.4561
4.48127	46.5592
4.4774	46.642
4.47354	46.6442
4.46968	46.6228
4.46584	46.6057
4.46199	46.638
4.45815	46.6333
4.45432	46.6421
4.4505	46.6819
4.44668	46.6658
4.44287	46.7072
4.43907	46.6996
4.43527	46.6754
4.43148	46.6761
4.4277	46.6569
4.42392	46.6379
4.42015	46.6771
4.41638	46.7213
4.41262	46.7401
4.40887	46.7564
4.40513	46.7468
4.40139	46.6268
4.39765	46.5953
4.39393	46.6033
4.39021	46.554
4.38649	46.5883
4.38278	46.6292
4.37908	46.5453
4.37539	46.4897
4.3717	46.4545
4.36801	46.3413
4.36434	46.2354
4.36067	46.1133
4.357	45.9478
4.35335	45.7269
4.34969	45.4405
4.34605	45.1866
4.34241	44.915
4.33877	44.5899
4.33514	44.1242
4.33152	43.4998
4.32791	42.8927
4.3243	42.3797
4.32069	41.8889
4.3171	41.5434
4.31351	41.4466
4.30992	41.6554
4.30634	42.1159
4.30277	42.6211
4.2992	43.1215
4.29564	43.6029
4.29208	44.0579
4.28853	44.3966
4.28499	44.711
4.28145	45.0047
4.27792	45.2858
4.27439	45.4513
4.27087	45.6249
4.26735	45.8318
4.26384	46.0654
4.26034	46.2401
4.25684	46.3429
4.25335	46.3789
4.24986	46.4313
4.24638	46.5096
4.24291	46.5265
4.23944	46.477
4.23598	46.5359
4.23252	46.6001
4.22906	46.6726
4.22562	46.7356
4.22218	46.7704
4.21874	46.8629
4.21531	46.944
4.21189	46.9548
4.20847	46.9811
4.20506	47.0773
4.20165	47.2042
4.19825	47.2483
4.19485	47.2366
4.19146	47.2254
4.18807	47.2517
4.18469	47.2576
4.18132	47.3198
4.17795	47.3757
4.17458	47.3207
4.17123	47.31
4.16787	47.3463
4.16453	47.3454
4.16118	47.3825
4.15785	47.4417
4.15451	47.4467
4.15119	47.3749
4.14787	47.3052
4.14455	47.3188
4.14124	47.3921
4.13794	47.5165
4.13464	47.4746
4.13134	47.4159
4.12805	47.4596
4.12477	47.466
4.12149	47.4898
4.11822	47.49
4.11495	47.4709
4.11168	47.4858
4.10843	47.5355
4.10517	47.5694
4.10192	47.604
4.09868	47.5881
4.09545	47.5417
4.09221	47.5482
4.08899	47.5381
4.08576	47.5418
4.08255	47.6422
4.07933	47.7289
4.07613	47.6811
4.07292	47.6497
4.06973	47.6215
4.06654	47.5532
4.06335	47.5194
4.06017	47.5313
4.05699	47.5724
4.05382	47.6305
4.05065	47.6047
4.04749	47.5597
4.04433	47.5596
4.04118	47.5229
4.03803	47.5285
4.03489	47.5933
4.03175	47.5333
4.02862	47.4695
4.02549	47.5257
4.02237	47.5423
4.01925	47.5734
4.01614	47.5634
4.01303	47.5468
4.00993	47.6158
4.00683	47.6681
4.00373	47.7066
4.00064	47.7213
3.99756	47.6953
3.99448	47.7303
3.9914	47.7464
3.98833	47.7806
3.98527	47.7699
3.98221	47.744
3.97915	47.7534
3.9761	47.821
3.97305	47.7961
3.97001	47.7011
3.96697	47.7555
3.96394	47.8462
3.96091	47.7762
3.95789	47.7235
3.95487	47.7292
3.95186	47.7823
3.94885	47.7962
3.94584	47.8101
3.94284	47.8266
3.93984	47.9
3.93685	47.9487
3.93386	47.9175
3.93088	47.8484
3.9279	47.8738
3.92493	47.8612
3.92196	47.8817
3.919	47.873
3.91604	47.9002
3.91308	47.9358
3.91013	47.8824
3.90718	47.8145
3.90424	47.8175
3.9013	47.8841
3.89837	47.8395
3.89544	47.7717
3.89252	47.8246
3.8896	47.868
3.88668	47.8846
3.88377	47.8432
3.88086	47.8347
3.87796	47.8243
3.87506	47.8348
3.87217	47.793
3.86928	47.6946
3.86639	47.69
3.86351	47.6882
3.86064	47.6367
3.85776	47.6632
3.8549	47.7031
3.85203	47.7377
3.84917	47.7888
3.84631	47.8338
3.84346	47.8437
3.84062	47.8518
3.83777	47.8497
3.83494	47.7625
3.8321	47.6905
3.82927	47.7427
3.82644	47.8117
3.82362	47.8498
3.82081	47.8885
3.81799	47.8992
3.81518	47.8962
3.81238	47.9142
3.80958	47.932
3.80678	47.9233
3.80399	47.8351
3.8012	47.8367
3.79841	47.8846
3.79563	47.8955
3.79286	47.8938
3.79008	47.9369
3.78731	47.9032
3.78455	47.8703
3.78179	47.8365
3.77903	47.8366
3.77628	47.843
3.77353	47.852
3.77079	47.9168
3.76805	47.9897
3.76531	47.971
3.76258	47.9421
3.75985	47.9477
3.75713	47.9996
3.7544	47.9807
3.75169	47.9338
3.74898	47.8537
3.74627	47.7952
3.74356	47.8199
3.74086	47.8951
3.73816	47.9167
3.73547	47.9399
3.73278	47.9367
3.7301	47.9019
3.72741	47.7876
3.72474	47.7632
3.72206	47.8831
3.71939	47.8815
3.71673	47.7985
3.71406	47.7749
3.71141	47.8089
3.70875	47.8305
3.7061	47.7903
3.70345	47.8436
3.70081	47.9497
3.69817	48.0028
3.69553	47.9528
3.6929	47.8356
3.69027	47.8131
3.68765	47.8076
3.68503	47.8327
3.68241	47.8176
3.6798	47.8241
3.67719	47.8544
3.67458	47.8194
3.67198	47.7978
3.66938	47.809
3.66678	47.7919
3.66419	47.7667
3.66161	47.7285
3.65902	47.6923
3.65644	47.7433
3.65387	47.7615
3.65129	47.7878
3.64872	47.769
3.64616	47.7413
3.64359	47.7101
3.64103	47.7239
3.63848	47.7138
3.63593	47.772
3.63338	47.8033
3.63084	47.7661
3.6283	47.6925
3.62576	47.6541
3.62322	47.6171
3.62069	47.6109
3.61817	47.6298
3.61564	47.5778
3.61312	47.5555
3.61061	47.6263
3.6081	47.6543
3.60559	47.6311
3.60308	47.6324
3.60058	47.6484
3.59808	47.6652
3.59558	47.6268
3.59309	47.5879
3.59061	47.5734
3.58812	47.4957
3.58564	47.4752
3.58316	47.4583
3.58069	47.4778
3.57822	47.5468
3.57575	47.5151
3.57328	47.4828
3.57082	47.4964
3.56836	47.4983
3.56591	47.4923
3.56346	47.4393
3.56101	47.3972
3.55857	47.4158
3.55613	47.4411
3.55369	47.4198
3.55126	47.3689
3.54883	47.3477
3.5464	47.3196
3.54397	47.3022
3.54155	47.3123
3.53914	47.3435
3.53672	47.3986
3.53431	47.3711
3.5319	47.323
3.5295	47.3228
3.5271	47.3531
3.5247	47.2912
3.52231	47.2639
3.51991	47.28
3.51753	47.2072
3.51514	47.1476
3.51276	47.1588
3.51038	47.1567
3.50801	47.1128
3.50563	47.0202
3.50327	47.0042
3.5009	47.0347
3.49854	46.9915
3.49618	47.0114
3.49382	47.0405
3.49147	47.0267
3.48912	47.0365
3.48677	47.0061
3.48443	46.9074
3.48209	46.8571
3.47975	46.8235
3.47742	46.8597
3.47509	46.9124
3.47276	46.8953
3.47044	46.8524
3.46812	46.7702
3.4658	46.7665
3.46348	46.8055
