Name: Vermiculite (Mg,Fe^2+,Al)_3(Al,Si)_4O_10(OH)_2.4H_2O
Type: Mineral
Class: Silicates
Subclass: Phyllosilicates
Particle Size: 125-500um
Sample No.: PS-18B
Owner: JPL
Wavelength range: IR
Origin: USA, Montana, Lincoln County, Libby
Collected by Ward's
Description: 





Measurement: Hemispherical reflectance
First Column: X
Second Column: Y
X Units:  Wavelength (micrometers)
Y Units:  Reflectance (percent)
First X Value: 15.3853
Last X Value: 2.00032
Number of X Values: 2256
Additional information: ps18ba.txt
 
15.3853	1.67823
15.3397	1.69402
15.2945	1.73889
15.2495	1.79936
15.2048	1.90631
15.1603	2.10407
15.1161	1.9975
15.0722	1.96713
15.0285	1.92339
14.9851	1.90162
14.9419	1.69007
14.8989	1.64134
14.8563	1.6693
14.8138	1.7548
14.7716	1.80713
14.7296	1.67087
14.6879	1.56646
14.6464	1.56762
14.6052	1.59393
14.5641	1.57542
14.5233	1.57206
14.4828	1.46506
14.4424	1.21971
14.4023	1.19397
14.3624	1.38853
14.3227	1.69951
14.2833	1.73365
14.244	1.54465
14.205	1.41644
14.1662	1.50804
14.1276	1.47874
14.0892	1.4925
14.051	1.48362
14.0131	1.53639
13.9753	1.7488
13.9377	1.7406
13.9004	1.50665
13.8632	1.47474
13.8262	1.649
13.7895	1.70979
13.7529	1.80785
13.7165	1.85667
13.6803	1.63494
13.6443	1.59488
13.6085	1.50193
13.5729	1.46527
13.5374	1.55115
13.5022	1.65405
13.4671	1.52965
13.4322	1.74647
13.3975	1.86968
13.363	1.68695
13.3286	1.66946
13.2944	1.68494
13.2604	1.68722
13.2266	1.72016
13.193	1.8888
13.1595	1.89814
13.1262	1.54367
13.093	1.58348
13.06	1.81837
13.0272	1.93265
12.9946	1.87833
12.9621	1.93408
12.9298	1.90833
12.8976	1.88977
12.8656	1.962
12.8337	1.88964
12.8021	1.90342
12.7705	2.14872
12.7391	2.13623
12.7079	2.05377
12.6769	2.00497
12.6459	2.13697
12.6152	2.17378
12.5845	2.18079
12.5541	2.34604
12.5238	2.44761
12.4936	2.46007
12.4635	2.50747
12.4337	2.42503
12.4039	2.41662
12.3743	2.55952
12.3448	2.76522
12.3155	2.8315
12.2863	2.62976
12.2573	2.76382
12.2284	2.92999
12.1996	2.92763
12.171	2.96643
12.1425	3.00505
12.1141	2.99875
12.0859	3.21416
12.0578	3.31099
12.0298	3.31488
12.0019	3.48032
11.9742	3.50171
11.9466	3.58003
11.9192	3.71884
11.8918	3.90416
11.8646	4.03861
11.8375	4.0865
11.8106	4.2155
11.7837	4.34258
11.757	4.34331
11.7304	4.43102
11.7039	4.75157
11.6776	4.87704
11.6513	4.89507
11.6252	4.92206
11.5992	5.05003
11.5733	5.19591
11.5475	5.25689
11.5219	5.29153
11.4963	5.28733
11.4709	5.43655
11.4455	5.59322
11.4203	5.71156
11.3952	5.75372
11.3702	5.72627
11.3454	5.81847
11.3206	5.79333
11.2959	5.74737
11.2714	5.89603
11.2469	6.01123
11.2226	6.09908
11.1983	6.00247
11.1742	5.97669
11.1502	6.10929
11.1263	6.16741
11.1024	6.25096
11.0787	6.34358
11.0551	6.35093
11.0316	6.42447
11.0081	6.56673
10.9848	6.59559
10.9616	6.58426
10.9385	6.58496
10.9154	6.70708
10.8925	6.85838
10.8697	6.88084
10.8469	6.87756
10.8243	6.95589
10.8017	6.83539
10.7793	6.60928
10.7569	6.57917
10.7346	6.7015
10.7125	6.79554
10.6904	6.95979
10.6684	7.19443
10.6465	7.2666
10.6247	7.29227
10.6029	7.33905
10.5813	7.47307
10.5597	7.81909
10.5383	8.12718
10.5169	8.24988
10.4956	8.28149
10.4744	8.28051
10.4533	8.39013
10.4323	8.51573
10.4113	8.51834
10.3904	8.52883
10.3697	8.64212
10.349	8.6045
10.3284	8.59619
10.3078	8.66683
10.2874	8.72153
10.267	8.67047
10.2467	8.70177
10.2265	8.874
10.2064	9.04172
10.1863	9.13045
10.1663	9.25271
10.1464	9.51603
10.1266	9.75577
10.1069	9.93621
10.0872	10.2152
10.0676	10.6456
10.0481	10.9953
10.0287	11.3765
10.0093	11.7896
9.99005	12.0702
9.97084	12.4016
9.95169	12.7684
9.93263	13.0229
9.91364	13.3019
9.89472	13.6239
9.87587	13.943
9.8571	14.2355
9.83839	14.3536
9.81976	14.4422
9.80119	14.6754
9.78271	14.837
9.76428	15.2101
9.74592	15.3492
9.72764	15.381
9.70943	15.5313
9.69128	15.5099
9.6732	15.3204
9.65518	15.2151
9.63724	15.0713
9.61935	14.7542
9.60155	14.49
9.5838	14.1593
9.56611	13.6566
9.5485	13.3654
9.53094	13.2682
9.51345	12.955
9.49604	12.5696
9.47867	12.1621
9.46137	11.9995
9.44414	11.8417
9.42697	11.5167
9.40986	11.3065
9.39281	11.0703
9.37583	10.8448
9.35891	10.6105
9.34204	10.2432
9.32524	9.97135
9.3085	9.67785
9.29182	9.25559
9.27519	8.91398
9.25863	8.65439
9.24213	8.3386
9.22568	8.07743
9.2093	7.82502
9.19297	7.65938
9.17669	7.58759
9.16048	7.41209
9.14433	7.27504
9.12823	7.09509
9.11218	6.92575
9.0962	6.72309
9.08027	6.50367
9.06439	6.34459
9.04858	6.11138
9.03281	6.00164
9.0171	5.96402
9.00145	5.76557
8.98585	5.42335
8.9703	5.13502
8.9548	4.92725
8.93937	5.04126
8.92398	4.99496
8.90865	4.56597
8.89337	4.14164
8.87814	3.89458
8.86296	3.73801
8.84784	3.52455
8.83277	3.20173
8.81774	2.97122
8.80277	2.52834
8.78786	2.1344
8.77298	1.93874
8.75816	1.68573
8.7434	1.54068
8.72868	1.43042
8.714	1.34453
8.69938	1.32115
8.68481	1.2056
8.67029	1.02265
8.65581	0.832293
8.64139	0.80442
8.62701	0.864291
8.61268	0.802905
8.5984	0.711996
8.58416	0.624539
8.56997	0.561477
8.55583	0.588758
8.54174	0.70381
8.52769	0.767855
8.51368	0.707612
8.49973	0.585149
8.48582	0.493307
8.47195	0.615914
8.45813	0.650996
8.44436	0.587656
8.43062	0.509771
8.41693	0.51342
8.4033	0.596409
8.3897	0.595346
8.37614	0.568822
8.36264	0.595079
8.34917	0.64257
8.33574	0.641734
8.32236	0.668888
8.30903	0.709737
8.29573	0.713071
8.28248	0.698543
8.26927	0.703659
8.2561	0.653359
8.24298	0.659556
8.2299	0.826059
8.21685	0.856738
8.20385	0.786215
8.19089	0.783031
8.17797	0.794542
8.16509	0.853396
8.15225	0.991901
8.13946	0.945168
8.1267	0.865796
8.11398	0.823051
8.10131	0.783114
8.08867	0.907885
8.07606	1.00287
8.0635	1.00428
8.05099	0.954534
8.0385	0.953096
8.02606	0.958044
8.01366	0.923483
8.00129	0.962807
7.98896	1.13929
7.97667	1.17241
7.96442	1.04963
7.9522	1.10143
7.94002	1.18594
7.92788	1.19999
7.91578	1.16854
7.90371	1.13137
7.89168	1.18924
7.87969	1.26875
7.86773	1.29585
7.85581	1.27665
7.84392	1.23661
7.83207	1.31995
7.82026	1.34928
7.80849	1.39591
7.79674	1.52207
7.78503	1.52243
7.77337	1.46393
7.76173	1.45892
7.75012	1.44806
7.73856	1.44404
7.72703	1.48394
7.71553	1.55469
7.70406	1.61474
7.69263	1.64934
7.68123	1.68245
7.66987	1.63809
7.65855	1.6916
7.64725	1.84894
7.63598	1.86677
7.62475	1.83257
7.61356	1.76894
7.60239	1.75998
7.59126	1.85091
7.58017	1.97871
7.5691	2.04147
7.55806	1.97909
7.54707	1.99962
7.5361	2.05255
7.52516	2.02147
7.51425	2.08297
7.50338	2.18685
7.49253	2.18289
7.48172	2.07823
7.47094	2.08653
7.46019	2.18917
7.44947	2.23178
7.43879	2.22338
7.42813	2.3062
7.4175	2.39263
7.4069	2.3898
7.39634	2.34496
7.3858	2.31322
7.37529	2.30295
7.36482	2.36546
7.35437	2.43186
7.34396	2.49109
7.33357	2.55081
7.32321	2.52066
7.31288	2.48968
7.30258	2.59541
7.29231	2.62602
7.28207	2.63879
7.27185	2.69992
7.26167	2.8257
7.25152	2.81624
7.24139	2.75533
7.23129	2.75821
7.22122	2.78138
7.21117	2.85763
7.20116	2.90631
7.19117	2.87749
7.18121	2.85378
7.17128	2.93846
7.16137	3.00129
7.1515	2.99082
7.14164	3.01931
7.13182	3.09023
7.12203	3.12006
7.11225	3.10967
7.10251	3.12407
7.0928	3.13196
7.08311	3.17493
7.07344	3.23228
7.06381	3.27507
7.0542	3.28762
7.04461	3.32438
7.03506	3.43569
7.02552	3.42248
7.01601	3.37323
7.00653	3.48682
6.99708	3.65577
6.98765	3.68709
6.97824	3.67092
6.96886	3.69099
6.95951	3.64763
6.95018	3.64833
6.94087	3.68382
6.9316	3.72671
6.92234	3.72145
6.91311	3.73144
6.90391	3.83051
6.89473	3.83145
6.88557	3.82125
6.87644	3.82649
6.86733	3.85327
6.85824	3.84744
6.84918	3.8636
6.84015	3.8641
6.83114	3.83147
6.82215	3.80253
6.81319	3.84172
6.80424	3.89546
6.79532	3.86197
6.78643	3.78507
6.77756	3.81215
6.76871	3.96401
6.75989	4.02367
6.75109	3.93665
6.74231	3.90892
6.73355	3.99816
6.72482	4.06297
6.71611	3.95409
6.70742	3.88422
6.69875	3.92725
6.69011	3.89382
6.68149	3.88165
6.67289	3.93642
6.66431	3.90946
6.65576	3.83322
6.64722	3.80439
6.63871	3.85857
6.63022	3.90877
6.62175	3.9894
6.61331	3.97653
6.60488	3.92344
6.59648	3.9473
6.5881	4.02025
6.57974	4.03672
6.5714	3.93266
6.56308	3.87658
6.55478	3.89177
6.54651	3.91109
6.53825	3.87471
6.53001	3.83388
6.5218	3.81182
6.51361	3.90631
6.50544	3.86887
6.49729	3.73822
6.48915	3.71522
6.48104	3.71904
6.47295	3.78874
6.46488	3.89189
6.45683	3.88454
6.4488	3.83775
6.44079	3.80126
6.4328	3.728
6.42482	3.6949
6.41687	3.72931
6.40894	3.75366
6.40103	3.71452
6.39314	3.70072
6.38526	3.74453
6.37741	3.71338
6.36957	3.63278
6.36176	3.67174
6.35396	3.72063
6.34618	3.64554
6.33843	3.59601
6.33069	3.56488
6.32297	3.53804
6.31527	3.58719
6.30758	3.59882
6.29992	3.5292
6.29227	3.47021
6.28465	3.44884
6.27704	3.41898
6.26945	3.3693
6.26188	3.28304
6.25432	3.1516
6.24679	3.05917
6.23927	3.06284
6.23177	3.07188
6.22429	2.96548
6.21683	2.88892
6.20938	2.87323
6.20195	2.83892
6.19454	2.77212
6.18715	2.72747
6.17978	2.70936
6.17242	2.61088
6.16508	2.52326
6.15776	2.55717
6.15045	2.56233
6.14317	2.54665
6.1359	2.46027
6.12864	2.35705
6.12141	2.31318
6.11419	2.31394
6.10699	2.38419
6.0998	2.39329
6.09263	2.29956
6.08549	2.26735
6.07835	2.20016
6.07123	2.19503
6.06413	2.29258
6.05705	2.39088
6.04998	2.33494
6.04293	2.25621
6.0359	2.30234
6.02888	2.32929
6.02187	2.36448
6.01489	2.33938
6.00792	2.43448
6.00096	2.54178
5.99403	2.54869
5.98711	2.5148
5.9802	2.5929
5.97331	2.68073
5.96644	2.7103
5.95958	2.77315
5.95274	2.86353
5.94591	2.89562
5.9391	2.95037
5.9323	3.09402
5.92552	3.21217
5.91876	3.3638
5.91201	3.52561
5.90528	3.57314
5.89856	3.60162
5.89186	3.66913
5.88517	3.74371
5.8785	3.86379
5.87184	3.99705
5.8652	4.12488
5.85857	4.23758
5.85196	4.39989
5.84536	4.43763
5.83878	4.49922
5.83221	4.68836
5.82566	4.84811
5.81912	4.93351
5.81259	5.12504
5.80608	5.29422
5.79959	5.38049
5.79311	5.44151
5.78665	5.58323
5.78019	5.73335
5.77376	5.85164
5.76734	5.98236
5.76093	6.13033
5.75453	6.25474
5.74815	6.31764
5.74179	6.41778
5.73543	6.52915
5.7291	6.61148
5.72277	6.66637
5.71646	6.73206
5.71017	6.89373
5.70389	7.05057
5.69762	7.13542
5.69136	7.20554
5.68513	7.28374
5.6789	7.32886
5.67268	7.35527
5.66648	7.43046
5.6603	7.49177
5.65413	7.56015
5.64797	7.64127
5.64182	7.73352
5.63569	7.86088
5.62957	7.9134
5.62347	7.94747
5.61737	8.01082
5.61129	8.07613
5.60522	8.17517
5.59917	8.27512
5.59313	8.30708
5.5871	8.30338
5.58109	8.31183
5.57509	8.42232
5.5691	8.52611
5.56312	8.60594
5.55716	8.68182
5.55121	8.75326
5.54528	8.77434
5.53935	8.75823
5.53344	8.78942
5.52754	8.94245
5.52166	9.08378
5.51578	9.05219
5.50992	8.98758
5.50407	9.04599
5.49823	9.16483
5.49241	9.16622
5.4866	9.19602
5.4808	9.21358
5.47501	9.18027
5.46923	9.22254
5.46347	9.22853
5.45772	9.27317
5.45198	9.35277
5.44625	9.43479
5.44054	9.43517
5.43484	9.42491
5.42914	9.45034
5.42347	9.40849
5.4178	9.38162
5.41214	9.45317
5.4065	9.53393
5.40087	9.53467
5.39525	9.54686
5.38964	9.56338
5.38404	9.556
5.37846	9.59674
5.37288	9.64409
5.36732	9.69366
5.36177	9.73978
5.35623	9.75191
5.35071	9.76974
5.34519	9.84218
5.33968	9.8709
5.33419	9.91551
5.32871	10.0073
5.32324	10.0675
5.31778	10.073
5.31233	10.0663
5.30689	10.0904
5.30147	10.1286
5.29605	10.0961
5.29065	10.1194
5.28525	10.1945
5.27987	10.2139
5.2745	10.1905
5.26914	10.2869
5.26379	10.3702
5.25845	10.3775
5.25312	10.4059
5.24781	10.47
5.2425	10.5485
5.23721	10.6448
5.23192	10.7195
5.22665	10.7251
5.22138	10.667
5.21613	10.6739
5.21089	10.6977
5.20566	10.7232
5.20044	10.7584
5.19522	10.7312
5.19002	10.6469
5.18483	10.6344
5.17965	10.6621
5.17448	10.6744
5.16933	10.6473
5.16418	10.667
5.15904	10.6345
5.15391	10.5991
5.14879	10.5885
5.14368	10.589
5.13859	10.5953
5.1335	10.5376
5.12842	10.5231
5.12335	10.556
5.1183	10.4753
5.11325	10.3969
5.10821	10.3415
5.10318	10.325
5.09817	10.299
5.09316	10.218
5.08816	10.1957
5.08317	10.1878
5.07819	10.1668
5.07322	10.1418
5.06826	10.0678
5.06331	9.99583
5.05837	10.0069
5.05344	10.0774
5.04852	10.0515
5.04361	10.026
5.03871	10.0595
5.03382	10.0446
5.02894	10.0787
5.02406	10.1443
5.0192	10.1578
5.01435	10.2076
5.0095	10.2015
5.00467	10.1812
4.99984	10.2129
4.99502	10.268
4.99021	10.2478
4.98542	10.2567
4.98063	10.2472
4.97585	10.2727
4.97108	10.2978
4.96632	10.3048
4.96156	10.3318
4.95682	10.3036
4.95209	10.2913
4.94736	10.2901
4.94264	10.3422
4.93794	10.3807
4.93324	10.3377
4.92855	10.2935
4.92387	10.2689
4.9192	10.3149
4.91453	10.4689
4.90988	10.5074
4.90524	10.4516
4.9006	10.4358
4.89597	10.4316
4.89135	10.4709
4.88674	10.443
4.88214	10.4593
4.87755	10.4993
4.87296	10.5463
4.86839	10.6035
4.86382	10.6071
4.85926	10.6372
4.85471	10.724
4.85017	10.68
4.84564	10.7111
4.84111	10.8348
4.8366	10.8652
4.83209	10.8545
4.82759	10.8356
4.8231	10.8981
4.81862	11.0004
4.81415	11.0563
4.80968	11.0923
4.80522	11.1982
4.80077	11.2546
4.79633	11.2514
4.7919	11.3032
4.78747	11.3614
4.78306	11.3917
4.77865	11.4621
4.77425	11.5169
4.76986	11.5619
4.76547	11.6047
4.7611	11.6167
4.75673	11.6306
4.75237	11.69
4.74802	11.8042
4.74367	11.8675
4.73934	11.9111
4.73501	12.0373
4.73069	12.1071
4.72638	12.0901
4.72207	12.2482
4.71777	12.4208
4.71348	12.4302
4.7092	12.5204
4.70493	12.612
4.70066	12.6607
4.69641	12.7595
4.69216	12.8292
4.68791	12.8352
4.68368	12.8375
4.67945	12.9154
4.67523	12.9559
4.67102	12.9918
4.66682	13.0656
4.66262	13.1997
4.65843	13.2692
4.65425	13.317
4.65007	13.3564
4.64591	13.401
4.64175	13.4553
4.6376	13.5313
4.63345	13.6032
4.62932	13.6606
4.62519	13.7462
4.62106	13.8843
4.61695	14.0342
4.61284	14.1301
4.60874	14.2041
4.60465	14.2283
4.60056	14.2738
4.59648	14.3883
4.59241	14.4639
4.58835	14.5849
4.58429	14.7162
4.58024	14.7507
4.5762	14.7754
4.57216	14.8778
4.56814	14.9274
4.56411	14.9696
4.5601	15.0471
4.55609	15.1896
4.55209	15.3131
4.5481	15.406
4.54411	15.454
4.54013	15.5323
4.53616	15.5806
4.5322	15.6271
4.52824	15.7818
4.52429	15.8468
4.52034	15.9076
4.51641	16.0446
4.51247	16.2084
4.50855	16.3009
4.50463	16.2962
4.50072	16.3364
4.49682	16.3928
4.49292	16.455
4.48903	16.5134
4.48515	16.4745
4.48127	16.543
4.4774	16.6611
4.47354	16.7107
4.46968	16.726
4.46584	16.7474
4.46199	16.7625
4.45815	16.7842
4.45432	16.8731
4.4505	16.9231
4.44668	16.9963
4.44287	17.1024
4.43907	17.1217
4.43527	17.0741
4.43148	17.1304
4.4277	17.1556
4.42392	17.1492
4.42015	17.1743
4.41638	17.197
4.41262	17.2706
4.40887	17.4153
4.40513	17.5168
4.40139	17.5379
4.39765	17.561
4.39393	17.5775
4.39021	17.6058
4.38649	17.7395
4.38278	17.7704
4.37908	17.7464
4.37539	17.7939
4.3717	17.8158
4.36801	17.8846
4.36434	18.0061
4.36067	18.0796
4.357	18.0469
4.35335	18.1067
4.34969	18.1707
4.34605	18.2346
4.34241	18.3148
4.33877	18.4004
4.33514	18.5072
4.33152	18.5228
4.32791	18.5682
4.3243	18.6379
4.32069	18.7053
4.3171	18.7823
4.31351	18.8924
4.30992	18.9826
4.30634	19.0401
4.30277	19.1101
4.2992	19.1761
4.29564	19.235
4.29208	19.3437
4.28853	19.471
4.28499	19.5981
4.28145	19.6605
4.27792	19.6654
4.27439	19.6294
4.27087	19.6519
4.26735	19.7511
4.26384	19.8392
4.26034	19.954
4.25684	19.9969
4.25335	20.027
4.24986	20.1403
4.24638	20.3371
4.24291	20.447
4.23944	20.4988
4.23598	20.5951
4.23252	20.6332
4.22906	20.7378
4.22562	20.8253
4.22218	20.8308
4.21874	20.8278
4.21531	20.9196
4.21189	20.9991
4.20847	20.9679
4.20506	20.9903
4.20165	21.1155
4.19825	21.2163
4.19485	21.2782
4.19146	21.3937
4.18807	21.5872
4.18469	21.6806
4.18132	21.6342
4.17795	21.621
4.17458	21.6729
4.17123	21.7635
4.16787	21.9347
4.16453	22.0358
4.16118	22.0923
4.15785	22.2071
4.15451	22.3088
4.15119	22.2773
4.14787	22.311
4.14455	22.44
4.14124	22.5217
4.13794	22.5774
4.13464	22.7449
4.13134	22.862
4.12805	22.9151
4.12477	22.9803
4.12149	23.0008
4.11822	23.1013
4.11495	23.2381
4.11168	23.2906
4.10843	23.3937
4.10517	23.459
4.10192	23.545
4.09868	23.6983
4.09545	23.7565
4.09221	23.7647
4.08899	23.8774
4.08576	23.9882
4.08255	24.0615
4.07933	24.2186
4.07613	24.2938
4.07292	24.3295
4.06973	24.4808
4.06654	24.623
4.06335	24.7264
4.06017	24.8549
4.05699	24.8828
4.05382	24.9374
4.05065	25.0861
4.04749	25.1893
4.04433	25.2233
4.04118	25.3751
4.03803	25.4753
4.03489	25.5262
4.03175	25.6019
4.02862	25.7183
4.02549	25.7918
4.02237	25.8542
4.01925	26.0074
4.01614	26.0886
4.01303	26.1324
4.00993	26.2572
4.00683	26.3826
4.00373	26.4571
4.00064	26.5734
3.99756	26.6646
3.99448	26.7054
3.9914	26.8461
3.98833	26.9401
3.98527	26.9841
3.98221	26.9858
3.97915	27.0766
3.9761	27.1878
3.97305	27.2992
3.97001	27.4572
3.96697	27.5105
3.96394	27.5477
3.96091	27.6703
3.95789	27.8303
3.95487	27.9571
3.95186	28.0048
3.94885	28.0689
3.94584	28.1909
3.94284	28.2654
3.93984	28.3394
3.93685	28.389
3.93386	28.3577
3.93088	28.3686
3.9279	28.5461
3.92493	28.7027
3.92196	28.7557
3.919	28.7418
3.91604	28.81
3.91308	28.8577
3.91013	28.8579
3.90718	28.9109
3.90424	29.0097
3.9013	29.1319
3.89837	29.1919
3.89544	29.1885
3.89252	29.2276
3.8896	29.2828
3.88668	29.3814
3.88377	29.4422
3.88086	29.4382
3.87796	29.4491
3.87506	29.4997
3.87217	29.4612
3.86928	29.4747
3.86639	29.5322
3.86351	29.6088
3.86064	29.6187
3.85776	29.638
3.8549	29.5999
3.85203	29.5988
3.84917	29.5702
3.84631	29.5497
3.84346	29.5559
3.84062	29.587
3.83777	29.6557
3.83494	29.6057
3.8321	29.5509
3.82927	29.5703
3.82644	29.6133
3.82362	29.6906
3.82081	29.7903
3.81799	29.7294
3.81518	29.6315
3.81238	29.5223
3.80958	29.5157
3.80678	29.5283
3.80399	29.5369
3.8012	29.4603
3.79841	29.3782
3.79563	29.3595
3.79286	29.3688
3.79008	29.3593
3.78731	29.4055
3.78455	29.3534
3.78179	29.2726
3.77903	29.2473
3.77628	29.2304
3.77353	29.1275
3.77079	29.1365
3.76805	29.1289
3.76531	29.0188
3.76258	28.9758
3.75985	28.9004
3.75713	28.8236
3.7544	28.7109
3.75169	28.676
3.74898	28.6642
3.74627	28.5909
3.74356	28.4588
3.74086	28.3959
3.73816	28.4092
3.73547	28.4016
3.73278	28.3597
3.7301	28.2897
3.72741	28.1975
3.72474	28.0542
3.72206	27.9327
3.71939	27.8227
3.71673	27.8399
3.71406	27.8344
3.71141	27.6879
3.70875	27.5244
3.7061	27.4563
3.70345	27.4164
3.70081	27.3277
3.69817	27.2836
3.69553	27.1859
3.6929	27.1702
3.69027	27.1976
3.68765	27.03
3.68503	26.8101
3.68241	26.6849
3.6798	26.587
3.67719	26.4208
3.67458	26.4175
3.67198	26.4451
3.66938	26.2915
3.66678	26.0926
3.66419	25.9666
3.66161	25.9376
3.65902	25.8506
3.65644	25.6876
3.65387	25.5469
3.65129	25.4683
3.64872	25.3955
3.64616	25.2999
3.64359	25.2027
3.64103	25.1252
3.63848	25.12
3.63593	25.017
3.63338	24.8401
3.63084	24.6629
3.6283	24.6358
3.62576	24.5836
3.62322	24.3921
3.62069	24.3379
3.61817	24.2816
3.61564	24.028
3.61312	23.8664
3.61061	23.8618
3.6081	23.7938
3.60559	23.6479
3.60308	23.4963
3.60058	23.3873
3.59808	23.2465
3.59558	23.1205
3.59309	23.0023
3.59061	22.8329
3.58812	22.7585
3.58564	22.6483
3.58316	22.5563
3.58069	22.4673
3.57822	22.3314
3.57575	22.1668
3.57328	22.0415
3.57082	21.8918
3.56836	21.7211
3.56591	21.6577
3.56346	21.5662
3.56101	21.4041
3.55857	21.3175
3.55613	21.2321
3.55369	21.1396
3.55126	21.0371
3.54883	20.8866
3.5464	20.7513
3.54397	20.6415
3.54155	20.5368
3.53914	20.3857
3.53672	20.1781
3.53431	20.0363
3.5319	19.885
3.5295	19.8222
3.5271	19.699
3.5247	19.5398
3.52231	19.4146
3.51991	19.3491
3.51753	19.2906
3.51514	19.1169
3.51276	18.9021
3.51038	18.8161
3.50801	18.7606
3.50563	18.6257
3.50327	18.3888
3.5009	18.2671
3.49854	18.1946
3.49618	17.9859
3.49382	17.8464
3.49147	17.8475
3.48912	17.7842
3.48677	17.6922
3.48443	17.5722
3.48209	17.396
3.47975	17.2447
