Name: Rutile TiO_2
Type: Mineral
Class: Oxides
Subclass: 
Particle Size: 0-45um
Sample No.: O-2A
Owner: JPL
Wavelength range: IR
Origin: 
Collected by JPL
Description: 





Measurement: Hemispherical reflectance
First Column: X
Second Column: Y
X Units:  Wavelength (micrometers)
Y Units:  Reflectance (percent)
First X Value: 15.3853
Last X Value: 2.00032
Number of X Values: 2256
Additional information: o02aa.txt
 
15.3853	10.4883
15.3397	10.4288
15.2945	10.5618
15.2495	10.5956
15.2048	10.4675
15.1603	10.2989
15.1161	10.2132
15.0722	10.3827
15.0285	10.3899
14.9851	10.0824
14.9419	9.92608
14.8989	10.0425
14.8563	9.95874
14.8138	10.0188
14.7716	10.11
14.7296	10.0889
14.6879	10.1925
14.6464	10.3661
14.6052	10.4444
14.5641	10.5017
14.5233	10.2208
14.4828	10.0957
14.4424	10.1901
14.4023	10.1713
14.3624	10.12
14.3227	10.115
14.2833	9.92964
14.244	9.88934
14.205	9.95119
14.1662	9.98818
14.1276	10.0558
14.0892	10.1675
14.051	10.0906
14.0131	9.91056
13.9753	9.87983
13.9377	9.82811
13.9004	9.829
13.8632	9.88959
13.8262	9.93929
13.7895	9.82063
13.7529	9.77608
13.7165	9.79296
13.6803	9.65901
13.6443	9.67804
13.6085	9.8472
13.5729	9.66004
13.5374	9.29936
13.5022	9.2095
13.4671	9.25718
13.4322	9.27619
13.3975	9.24948
13.363	9.24276
13.3286	9.21254
13.2944	9.12833
13.2604	8.98733
13.2266	8.85142
13.193	8.74329
13.1595	8.51228
13.1262	8.31136
13.093	8.17514
13.06	8.12852
13.0272	8.15627
12.9946	8.04933
12.9621	8.01961
12.9298	7.85408
12.8976	7.62555
12.8656	7.48564
12.8337	7.32173
12.8021	7.37219
12.7705	7.37456
12.7391	7.16057
12.7079	6.96321
12.6769	6.87324
12.6459	6.80915
12.6152	6.67543
12.5845	6.52931
12.5541	6.44178
12.5238	6.23095
12.4936	6.02953
12.4635	6.02495
12.4337	6.00081
12.4039	5.89575
12.3743	5.7441
12.3448	5.56456
12.3155	5.3813
12.2863	5.21534
12.2573	5.15384
12.2284	5.1113
12.1996	4.95888
12.171	4.82865
12.1425	4.67821
12.1141	4.45237
12.0859	4.19808
12.0578	4.03147
12.0298	3.99241
12.0019	3.99
11.9742	3.94053
11.9466	3.8507
11.9192	3.67792
11.8918	3.57643
11.8646	3.43574
11.8375	3.36345
11.8106	3.13382
11.7837	2.83877
11.757	2.77952
11.7304	2.78479
11.7039	2.74938
11.6776	2.69038
11.6513	2.61528
11.6252	2.61747
11.5992	2.60961
11.5733	2.65246
11.5475	2.66358
11.5219	2.55869
11.4963	2.54539
11.4709	2.55929
11.4455	2.63955
11.4203	2.643
11.3952	2.54601
11.3702	2.3639
11.3454	2.26958
11.3206	2.33511
11.2959	2.34568
11.2714	2.33862
11.2469	2.34249
11.2226	2.32347
11.1983	2.26877
11.1742	2.34076
11.1502	2.44717
11.1263	2.45568
11.1024	2.4946
11.0787	2.56784
11.0551	2.53716
11.0316	2.53142
11.0081	2.57148
10.9848	2.60543
10.9616	2.57185
10.9385	2.55568
10.9154	2.597
10.8925	2.61682
10.8697	2.57435
10.8469	2.52856
10.8243	2.61628
10.8017	2.68054
10.7793	2.72702
10.7569	2.7281
10.7346	2.68521
10.7125	2.88476
10.6904	3.02793
10.6684	3.00686
10.6465	3.1148
10.6247	3.18933
10.6029	3.27225
10.5813	3.26576
10.5597	3.33544
10.5383	3.42559
10.5169	3.50915
10.4956	3.52086
10.4744	3.50468
10.4533	3.56905
10.4323	3.68526
10.4113	3.72753
10.3904	3.79198
10.3697	3.79705
10.349	3.80303
10.3284	3.9865
10.3078	4.12199
10.2874	4.18438
10.267	4.13552
10.2467	4.1699
10.2265	4.32247
10.2064	4.35742
10.1863	4.34612
10.1663	4.35822
10.1464	4.29488
10.1266	4.36954
10.1069	4.50255
10.0872	4.58653
10.0676	4.70738
10.0481	4.66544
10.0287	4.62242
10.0093	4.58225
9.99005	4.52804
9.97084	4.61169
9.95169	4.62716
9.93263	4.58573
9.91364	4.6318
9.89472	4.6722
9.87587	4.47239
9.8571	4.43056
9.83839	4.53788
9.81976	4.49573
9.80119	4.53191
9.78271	4.57313
9.76428	4.46131
9.74592	4.58093
9.72764	4.76814
9.70943	4.82151
9.69128	4.98326
9.6732	5.06699
9.65518	5.07399
9.63724	5.13627
9.61935	5.24758
9.60155	5.40795
9.5838	5.55789
9.56611	5.53858
9.5485	5.59894
9.53094	5.76818
9.51345	5.90067
9.49604	6.03889
9.47867	6.22598
9.46137	6.38303
9.44414	6.48499
9.42697	6.71285
9.40986	6.94228
9.39281	7.04862
9.37583	7.09667
9.35891	7.26828
9.34204	7.57429
9.32524	7.85392
9.3085	8.04825
9.29182	8.19798
9.27519	8.42951
9.25863	8.66313
9.24213	8.90268
9.22568	9.07689
9.2093	9.07264
9.19297	9.13736
9.17669	9.16538
9.16048	9.28595
9.14433	9.45603
9.12823	9.48578
9.11218	9.57112
9.0962	9.65869
9.08027	9.83417
9.06439	10.0193
9.04858	10.057
9.03281	10.1232
9.0171	10.1236
9.00145	10.1393
8.98585	10.3013
8.9703	10.385
8.9548	10.5898
8.93937	10.8986
8.92398	11.1809
8.90865	11.2621
8.89337	11.243
8.87814	11.3368
8.86296	11.5598
8.84784	11.82
8.83277	11.982
8.81774	12.0236
8.80277	12.1326
8.78786	12.4332
8.77298	12.6477
8.75816	12.8801
8.7434	13.0704
8.72868	13.1918
8.714	13.3393
8.69938	13.5279
8.68481	13.5989
8.67029	13.6402
8.65581	13.7952
8.64139	13.9434
8.62701	14.0206
8.61268	14.1831
8.5984	14.3122
8.58416	14.3955
8.56997	14.5037
8.55583	14.6059
8.54174	14.7334
8.52769	14.8691
8.51368	14.8025
8.49973	14.8405
8.48582	15.0486
8.47195	15.192
8.45813	15.3142
8.44436	15.4736
8.43062	15.6541
8.41693	15.7841
8.4033	15.8174
8.3897	15.8268
8.37614	15.9564
8.36264	16.1339
8.34917	16.2516
8.33574	16.4311
8.32236	16.6004
8.30903	16.7617
8.29573	16.9866
8.28248	17.0662
8.26927	17.0871
8.2561	17.2061
8.24298	17.4385
8.2299	17.6599
8.21685	17.8632
8.20385	17.9823
8.19089	18.0351
8.17797	18.2007
8.16509	18.3211
8.15225	18.4288
8.13946	18.6267
8.1267	18.7283
8.11398	18.7983
8.10131	19.0326
8.08867	19.1347
8.07606	19.1507
8.0635	19.1872
8.05099	19.306
8.0385	19.5385
8.02606	19.7474
8.01366	19.8617
8.00129	19.8831
7.98896	19.988
7.97667	20.1696
7.96442	20.3063
7.9522	20.466
7.94002	20.6293
7.92788	20.867
7.91578	21.0911
7.90371	21.1574
7.89168	21.2125
7.87969	21.4362
7.86773	21.7717
7.85581	22.0158
7.84392	22.1136
7.83207	22.2831
7.82026	22.5771
7.80849	22.8125
7.79674	23.028
7.78503	23.2503
7.77337	23.5254
7.76173	23.8206
7.75012	24.0105
7.73856	24.2236
7.72703	24.5018
7.71553	24.7522
7.70406	25.0237
7.69263	25.335
7.68123	25.5507
7.66987	25.699
7.65855	25.9026
7.64725	26.1065
7.63598	26.3578
7.62475	26.5844
7.61356	26.7563
7.60239	26.9487
7.59126	27.181
7.58017	27.367
7.5691	27.5706
7.55806	27.8649
7.54707	28.0632
7.5361	28.2052
7.52516	28.3841
7.51425	28.5477
7.50338	28.7466
7.49253	28.9556
7.48172	29.1223
7.47094	29.352
7.46019	29.5059
7.44947	29.5304
7.43879	29.663
7.42813	29.8233
7.4175	29.9899
7.4069	30.1576
7.39634	30.2684
7.3858	30.3978
7.37529	30.4675
7.36482	30.4804
7.35437	30.6859
7.34396	30.985
7.33357	31.0428
7.32321	30.9221
7.31288	30.9452
7.30258	31.0234
7.29231	31.1113
7.28207	31.1786
7.27185	31.2681
7.26167	31.3287
7.25152	31.423
7.24139	31.4508
7.23129	31.4796
7.22122	31.5799
7.21117	31.7341
7.20116	31.7496
7.19117	31.6783
7.18121	31.7371
7.17128	31.9038
7.16137	31.9489
7.1515	32.1007
7.14164	32.1436
7.13182	32.0476
7.12203	32.1192
7.11225	32.1791
7.10251	32.1956
7.0928	32.2665
7.08311	32.2946
7.07344	32.3356
7.06381	32.3496
7.0542	32.494
7.04461	32.6277
7.03506	32.3281
7.02552	32.2489
7.01601	32.3062
7.00653	32.3892
6.99708	32.52
6.98765	32.4777
6.97824	32.4236
6.96886	32.756
6.95951	33.1468
6.95018	32.9453
6.94087	32.8078
6.9316	32.884
6.92234	32.9939
6.91311	33.2286
6.90391	33.3436
6.89473	33.3623
6.88557	33.5086
6.87644	33.7546
6.86733	34.4679
6.85824	34.6256
6.84918	34.3083
6.84015	34.2861
6.83114	34.5765
6.82215	34.6867
6.81319	34.5952
6.80424	34.8994
6.79532	35.5272
6.78643	35.8115
6.77756	35.7364
6.76871	35.7465
6.75989	35.7814
6.75109	35.9576
6.74231	36.0552
6.73355	36.2504
6.72482	36.5987
6.71611	36.977
6.70742	37.1524
6.69875	37.1517
6.69011	37.536
6.68149	37.9986
6.67289	38.0322
6.66431	37.9523
6.65576	38.1221
6.64722	38.8227
6.63871	39.6875
6.63022	39.5034
6.62175	39.1466
6.61331	39.2511
6.60488	39.4227
6.59648	39.7615
6.5881	40.0274
6.57974	40.432
6.5714	40.8266
6.56308	40.6146
6.55478	40.6209
6.54651	40.642
6.53825	40.6571
6.53001	40.9421
6.5218	41.3523
6.51361	41.2382
6.50544	41.5634
6.49729	42.5468
6.48915	42.6772
6.48104	42.2367
6.47295	42.0559
6.46488	41.8778
6.45683	41.8897
6.4488	42.0236
6.44079	42.1976
6.4328	42.4921
6.42482	42.8182
6.41687	43.7018
6.40894	43.4907
6.40103	42.4694
6.39314	42.2164
6.38526	42.2249
6.37741	42.4165
6.36957	42.6058
6.36176	42.2675
6.35396	42.3087
6.34618	42.842
6.33843	42.5017
6.33069	41.9505
6.32297	41.9114
6.31527	41.8509
6.30758	41.8016
6.29992	41.818
6.29227	41.8977
6.28465	41.9015
6.27704	41.9055
6.26945	41.8765
6.26188	41.8489
6.25432	41.8384
6.24679	41.8568
6.23927	41.8087
6.23177	41.7321
6.22429	41.6916
6.21683	41.6782
6.20938	41.6535
6.20195	41.5624
6.19454	41.6773
6.18715	42.1837
6.17978	41.9584
6.17242	41.588
6.16508	41.757
6.15776	41.8703
6.15045	41.7932
6.14317	41.8398
6.1359	41.7237
6.12864	41.7122
6.12141	42.2295
6.11419	42.8108
6.10699	42.5481
6.0998	42.2249
6.09263	42.1506
6.08549	42.2576
6.07835	42.7945
6.07123	43.1638
6.06413	42.9723
6.05705	43.446
6.04998	44.6362
6.04293	44.1014
6.0359	43.3038
6.02888	43.2301
6.02187	43.4494
6.01489	43.7719
6.00792	43.778
6.00096	43.7396
5.99403	44.1208
5.98711	44.4532
5.9802	44.3914
5.97331	44.5853
5.96644	44.8146
5.95958	44.6962
5.95274	44.8999
5.94591	45.4114
5.9391	46.3587
5.9323	46.2308
5.92552	45.6443
5.91876	45.6941
5.91201	45.8108
5.90528	46.1248
5.89856	46.9275
5.89186	47.0167
5.88517	47.4039
5.8785	47.6736
5.87184	46.9633
5.8652	47.0415
5.85857	47.1204
5.85196	47.1433
5.84536	47.2461
5.83878	47.4728
5.83221	47.9062
5.82566	48.5526
5.81912	48.6637
5.81259	48.17
5.80608	48.0226
5.79959	48.1316
5.79311	48.2855
5.78665	48.5236
5.78019	48.6834
5.77376	49.1339
5.76734	49.8057
5.76093	49.4851
5.75453	49.1769
5.74815	49.3828
5.74179	49.2158
5.73543	49.1639
5.7291	49.3017
5.72277	49.5115
5.71646	49.7025
5.71017	49.8594
5.70389	49.5706
5.69762	49.4673
5.69136	49.5425
5.68513	49.5354
5.6789	49.7436
5.67268	49.7771
5.66648	49.6513
5.6603	49.8248
5.65413	49.9717
5.64797	50.1541
5.64182	50.4875
5.63569	50.2355
5.62957	49.9622
5.62347	49.9416
5.61737	50.0412
5.61129	50.0091
5.60522	49.9012
5.59917	49.793
5.59313	49.6935
5.5871	49.6822
5.58109	49.7367
5.57509	49.493
5.5691	49.1289
5.56312	49.1238
5.55716	49.3588
5.55121	49.6477
5.54528	49.7929
5.53935	49.9791
5.53344	50.1423
5.52754	50.2995
5.52166	50.3708
5.51578	50.3609
5.50992	50.4699
5.50407	50.6283
5.49823	50.6496
5.49241	50.7911
5.4866	50.992
5.4808	51.1588
5.47501	51.2032
5.46923	51.3299
5.46347	51.4859
5.45772	51.4204
5.45198	51.3985
5.44625	51.4668
5.44054	51.5252
5.43484	51.5956
5.42914	51.7932
5.42347	52.1161
5.4178	51.9598
5.41214	51.7483
5.4065	51.6809
5.40087	51.5953
5.39525	51.6004
5.38964	51.638
5.38404	51.624
5.37846	51.5836
5.37288	51.6019
5.36732	51.5992
5.36177	51.5939
5.35623	51.7719
5.35071	51.9212
5.34519	51.8046
5.33968	51.7223
5.33419	51.8295
5.32871	51.877
5.32324	51.9125
5.31778	51.9946
5.31233	52.0586
5.30689	52.1283
5.30147	52.1875
5.29605	52.2782
5.29065	52.3649
5.28525	52.3562
5.27987	52.4401
5.2745	52.4506
5.26914	52.4486
5.26379	52.5307
5.25845	52.5968
5.25312	52.6714
5.24781	52.7486
5.2425	52.8006
5.23721	52.8709
5.23192	52.9716
5.22665	53.0436
5.22138	53.0492
5.21613	53.2248
5.21089	53.3036
5.20566	53.2955
5.20044	53.3471
5.19522	53.3391
5.19002	53.3273
5.18483	53.3333
5.17965	53.3689
5.17448	53.4115
5.16933	53.4563
5.16418	53.4667
5.15904	53.4906
5.15391	53.5192
5.14879	53.5588
5.14368	53.5476
5.13859	53.5819
5.1335	53.5838
5.12842	53.578
5.12335	53.6665
5.1183	53.7649
5.11325	53.8304
5.10821	53.8742
5.10318	53.8497
5.09817	53.8661
5.09316	53.9232
5.08816	53.9723
5.08317	54.051
5.07819	54.0503
5.07322	54.0917
5.06826	54.0947
5.06331	54.0679
5.05837	54.0948
5.05344	54.2303
5.04852	54.3147
5.04361	54.296
5.03871	54.2612
5.03382	54.2363
5.02894	54.3183
5.02406	54.4787
5.0192	54.5668
5.01435	54.5244
5.0095	54.4741
5.00467	54.461
4.99984	54.512
4.99502	54.5218
4.99021	54.5662
4.98542	54.7044
4.98063	54.7294
4.97585	54.7017
4.97108	54.7195
4.96632	54.7956
4.96156	54.9076
4.95682	54.9232
4.95209	54.9178
4.94736	54.9653
4.94264	54.9651
4.93794	54.9848
4.93324	55.0293
4.92855	55.0673
4.92387	55.0446
4.9192	55.1138
4.91453	55.2091
4.90988	55.229
4.90524	55.2516
4.9006	55.294
4.89597	55.3584
4.89135	55.4424
4.88674	55.5232
4.88214	55.5026
4.87755	55.4958
4.87296	55.5672
4.86839	55.5576
4.86382	55.5202
4.85926	55.575
4.85471	55.5858
4.85017	55.5634
4.84564	55.639
4.84111	55.6984
4.8366	55.7329
4.83209	55.7213
4.82759	55.728
4.8231	55.7374
4.81862	55.7297
4.81415	55.7067
4.80968	55.6776
4.80522	55.7177
4.80077	55.7367
4.79633	55.765
4.7919	55.8213
4.78747	55.8068
4.78306	55.7841
4.77865	55.7799
4.77425	55.801
4.76986	55.8638
4.76547	55.9102
4.7611	55.8955
4.75673	55.7894
4.75237	55.6989
4.74802	55.807
4.74367	55.8634
4.73934	55.8481
4.73501	55.7561
4.73069	55.722
4.72638	55.7433
4.72207	55.7778
4.71777	55.7984
4.71348	55.8199
4.7092	55.8627
4.70493	55.8416
4.70066	55.8866
4.69641	55.9319
4.69216	55.8841
4.68791	55.8907
4.68368	56.004
4.67945	56.0485
4.67523	56.0086
4.67102	56.0852
4.66682	56.1971
4.66262	56.2238
4.65843	56.2525
4.65425	56.33
4.65007	56.3427
4.64591	56.3246
4.64175	56.3872
4.6376	56.4671
4.63345	56.4438
4.62932	56.5034
4.62519	56.5845
4.62106	56.5606
4.61695	56.5487
4.61284	56.5938
4.60874	56.6022
4.60465	56.6
4.60056	56.6513
4.59648	56.6928
4.59241	56.6256
4.58835	56.5918
4.58429	56.6879
4.58024	56.7419
4.5762	56.7848
4.57216	56.7885
4.56814	56.7595
4.56411	56.7688
4.5601	56.7118
4.55609	56.7652
4.55209	56.8605
4.5481	56.845
4.54411	56.8394
4.54013	56.8375
4.53616	56.7885
4.5322	56.8328
4.52824	56.8279
4.52429	56.7807
4.52034	56.7742
4.51641	56.8292
4.51247	56.847
4.50855	56.833
4.50463	56.861
4.50072	56.8811
4.49682	56.8235
4.49292	56.7975
4.48903	56.8471
4.48515	56.8808
4.48127	56.8826
4.4774	56.8604
4.47354	56.807
4.46968	56.8553
4.46584	56.9188
4.46199	56.9345
4.45815	56.8947
4.45432	56.8902
4.4505	56.9416
4.44668	56.942
4.44287	56.9286
4.43907	56.8968
4.43527	56.8755
4.43148	56.8619
4.4277	56.8473
4.42392	56.9044
4.42015	56.9913
4.41638	56.9712
4.41262	56.8811
4.40887	56.9101
4.40513	56.9712
4.40139	56.9941
4.39765	56.9763
4.39393	56.9632
4.39021	56.9635
4.38649	56.9874
4.38278	56.9783
4.37908	56.9664
4.37539	56.9499
4.3717	56.9512
4.36801	56.9148
4.36434	56.9529
4.36067	57.0115
4.357	56.9674
4.35335	56.9472
4.34969	56.9743
4.34605	56.9731
4.34241	57.0089
4.33877	57.0451
4.33514	56.9979
4.33152	56.9649
4.32791	56.9615
4.3243	56.9291
4.32069	56.9301
4.3171	56.9567
4.31351	56.9565
4.30992	56.9266
4.30634	56.924
4.30277	56.9625
4.2992	56.9581
4.29564	56.9264
4.29208	56.9903
4.28853	57.0575
4.28499	57.0534
4.28145	56.9986
4.27792	56.953
4.27439	56.9558
4.27087	56.918
4.26735	56.9274
4.26384	56.951
4.26034	56.8982
4.25684	56.9145
4.25335	56.9679
4.24986	56.9618
4.24638	56.9291
4.24291	56.9564
4.23944	56.9762
4.23598	56.9667
4.23252	56.9076
4.22906	56.9029
4.22562	57.0079
4.22218	57.0154
4.21874	56.9059
4.21531	56.8779
4.21189	56.9427
4.20847	56.9918
4.20506	56.9865
4.20165	56.9865
4.19825	56.9788
4.19485	56.9126
4.19146	56.9136
4.18807	56.9463
4.18469	56.9669
4.18132	56.9799
4.17795	56.9572
4.17458	56.9837
4.17123	56.9952
4.16787	56.9272
4.16453	56.8448
4.16118	56.8505
4.15785	56.8945
4.15451	56.9382
4.15119	56.9144
4.14787	56.9049
4.14455	56.973
4.14124	56.9309
4.13794	56.9013
4.13464	56.971
4.13134	56.9244
4.12805	56.8388
4.12477	56.8477
4.12149	56.9031
4.11822	56.9002
4.11495	56.8827
4.11168	56.8091
4.10843	56.8468
4.10517	56.8631
4.10192	56.8259
4.09868	56.8168
4.09545	56.8398
4.09221	56.8551
4.08899	56.8022
4.08576	56.7575
4.08255	56.7337
4.07933	56.7288
4.07613	56.7088
4.07292	56.7419
4.06973	56.7682
4.06654	56.6995
4.06335	56.6555
4.06017	56.6352
4.05699	56.6327
4.05382	56.6288
4.05065	56.6115
4.04749	56.588
4.04433	56.5315
4.04118	56.4852
4.03803	56.4119
4.03489	56.2905
4.03175	56.2145
4.02862	56.1578
4.02549	56.0281
4.02237	55.9853
4.01925	56.0076
4.01614	55.9605
4.01303	55.8976
4.00993	55.8306
4.00683	55.722
4.00373	55.6246
4.00064	55.4993
3.99756	55.448
3.99448	55.4483
3.9914	55.4568
3.98833	55.4304
3.98527	55.3184
3.98221	55.25
3.97915	55.2735
3.9761	55.3127
3.97305	55.3538
3.97001	55.3609
3.96697	55.3748
3.96394	55.4357
3.96091	55.4571
3.95789	55.5078
3.95487	55.5476
3.95186	55.5858
3.94885	55.6341
3.94584	55.6801
3.94284	55.7648
3.93984	55.8118
3.93685	55.848
3.93386	55.8586
3.93088	55.8152
3.9279	55.7643
3.92493	55.7766
3.92196	55.8227
3.919	55.7902
3.91604	55.7637
3.91308	55.7494
3.91013	55.7716
3.90718	55.8391
3.90424	55.8307
3.9013	55.7817
3.89837	55.815
3.89544	55.8672
3.89252	55.8289
3.8896	55.7329
3.88668	55.6912
3.88377	55.6721
3.88086	55.6586
3.87796	55.7463
3.87506	55.7691
3.87217	55.729
3.86928	55.7388
3.86639	55.7827
3.86351	55.7136
3.86064	55.6527
3.85776	55.6405
3.8549	55.6213
3.85203	55.6108
3.84917	55.6082
3.84631	55.603
3.84346	55.6688
3.84062	55.6406
3.83777	55.5561
3.83494	55.599
3.8321	55.6527
3.82927	55.6088
3.82644	55.5315
3.82362	55.5808
3.82081	55.6554
3.81799	55.6701
3.81518	55.6512
3.81238	55.654
3.80958	55.5814
3.80678	55.5265
3.80399	55.5486
3.8012	55.6231
3.79841	55.6748
3.79563	55.6214
3.79286	55.5707
3.79008	55.5247
3.78731	55.5505
3.78455	55.5514
3.78179	55.5373
3.77903	55.5777
3.77628	55.5459
3.77353	55.5322
3.77079	55.5613
3.76805	55.5141
3.76531	55.4631
3.76258	55.404
3.75985	55.3685
3.75713	55.4041
3.7544	55.3899
3.75169	55.3207
3.74898	55.3124
3.74627	55.3035
3.74356	55.3039
3.74086	55.2744
3.73816	55.2799
3.73547	55.264
3.73278	55.2418
3.7301	55.2719
3.72741	55.299
3.72474	55.2721
3.72206	55.1962
3.71939	55.0768
3.71673	55.038
3.71406	55.0681
3.71141	55.1141
3.70875	55.1169
3.7061	55.0442
3.70345	54.9326
3.70081	54.8654
3.69817	54.8749
3.69553	54.8741
3.6929	54.8442
3.69027	54.8676
3.68765	54.8735
3.68503	54.8344
3.68241	54.8098
3.6798	54.7791
3.67719	54.756
3.67458	54.725
3.67198	54.7181
3.66938	54.6709
3.66678	54.6027
3.66419	54.554
3.66161	54.5289
3.65902	54.5288
3.65644	54.4894
3.65387	54.4711
3.65129	54.4291
3.64872	54.3777
3.64616	54.4298
3.64359	54.4071
3.64103	54.3253
3.63848	54.3093
3.63593	54.3638
3.63338	54.3893
3.63084	54.2701
3.6283	54.2007
3.62576	54.1855
3.62322	54.159
3.62069	54.1646
3.61817	54.1305
3.61564	54.0659
3.61312	54.0324
3.61061	54.0538
3.6081	54.034
3.60559	54.0214
3.60308	53.9117
3.60058	53.8181
3.59808	53.7972
3.59558	53.8197
3.59309	53.8556
3.59061	53.8554
3.58812	53.8109
3.58564	53.758
3.58316	53.7186
3.58069	53.6416
3.57822	53.5238
3.57575	53.5039
3.57328	53.5035
3.57082	53.4869
3.56836	53.4598
3.56591	53.457
3.56346	53.4183
3.56101	53.3655
3.55857	53.2926
3.55613	53.2295
3.55369	53.2041
3.55126	53.1134
3.54883	53.0049
3.5464	53.0335
3.54397	53.1228
3.54155	53.0454
3.53914	52.8885
3.53672	52.7979
3.53431	52.7558
3.5319	52.6851
3.5295	52.6061
3.5271	52.5962
3.5247	52.5479
3.52231	52.3939
3.51991	52.2278
3.51753	52.1011
3.51514	51.9637
3.51276	51.8369
3.51038	51.6804
3.50801	51.5205
3.50563	51.4316
3.50327	51.3437
3.5009	51.3173
3.49854	51.3556
3.49618	51.3821
3.49382	51.43
3.49147	51.4588
3.48912	51.4542
3.48677	51.426
3.48443	51.3937
3.48209	51.3983
3.47975	51.402
3.47742	51.3731
3.47509	51.2821
3.47276	51.219
3.47044	51.3456
3.46812	51.3708
3.4658	51.2913
3.46348	51.2476
3.46117	51.238
3.45886	51.231
3.45656	51.2057
