Name: Calcite CaCO_3
Type: Mineral
Class: Carbonates
Subclass: 
Particle Size: 0-45um
Sample No.: C-3E
Owner: JPL
Wavelength range: IR
Origin: 
Collected by JPL
Description: 





Measurement: Hemispherical reflectance
First Column: X
Second Column: Y
X Units:  Wavelength (micrometers)
Y Units:  Reflectance (percent)
First X Value: 15.3853
Last X Value: 2.00032
Number of X Values: 2256
Additional information: c03ea.txt
 
15.3853	35.8077
15.3397	36.1117
15.2945	36.7246
15.2495	37.2242
15.2048	37.8384
15.1603	38.6921
15.1161	39.2412
15.0722	39.8309
15.0285	40.3163
14.9851	40.5145
14.9419	40.8797
14.8989	41.5448
14.8563	42.1612
14.8138	42.521
14.7716	42.6864
14.7296	42.8192
14.6879	42.717
14.6464	42.5851
14.6052	42.4398
14.5641	41.885
14.5233	40.9674
14.4828	39.6015
14.4424	37.574
14.4023	35.752
14.3624	34.3871
14.3227	31.9015
14.2833	28.8877
14.244	25.4482
14.205	20.6929
14.1662	15.763
14.1276	10.7736
14.0892	6.29148
14.051	3.49725
14.0131	2.0442
13.9753	1.75933
13.9377	4.28091
13.9004	9.58986
13.8632	16.0473
13.8262	22.1793
13.7895	27.2347
13.7529	31.5673
13.7165	35.324
13.6803	38.4003
13.6443	40.6512
13.6085	42.592
13.5729	44.56
13.5374	46.1593
13.5022	47.3569
13.4671	48.152
13.4322	48.6696
13.3975	49.0337
13.363	49.4009
13.3286	49.493
13.2944	49.2755
13.2604	48.9426
13.2266	48.3599
13.193	47.4535
13.1595	46.5824
13.1262	45.8781
13.093	44.87
13.06	43.7718
13.0272	42.6657
12.9946	41.6751
12.9621	40.9453
12.9298	40.4408
12.8976	40.2528
12.8656	40.2535
12.8337	40.1637
12.8021	40.1723
12.7705	40.2597
12.7391	40.4824
12.7079	40.9187
12.6769	41.5107
12.6459	42.1811
12.6152	42.7625
12.5845	43.1781
12.5541	43.43
12.5238	43.5665
12.4936	43.9078
12.4635	44.5148
12.4337	45.1011
12.4039	45.5193
12.3743	45.6671
12.3448	45.687
12.3155	45.7218
12.2863	45.7442
12.2573	46.0752
12.2284	46.6945
12.1996	47.2728
12.171	47.6935
12.1425	47.9934
12.1141	48.0513
12.0859	47.9057
12.0578	47.7214
12.0298	47.4194
12.0019	46.9824
11.9742	46.3383
11.9466	45.436
11.9192	44.1763
11.8918	42.3185
11.8646	39.1056
11.8375	32.7099
11.8106	22.0271
11.7837	17.5444
11.757	25.3721
11.7304	31.4142
11.7039	31.7923
11.6776	29.9535
11.6513	27.4458
11.6252	24.5554
11.5992	21.3988
11.5733	17.9951
11.5475	14.4545
11.5219	10.9824
11.4963	7.97437
11.4709	6.27047
11.4455	5.95814
11.4203	6.12684
11.3952	6.89751
11.3702	7.67346
11.3454	8.01119
11.3206	8.58658
11.2959	11.1773
11.2714	17.2325
11.2469	23.963
11.2226	28.006
11.1983	30.8102
11.1742	33.3083
11.1502	35.5915
11.1263	37.4858
11.1024	38.9383
11.0787	40.0338
11.0551	41.032
11.0316	41.9716
11.0081	42.8839
10.9848	43.6567
10.9616	44.2132
10.9385	44.5639
10.9154	44.6385
10.8925	44.5695
10.8697	44.3704
10.8469	43.9128
10.8243	43.1193
10.8017	42.1706
10.7793	41.308
10.7569	40.4561
10.7346	39.585
10.7125	38.8334
10.6904	38.4466
10.6684	38.3863
10.6465	38.4534
10.6247	38.5657
10.6029	38.6016
10.5813	38.5006
10.5597	38.3643
10.5383	38.4758
10.5169	38.9306
10.4956	39.5294
10.4744	40.2396
10.4533	40.9362
10.4323	41.666
10.4113	42.2124
10.3904	42.4473
10.3697	42.6465
10.349	42.7468
10.3284	42.6886
10.3078	42.6143
10.2874	42.3588
10.267	41.7072
10.2467	40.6786
10.2265	39.7312
10.2064	39.3777
10.1863	39.7509
10.1663	40.1345
10.1464	40.0728
10.1266	39.7891
10.1069	39.1661
10.0872	38.4359
10.0676	37.8189
10.0481	37.4227
10.0287	37.2447
10.0093	36.8885
9.99005	36.5699
9.97084	36.3539
9.95169	36.0754
9.93263	35.6667
9.91364	35.2352
9.89472	34.883
9.87587	34.6097
9.8571	34.5033
9.83839	34.6901
9.81976	35.074
9.80119	35.4778
9.78271	35.7759
9.76428	35.9848
9.74592	36.2207
9.72764	36.7766
9.70943	37.6683
9.69128	38.7617
9.6732	39.8401
9.65518	40.6941
9.63724	41.273
9.61935	41.489
9.60155	41.5935
9.5838	41.8599
9.56611	42.0773
9.5485	42.5068
9.53094	43.0189
9.51345	43.2375
9.49604	43.3272
9.47867	43.3662
9.46137	43.3658
9.44414	43.1672
9.42697	42.9095
9.40986	42.5727
9.39281	41.7871
9.37583	40.8347
9.35891	40.5803
9.34204	40.6845
9.32524	40.8672
9.3085	41.187
9.29182	41.613
9.27519	41.4946
9.25863	40.302
9.24213	38.1866
9.22568	37.3498
9.2093	38.0604
9.19297	39.1417
9.17669	40.6417
9.16048	41.7878
9.14433	42.4933
9.12823	42.902
9.11218	43.1872
9.0962	43.2296
9.08027	43.1936
9.06439	43.1332
9.04858	43.0911
9.03281	43.0586
9.0171	43.07
9.00145	42.9327
8.98585	42.797
8.9703	42.6895
8.9548	42.3521
8.93937	41.9113
8.92398	41.5747
8.90865	41.3137
8.89337	41.0733
8.87814	40.7529
8.86296	40.4052
8.84784	40.1447
8.83277	39.7414
8.81774	39.0255
8.80277	38.2968
8.78786	37.5607
8.77298	36.7521
8.75816	35.8291
8.7434	34.9309
8.72868	33.8882
8.714	32.7242
8.69938	31.7369
8.68481	30.864
8.67029	29.7882
8.65581	28.5782
8.64139	27.2369
8.62701	25.7117
8.61268	24.4861
8.5984	23.747
8.58416	23.2307
8.56997	23.1554
8.55583	23.4958
8.54174	23.7841
8.52769	23.7341
8.51368	23.4435
8.49973	23.0123
8.48582	22.6696
8.47195	22.6257
8.45813	22.8435
8.44436	23.2017
8.43062	23.6334
8.41693	23.986
8.4033	24.448
8.3897	25.08
8.37614	25.7328
8.36264	26.2552
8.34917	26.803
8.33574	27.3852
8.32236	27.6761
8.30903	27.8059
8.29573	28.1609
8.28248	28.4265
8.26927	28.5891
8.2561	28.7343
8.24298	28.8304
8.2299	28.9546
8.21685	29.0909
8.20385	29.0997
8.19089	28.9238
8.17797	28.6862
8.16509	28.5084
8.15225	28.2629
8.13946	28.0274
8.1267	27.8432
8.11398	27.5497
8.10131	27.1384
8.08867	26.7308
8.07606	26.3381
8.0635	26.1136
8.05099	26.1753
8.0385	26.4807
8.02606	26.7335
8.01366	26.898
8.00129	26.9901
7.98896	27.1028
7.97667	27.0381
7.96442	26.7682
7.9522	26.3644
7.94002	25.7868
7.92788	25.17
7.91578	24.74
7.90371	24.4318
7.89168	24.2932
7.87969	24.4043
7.86773	24.626
7.85581	24.6534
7.84392	24.5091
7.83207	24.1274
7.82026	23.5786
7.80849	23.1507
7.79674	22.9622
7.78503	22.955
7.77337	22.8495
7.76173	22.6295
7.75012	22.4517
7.73856	22.3325
7.72703	21.9637
7.71553	21.4354
7.70406	20.9804
7.69263	20.4896
7.68123	19.8719
7.66987	19.2229
7.65855	18.5761
7.64725	17.9313
7.63598	17.3938
7.62475	16.9149
7.61356	16.4691
7.60239	16.1385
7.59126	15.8888
7.58017	15.6341
7.5691	15.3963
7.55806	15.1971
7.54707	15.1024
7.5361	14.992
7.52516	14.8508
7.51425	14.6976
7.50338	14.5627
7.49253	14.4854
7.48172	14.2792
7.47094	13.9257
7.46019	13.6359
7.44947	13.3341
7.43879	13.0835
7.42813	12.7878
7.4175	12.5106
7.4069	12.321
7.39634	12.0675
7.3858	11.6949
7.37529	11.4207
7.36482	11.0852
7.35437	10.6436
7.34396	10.2252
7.33357	9.88945
7.32321	9.47482
7.31288	9.06425
7.30258	8.71391
7.29231	8.31018
7.28207	8.06582
7.27185	7.89191
7.26167	7.67534
7.25152	7.50695
7.24139	7.35552
7.23129	7.25267
7.22122	7.171
7.21117	7.09841
7.20116	7.05391
7.19117	7.03811
7.18121	7.10923
7.17128	7.23816
7.16137	7.29571
7.1515	7.31861
7.14164	7.45011
7.13182	7.71647
7.12203	7.99721
7.11225	8.2742
7.10251	8.72759
7.0928	9.11136
7.08311	9.17847
7.07344	9.18298
7.06381	9.2329
7.0542	9.24909
7.04461	9.25522
7.03506	9.2126
7.02552	9.18688
7.01601	9.18651
7.00653	9.16912
6.99708	9.02817
6.98765	8.93651
6.97824	8.95969
6.96886	9.0366
6.95951	9.0846
6.95018	8.96267
6.94087	8.89448
6.9316	8.90073
6.92234	8.93979
6.91311	9.10046
6.90391	9.25436
6.89473	9.32125
6.88557	9.39869
6.87644	9.59802
6.86733	9.86619
6.85824	9.94835
6.84918	9.92877
6.84015	9.98904
6.83114	10.1124
6.82215	10.2971
6.81319	10.3921
6.80424	10.3743
6.79532	10.4966
6.78643	10.6981
6.77756	10.7878
6.76871	10.8909
6.75989	11.0053
6.75109	11.1792
6.74231	11.3855
6.73355	11.6062
6.72482	11.9523
6.71611	12.2891
6.70742	12.4638
6.69875	12.5992
6.69011	12.8585
6.68149	13.1591
6.67289	13.2821
6.66431	13.4498
6.65576	13.6885
6.64722	14.0985
6.63871	14.6357
6.63022	14.7803
6.62175	14.8031
6.61331	15.0294
6.60488	15.3396
6.59648	15.733
6.5881	16.0838
6.57974	16.5473
6.5714	17.0863
6.56308	17.226
6.55478	17.4765
6.54651	17.7419
6.53825	17.9908
6.53001	18.356
6.5218	18.7131
6.51361	18.871
6.50544	19.286
6.49729	20.0752
6.48915	20.426
6.48104	20.3879
6.47295	20.4745
6.46488	20.4486
6.45683	20.367
6.4488	20.1
6.44079	19.5252
6.4328	18.6329
6.42482	17.5987
6.41687	16.7674
6.40894	15.4428
6.40103	13.9764
6.39314	13.0204
6.38526	12.1643
6.37741	11.3659
6.36957	10.6577
6.36176	9.81216
6.35396	9.03794
6.34618	8.27593
6.33843	7.29381
6.33069	6.34083
6.32297	5.8503
6.31527	5.34941
6.30758	4.82593
6.29992	4.57661
6.29227	4.36015
6.28465	4.25542
6.27704	4.28478
6.26945	4.34233
6.26188	4.30068
6.25432	4.19904
6.24679	4.00571
6.23927	3.82025
6.23177	3.75481
6.22429	3.68415
6.21683	3.51563
6.20938	3.4657
6.20195	3.42026
6.19454	3.32548
6.18715	3.26855
6.17978	3.22393
6.17242	3.22011
6.16508	3.24495
6.15776	3.361
6.15045	3.47486
6.14317	3.51074
6.1359	3.54026
6.12864	3.53636
6.12141	3.70427
6.11419	4.01589
6.10699	4.08082
6.0998	4.0804
6.09263	4.19018
6.08549	4.28399
6.07835	4.4161
6.07123	4.65137
6.06413	4.81691
6.05705	5.05716
6.04998	5.42962
6.04293	5.6197
6.0359	5.6984
6.02888	5.96974
6.02187	6.36418
6.01489	6.69862
6.00792	6.93
6.00096	7.16268
5.99403	7.48111
5.98711	7.80032
5.9802	8.00573
5.97331	8.23809
5.96644	8.44407
5.95958	8.57668
5.95274	8.87933
5.94591	9.29287
5.9391	9.76943
5.9323	10.0183
5.92552	10.2064
5.91876	10.4903
5.91201	10.7325
5.90528	11.0329
5.89856	11.4472
5.89186	11.6817
5.88517	11.9889
5.8785	12.1872
5.87184	12.0997
5.8652	12.1927
5.85857	12.2126
5.85196	12.1909
5.84536	12.1465
5.83878	12.1317
5.83221	12.2091
5.82566	12.3899
5.81912	12.4081
5.81259	12.2285
5.80608	12.1554
5.79959	12.0833
5.79311	12.0497
5.78665	11.9795
5.78019	11.9038
5.77376	11.9925
5.76734	12.2414
5.76093	12.1227
5.75453	11.9568
5.74815	12.1998
5.74179	12.4689
5.73543	12.7389
5.7291	13.1388
5.72277	13.5761
5.71646	14.0066
5.71017	14.4136
5.70389	14.6233
5.69762	14.9887
5.69136	15.4567
5.68513	15.8678
5.6789	16.5047
5.67268	17.2228
5.66648	17.7852
5.6603	18.5315
5.65413	19.3484
5.64797	20.0083
5.64182	20.3261
5.63569	19.9719
5.62957	19.3297
5.62347	18.4347
5.61737	17.156
5.61129	15.2317
5.60522	12.8251
5.59917	10.1798
5.59313	7.4164
5.5871	4.78955
5.58109	3.08258
5.57509	2.35482
5.5691	2.10876
5.56312	1.95456
5.55716	2.05566
5.55121	3.02822
5.54528	5.37536
5.53935	8.83175
5.53344	12.7303
5.52754	16.4531
5.52166	19.7589
5.51578	22.4362
5.50992	24.749
5.50407	26.8645
5.49823	28.7075
5.49241	30.3753
5.4866	31.9636
5.4808	33.6347
5.47501	35.0844
5.46923	36.4261
5.46347	37.6931
5.45772	38.7464
5.45198	39.9582
5.44625	41.2311
5.44054	42.3741
5.43484	43.5593
5.42914	44.938
5.42347	46.464
5.4178	47.4223
5.41214	48.1622
5.4065	49.1188
5.40087	50.108
5.39525	51.0157
5.38964	51.9212
5.38404	52.7901
5.37846	53.6272
5.37288	54.4564
5.36732	55.2305
5.36177	55.9683
5.35623	56.7841
5.35071	57.6093
5.34519	58.2156
5.33968	58.7422
5.33419	59.435
5.32871	60.1666
5.32324	60.8771
5.31778	61.5166
5.31233	62.1764
5.30689	62.7777
5.30147	63.3375
5.29605	63.9559
5.29065	64.5359
5.28525	64.8578
5.27987	65.2491
5.2745	65.5995
5.26914	65.9499
5.26379	66.3103
5.25845	66.766
5.25312	67.1807
5.24781	67.5967
5.2425	67.999
5.23721	68.3142
5.23192	68.5798
5.22665	68.8713
5.22138	69.1272
5.21613	69.5345
5.21089	69.8946
5.20566	70.1724
5.20044	70.4696
5.19522	70.6798
5.19002	70.8965
5.18483	71.1506
5.17965	71.3389
5.17448	71.5276
5.16933	71.681
5.16418	71.9209
5.15904	72.187
5.15391	72.4151
5.14879	72.6188
5.14368	72.7433
5.13859	72.7907
5.1335	72.848
5.12842	72.7979
5.12335	72.5353
5.1183	71.7908
5.11325	69.989
5.10821	66.8343
5.10318	63.3256
5.09817	62.2759
5.09316	65.4846
5.08816	69.654
5.08317	72.3631
5.07819	73.7925
5.07322	74.5221
5.06826	74.936
5.06331	75.2546
5.05837	75.4633
5.05344	75.5547
5.04852	75.5651
5.04361	75.6159
5.03871	75.6049
5.03382	75.5985
5.02894	75.5845
5.02406	75.6188
5.0192	75.6324
5.01435	75.5764
5.0095	75.5061
5.00467	75.4951
4.99984	75.5161
4.99502	75.5009
4.99021	75.431
4.98542	75.3471
4.98063	75.2949
4.97585	75.1496
4.97108	75.0206
4.96632	75.0366
4.96156	75.0324
4.95682	74.9785
4.95209	74.8802
4.94736	74.8294
4.94264	74.8122
4.93794	74.8102
4.93324	74.7912
4.92855	74.7648
4.92387	74.759
4.9192	74.8703
4.91453	74.976
4.90988	75.0326
4.90524	75.0498
4.9006	75.1349
4.89597	75.2389
4.89135	75.2838
4.88674	75.2519
4.88214	75.2805
4.87755	75.362
4.87296	75.4254
4.86839	75.4037
4.86382	75.4554
4.85926	75.583
4.85471	75.6699
4.85017	75.6643
4.84564	75.6917
4.84111	75.7733
4.8366	75.8486
4.83209	75.9015
4.82759	75.923
4.8231	75.9019
4.81862	75.9337
4.81415	75.972
4.80968	75.9447
4.80522	75.9012
4.80077	75.8985
4.79633	75.8497
4.7919	75.7987
4.78747	75.7041
4.78306	75.5839
4.77865	75.4506
4.77425	75.2325
4.76986	74.8843
4.76547	74.4286
4.7611	73.9268
4.75673	73.4605
4.75237	73.009
4.74802	72.415
4.74367	71.5896
4.73934	70.8074
4.73501	69.9627
4.73069	68.8971
4.72638	67.5467
4.72207	65.8479
4.71777	63.744
4.71348	61.4513
4.7092	59.1874
4.70493	57.0988
4.70066	55.0919
4.69641	53.3793
4.69216	52.0571
4.68791	51.0154
4.68368	50.1893
4.67945	49.6731
4.67523	49.4547
4.67102	49.4264
4.66682	49.5488
4.66262	49.8292
4.65843	50.4288
4.65425	51.4732
4.65007	52.8295
4.64591	54.4081
4.64175	56.1268
4.6376	57.9387
4.63345	59.6322
4.62932	60.9898
4.62519	62.0769
4.62106	63.0988
4.61695	64.1517
4.61284	64.9761
4.60874	65.4369
4.60465	65.7077
4.60056	65.9033
4.59648	66.2655
4.59241	66.567
4.58835	66.7294
4.58429	66.8703
4.58024	67.0051
4.5762	67.116
4.57216	67.1268
4.56814	67.1899
4.56411	67.2679
4.5601	67.2538
4.55609	67.3644
4.55209	67.4831
4.5481	67.5222
4.54411	67.5357
4.54013	67.5834
4.53616	67.551
4.5322	67.5056
4.52824	67.536
4.52429	67.637
4.52034	67.7569
4.51641	67.8429
4.51247	67.8943
4.50855	67.9869
4.50463	68.1042
4.50072	68.3471
4.49682	68.6222
4.49292	68.925
4.48903	69.3586
4.48515	69.8029
4.48127	70.2639
4.4774	70.8636
4.47354	71.4757
4.46968	71.9665
4.46584	72.2976
4.46199	72.6631
4.45815	73.0304
4.45432	73.3127
4.4505	73.6148
4.44668	74.0233
4.44287	74.4412
4.43907	74.8822
4.43527	75.3252
4.43148	75.6672
4.4277	75.8799
4.42392	76.1116
4.42015	76.3375
4.41638	76.5356
4.41262	76.7749
4.40887	76.9924
4.40513	77.0775
4.40139	77.2087
4.39765	77.3102
4.39393	77.372
4.39021	77.5387
4.38649	77.6774
4.38278	77.7335
4.37908	77.7889
4.37539	77.7168
4.3717	77.5266
4.36801	77.2674
4.36434	77.0267
4.36067	76.6768
4.357	76.2265
4.35335	75.7393
4.34969	75.4549
4.34605	75.273
4.34241	75.2179
4.33877	75.1461
4.33514	75.0189
4.33152	74.9431
4.32791	74.9398
4.3243	74.9532
4.32069	74.8976
4.3171	74.8302
4.31351	74.8253
4.30992	74.8839
4.30634	75.028
4.30277	75.2086
4.2992	75.3826
4.29564	75.4872
4.29208	75.543
4.28853	75.5252
4.28499	75.5313
4.28145	75.5809
4.27792	75.6209
4.27439	75.5502
4.27087	75.4468
4.26735	75.3169
4.26384	75.2
4.26034	75.0984
4.25684	75.0193
4.25335	74.9169
4.24986	74.789
4.24638	74.5765
4.24291	74.3067
4.23944	74.0748
4.23598	73.9241
4.23252	73.7187
4.22906	73.6362
4.22562	73.6328
4.22218	73.5333
4.21874	73.4913
4.21531	73.4371
4.21189	73.3385
4.20847	73.3148
4.20506	73.1934
4.20165	73.0193
4.19825	72.8189
4.19485	72.5435
4.19146	72.272
4.18807	72.0577
4.18469	71.8285
4.18132	71.6367
4.17795	71.3567
4.17458	71.0661
4.17123	70.7834
4.16787	70.467
4.16453	70.1919
4.16118	69.906
4.15785	69.6153
4.15451	69.2518
4.15119	68.8124
4.14787	68.3296
4.14455	67.8509
4.14124	67.3656
4.13794	66.8217
4.13464	66.2744
4.13134	65.7628
4.12805	65.1938
4.12477	64.5163
4.12149	63.893
4.11822	63.2564
4.11495	62.6944
4.11168	62.0347
4.10843	61.4281
4.10517	60.8376
4.10192	60.196
4.09868	59.5776
4.09545	58.8991
4.09221	58.208
4.08899	57.4835
4.08576	56.692
4.08255	55.879
4.07933	54.967
4.07613	54.0245
4.07292	53.063
4.06973	51.9899
4.06654	50.826
4.06335	49.7678
4.06017	48.7694
4.05699	47.5043
4.05382	45.92
4.05065	44.1434
4.04749	42.0034
4.04433	39.5076
4.04118	36.9109
4.03803	34.3139
4.03489	31.9291
4.03175	29.9315
4.02862	28.0835
4.02549	26.2335
4.02237	24.4838
4.01925	22.8232
4.01614	21.1567
4.01303	19.299
4.00993	17.2038
4.00683	15.072
4.00373	13.0493
4.00064	11.3962
3.99756	10.1323
3.99448	8.98312
3.9914	8.1113
3.98833	7.48846
3.98527	6.96788
3.98221	6.73621
3.97915	6.72652
3.9761	6.74594
3.97305	6.79114
3.97001	6.93585
3.96697	7.1969
3.96394	7.50308
3.96091	8.0724
3.95789	8.88331
3.95487	9.73191
3.95186	10.7596
3.94885	11.9993
3.94584	13.494
3.94284	15.19
3.93984	16.9232
3.93685	18.249
3.93386	18.8476
3.93088	18.9716
3.9279	19.2501
3.92493	19.7856
3.92196	20.2629
3.919	20.5427
3.91604	20.8625
3.91308	21.1393
3.91013	21.4565
3.90718	21.7407
3.90424	21.9197
3.9013	22.0331
3.89837	22.1727
3.89544	22.302
3.89252	22.3542
3.8896	22.4791
3.88668	22.6777
3.88377	22.8314
3.88086	23.0148
3.87796	23.1934
3.87506	23.2296
3.87217	23.2732
3.86928	23.4076
3.86639	23.4955
3.86351	23.5661
3.86064	23.8119
3.85776	24.0235
3.8549	24.2086
3.85203	24.4478
3.84917	24.7297
3.84631	25.0238
3.84346	25.3848
3.84062	25.922
3.83777	26.6886
3.83494	27.7508
3.8321	29.082
3.82927	30.5995
3.82644	32.1379
3.82362	33.5661
3.82081	35.0331
3.81799	36.627
3.81518	38.284
3.81238	40.0609
3.80958	41.9131
3.80678	43.927
3.80399	46.1256
3.8012	48.5982
3.79841	51.3058
3.79563	54.1321
3.79286	56.8606
3.79008	59.2261
3.78731	61.2077
3.78455	62.8233
3.78179	64.0206
3.77903	64.995
3.77628	65.8614
3.77353	66.5926
3.77079	67.2776
3.76805	67.871
3.76531	68.415
3.76258	68.9239
3.75985	69.2707
3.75713	69.4852
3.7544	69.7212
3.75169	70.0182
3.74898	70.3145
3.74627	70.5661
3.74356	70.8627
3.74086	71.2668
3.73816	71.6641
3.73547	71.9861
3.73278	72.3498
3.7301	72.6429
3.72741	72.8623
3.72474	73.0777
3.72206	73.2311
3.71939	73.421
3.71673	73.602
3.71406	73.7273
3.71141	73.8218
3.70875	73.8729
3.7061	73.9776
3.70345	74.1296
3.70081	74.1932
3.69817	74.2189
3.69553	74.3213
3.6929	74.3945
3.69027	74.3988
3.68765	74.3367
3.68503	74.3271
3.68241	74.3948
3.6798	74.3959
3.67719	74.2917
3.67458	74.222
3.67198	74.2298
3.66938	74.1773
3.66678	74.163
3.66419	74.1104
3.66161	73.9814
3.65902	73.8324
3.65644	73.6478
3.65387	73.536
3.65129	73.4679
3.64872	73.3211
3.64616	73.2211
3.64359	73.1875
3.64103	73.0418
3.63848	72.8437
3.63593	72.6527
3.63338	72.4288
3.63084	72.2859
3.6283	72.1451
3.62576	71.929
3.62322	71.73
3.62069	71.4313
3.61817	71.1758
3.61564	70.9944
3.61312	70.7345
3.61061	70.4205
3.6081	70.1084
3.60559	69.7335
3.60308	69.3051
3.60058	68.8119
3.59808	68.3192
3.59558	67.7965
3.59309	67.1008
3.59061	66.3256
3.58812	65.4677
3.58564	64.4494
3.58316	63.2718
3.58069	62.0067
3.57822	60.7639
3.57575	59.6386
3.57328	58.8498
3.57082	58.5196
3.56836	58.5365
3.56591	58.7313
3.56346	58.8119
3.56101	58.6576
3.55857	58.3386
3.55613	57.832
3.55369	57.145
3.55126	56.3109
3.54883	55.4019
3.5464	54.3723
3.54397	53.1218
3.54155	51.7425
3.53914	50.2039
3.53672	48.4104
3.53431	46.3125
3.5319	43.9885
3.5295	41.499
3.5271	38.7383
3.5247	35.7506
3.52231	32.8437
3.51991	30.3052
3.51753	28.1269
3.51514	26.3764
3.51276	25.0336
3.51038	23.9902
3.50801	23.0987
3.50563	22.3542
3.50327	21.6998
3.5009	20.9256
3.49854	20.1741
3.49618	19.4313
3.49382	18.6903
3.49147	17.9455
3.48912	17.2153
3.48677	16.5958
3.48443	16.0454
3.48209	15.6215
3.47975	15.3771
3.47742	15.3115
3.47509	15.6378
3.47276	16.531
3.47044	17.9788
3.46812	19.9292
3.4658	22.0409
3.46348	23.8059
3.46117	25.0302
3.45886	25.9257
3.45656	26.6408
3.45425	27.1848
3.45195	27.5597
