Name: Lepidolite K(Li,Al)3(Si,Al)_4O_10(F,OH)_2 
Type: Mineral
Class: Silicates
Subclass: Phyllosilicates
Particle Size: 125-500um
Sample No.: PS-13A
Owner: JPL
Wavelength range: IR
Origin: USA, South Dakota
Collected by Ward's
Description:  Yellow lepidolite. 





Measurement: Hemispherical reflectance
First Column: X
Second Column: Y
X Units:  Wavelength (micrometers)
Y Units:  Reflectance (percent)
First X Value: 15.3853
Last X Value: 2.00032
Number of X Values: 2256
Additional information: ps13aa.txt
 
15.3853	0.749581
15.3397	0.913819
15.2945	1.14863
15.2495	1.18278
15.2048	1.14965
15.1603	1.04455
15.1161	0.882017
15.0722	0.791933
15.0285	1.00597
14.9851	1.0822
14.9419	1.16014
14.8989	1.39408
14.8563	1.42257
14.8138	1.4947
14.7716	1.59068
14.7296	1.69714
14.6879	1.71562
14.6464	1.62869
14.6052	1.69103
14.5641	1.79528
14.5233	2.00298
14.4828	2.20056
14.4424	2.07718
14.4023	2.07931
14.3624	2.20382
14.3227	2.20624
14.2833	1.98764
14.244	2.07778
14.205	2.18075
14.1662	2.14799
14.1276	2.12314
14.0892	2.12184
14.051	2.1114
14.0131	1.98576
13.9753	2.03333
13.9377	2.49259
13.9004	2.84677
13.8632	2.92074
13.8262	2.7896
13.7895	2.86447
13.7529	2.99626
13.7165	2.87936
13.6803	2.72645
13.6443	2.69258
13.6085	2.65143
13.5729	2.87434
13.5374	3.03417
13.5022	3.18243
13.4671	3.37474
13.4322	3.57276
13.3975	3.61103
13.363	3.57734
13.3286	3.54524
13.2944	3.33217
13.2604	3.27085
13.2266	3.23261
13.193	3.01801
13.1595	2.83554
13.1262	2.60381
13.093	2.31338
13.06	2.01747
13.0272	1.94653
12.9946	2.02899
12.9621	2.00814
12.9298	2.0494
12.8976	2.16002
12.8656	2.25975
12.8337	2.47795
12.8021	2.60007
12.7705	2.70315
12.7391	2.8646
12.7079	2.94005
12.6769	2.91405
12.6459	3.0698
12.6152	3.12244
12.5845	3.10635
12.5541	3.19494
12.5238	3.24302
12.4936	3.11269
12.4635	3.04591
12.4337	3.12076
12.4039	3.38067
12.3743	3.29852
12.3448	2.99081
12.3155	2.83611
12.2863	2.9325
12.2573	3.18106
12.2284	3.28689
12.1996	3.34958
12.171	3.44163
12.1425	3.5834
12.1141	3.63017
12.0859	3.58335
12.0578	3.66588
12.0298	3.78869
12.0019	3.84826
11.9742	3.9425
11.9466	4.02784
11.9192	3.99281
11.8918	3.97963
11.8646	4.21465
11.8375	4.36774
11.8106	4.4174
11.7837	4.46363
11.757	4.6623
11.7304	4.80458
11.7039	4.86899
11.6776	4.95452
11.6513	5.03915
11.6252	5.10396
11.5992	5.19994
11.5733	5.21689
11.5475	5.21725
11.5219	5.35627
11.4963	5.45448
11.4709	5.63645
11.4455	5.74592
11.4203	5.74617
11.3952	5.79416
11.3702	5.83443
11.3454	5.92254
11.3206	6.06625
11.2959	6.27644
11.2714	6.44845
11.2469	6.47601
11.2226	6.4632
11.1983	6.58958
11.1742	6.85383
11.1502	6.9937
11.1263	7.07172
11.1024	7.17638
11.0787	7.3472
11.0551	7.56049
11.0316	7.66802
11.0081	7.73938
10.9848	7.94237
10.9616	8.00731
10.9385	7.96878
10.9154	7.91751
10.8925	7.83034
10.8697	7.84487
10.8469	7.93053
10.8243	8.07469
10.8017	8.20424
10.7793	8.20419
10.7569	8.16153
10.7346	8.1181
10.7125	8.09356
10.6904	8.00397
10.6684	7.80015
10.6465	7.75513
10.6247	7.79998
10.6029	7.73788
10.5813	7.62385
10.5597	7.62573
10.5383	7.71816
10.5169	7.92321
10.4956	8.20449
10.4744	8.53665
10.4533	8.87084
10.4323	9.22282
10.4113	9.58931
10.3904	9.91667
10.3697	10.3423
10.349	10.9285
10.3284	11.4836
10.3078	12.0573
10.2874	12.7094
10.267	13.3194
10.2467	13.8572
10.2265	14.4149
10.2064	14.9856
10.1863	15.4925
10.1663	15.8857
10.1464	16.2596
10.1266	16.7143
10.1069	17.014
10.0872	17.1685
10.0676	17.1923
10.0481	17.3789
10.0287	17.5046
10.0093	17.5834
9.99005	17.7342
9.97084	17.9592
9.95169	18.2599
9.93263	18.5628
9.91364	18.944
9.89472	19.2755
9.87587	19.6152
9.8571	19.964
9.83839	20.4644
9.81976	20.8489
9.80119	21.1566
9.78271	21.69
9.76428	22.3267
9.74592	23.0181
9.72764	23.8086
9.70943	24.6812
9.69128	25.5123
9.6732	26.3901
9.65518	27.3718
9.63724	28.3458
9.61935	29.0327
9.60155	29.1483
9.5838	28.6889
9.56611	27.9289
9.5485	26.6823
9.53094	24.9525
9.51345	23.2026
9.49604	21.6593
9.47867	20.5096
9.46137	19.8007
9.44414	19.5491
9.42697	19.7875
9.40986	20.2483
9.39281	20.9261
9.37583	21.548
9.35891	22.3208
9.34204	23.1636
9.32524	24.0278
9.3085	24.7461
9.29182	25.2257
9.27519	25.8285
9.25863	26.3815
9.24213	26.7993
9.22568	27.1224
9.2093	27.5517
9.19297	27.9171
9.17669	28.0676
9.16048	28.2755
9.14433	28.2951
9.12823	28.1233
9.11218	27.9068
9.0962	27.6012
9.08027	27.0892
9.06439	26.7001
9.04858	26.4538
9.03281	26.1806
9.0171	25.8093
9.00145	25.4608
8.98585	25.2846
8.9703	24.9399
8.9548	24.4943
8.93937	24.1118
8.92398	23.7517
8.90865	23.1775
8.89337	22.3073
8.87814	21.486
8.86296	20.815
8.84784	20.0151
8.83277	19.1004
8.81774	18.27
8.80277	17.4886
8.78786	16.7706
8.77298	16.0386
8.75816	15.1116
8.7434	14.0736
8.72868	12.9624
8.714	11.8391
8.69938	10.6759
8.68481	9.49259
8.67029	8.4229
8.65581	7.43744
8.64139	6.64242
8.62701	5.84035
8.61268	5.02076
8.5984	4.39934
8.58416	3.89121
8.56997	3.49067
8.55583	3.13093
8.54174	2.73399
8.52769	2.39291
8.51368	2.15316
8.49973	2.00134
8.48582	1.77114
8.47195	1.62297
8.45813	1.53735
8.44436	1.35024
8.43062	1.15051
8.41693	1.1364
8.4033	1.05223
8.3897	0.852793
8.37614	0.760391
8.36264	0.787561
8.34917	0.806012
8.33574	0.758732
8.32236	0.600101
8.30903	0.460554
8.29573	0.373219
8.28248	0.39108
8.26927	0.491146
8.2561	0.494681
8.24298	0.366039
8.2299	0.267209
8.21685	0.214468
8.20385	0.304893
8.19089	0.504112
8.17797	0.494386
8.16509	0.278268
8.15225	0.232653
8.13946	0.288265
8.1267	0.32036
8.11398	0.269327
8.10131	0.229687
8.08867	0.18517
8.07606	0.24432
8.0635	0.356443
8.05099	0.32154
8.0385	0.275965
8.02606	0.262254
8.01366	0.30502
8.00129	0.332615
7.98896	0.337188
7.97667	0.331218
7.96442	0.345271
7.9522	0.3232
7.94002	0.434782
7.92788	0.509202
7.91578	0.478938
7.90371	0.414238
7.89168	0.294689
7.87969	0.425083
7.86773	0.574369
7.85581	0.489478
7.84392	0.447546
7.83207	0.544493
7.82026	0.606855
7.80849	0.581896
7.79674	0.545027
7.78503	0.553083
7.77337	0.595282
7.76173	0.688387
7.75012	0.815914
7.73856	0.800485
7.72703	0.720236
7.71553	0.787775
7.70406	0.834665
7.69263	0.833262
7.68123	0.889382
7.66987	0.943456
7.65855	0.896935
7.64725	0.971003
7.63598	1.11172
7.62475	1.13137
7.61356	1.12481
7.60239	1.1319
7.59126	1.15657
7.58017	1.13529
7.5691	1.127
7.55806	1.22619
7.54707	1.28435
7.5361	1.28841
7.52516	1.31898
7.51425	1.28307
7.50338	1.34368
7.49253	1.46484
7.48172	1.43237
7.47094	1.4721
7.46019	1.57336
7.44947	1.58924
7.43879	1.60461
7.42813	1.64998
7.4175	1.58423
7.4069	1.63457
7.39634	1.77816
7.3858	1.79637
7.37529	1.73768
7.36482	1.76847
7.35437	1.8421
7.34396	1.84808
7.33357	1.91725
7.32321	1.96079
7.31288	1.94022
7.30258	1.93888
7.29231	1.93342
7.28207	1.96376
7.27185	2.02925
7.26167	2.0372
7.25152	2.03414
7.24139	2.1012
7.23129	2.09502
7.22122	2.08573
7.21117	2.14384
7.20116	2.22561
7.19117	2.26865
7.18121	2.31014
7.17128	2.35382
7.16137	2.30253
7.1515	2.27287
7.14164	2.26301
7.13182	2.29125
7.12203	2.3467
7.11225	2.28303
7.10251	2.27143
7.0928	2.33133
7.08311	2.39595
7.07344	2.38633
7.06381	2.32512
7.0542	2.32898
7.04461	2.45804
7.03506	2.49214
7.02552	2.50482
7.01601	2.52664
7.00653	2.65708
6.99708	2.66899
6.98765	2.60668
6.97824	2.65829
6.96886	2.77111
6.95951	2.82065
6.95018	2.8135
6.94087	2.82179
6.9316	2.89599
6.92234	2.86309
6.91311	2.92917
6.90391	3.02901
6.89473	3.04416
6.88557	3.1814
6.87644	3.30914
6.86733	3.40031
6.85824	3.44148
6.84918	3.43595
6.84015	3.52788
6.83114	3.67115
6.82215	3.74301
6.81319	3.77646
6.80424	3.84779
6.79532	3.91509
6.78643	3.98076
6.77756	4.03716
6.76871	4.12908
6.75989	4.18232
6.75109	4.2595
6.74231	4.27192
6.73355	4.37201
6.72482	4.54675
6.71611	4.67685
6.70742	4.68279
6.69875	4.72372
6.69011	4.77209
6.68149	4.82582
6.67289	4.83226
6.66431	4.85442
6.65576	4.90583
6.64722	4.9884
6.63871	5.11038
6.63022	5.21902
6.62175	5.24557
6.61331	5.22311
6.60488	5.2175
6.59648	5.2929
6.5881	5.42459
6.57974	5.56075
6.5714	5.70495
6.56308	5.6911
6.55478	5.69468
6.54651	5.73094
6.53825	5.76175
6.53001	5.82896
6.5218	5.94238
6.51361	5.97856
6.50544	6.01696
6.49729	6.10225
6.48915	6.12703
6.48104	6.12627
6.47295	6.11262
6.46488	6.15926
6.45683	6.24674
6.4488	6.26722
6.44079	6.28807
6.4328	6.35441
6.42482	6.38252
6.41687	6.60479
6.40894	6.67174
6.40103	6.54729
6.39314	6.49516
6.38526	6.48179
6.37741	6.59759
6.36957	6.65502
6.36176	6.52445
6.35396	6.61245
6.34618	6.84709
6.33843	6.81369
6.33069	6.74368
6.32297	6.78036
6.31527	6.78303
6.30758	6.86373
6.29992	6.93222
6.29227	6.90459
6.28465	6.95906
6.27704	6.95907
6.26945	6.90031
6.26188	6.96502
6.25432	6.98021
6.24679	7.01805
6.23927	7.03635
6.23177	6.97384
6.22429	6.85477
6.21683	6.83075
6.20938	6.78608
6.20195	6.71004
6.19454	6.6861
6.18715	6.71454
6.17978	6.63084
6.17242	6.51181
6.16508	6.44188
6.15776	6.39834
6.15045	6.34475
6.14317	6.2592
6.1359	6.22021
6.12864	6.10862
6.12141	6.07136
6.11419	6.12503
6.10699	5.98713
6.0998	5.83404
6.09263	5.71315
6.08549	5.72632
6.07835	5.93935
6.07123	6.00219
6.06413	5.80632
6.05705	5.7409
6.04998	5.90218
6.04293	5.79047
6.0359	5.5825
6.02888	5.50781
6.02187	5.49802
6.01489	5.50807
6.00792	5.40562
6.00096	5.32576
5.99403	5.37991
5.98711	5.39848
5.9802	5.32627
5.97331	5.30529
5.96644	5.29311
5.95958	5.17872
5.95274	5.10419
5.94591	5.06277
5.9391	5.05638
5.9323	5.03308
5.92552	5.00388
5.91876	5.00988
5.91201	5.03511
5.90528	5.08126
5.89856	5.06371
5.89186	4.97472
5.88517	5.04052
5.8785	5.13467
5.87184	5.09506
5.8652	5.07974
5.85857	5.03532
5.85196	4.98025
5.84536	4.94514
5.83878	4.93995
5.83221	5.01007
5.82566	5.11907
5.81912	5.14079
5.81259	4.99905
5.80608	4.98238
5.79959	5.02229
5.79311	4.97472
5.78665	4.941
5.78019	4.92233
5.77376	4.85621
5.76734	4.88874
5.76093	4.90079
5.75453	4.82345
5.74815	4.77819
5.74179	4.74728
5.73543	4.73122
5.7291	4.71862
5.72277	4.69728
5.71646	4.67009
5.71017	4.71332
5.70389	4.71364
5.69762	4.60522
5.69136	4.54254
5.68513	4.56683
5.6789	4.66518
5.67268	4.60493
5.66648	4.44768
5.6603	4.51977
5.65413	4.56044
5.64797	4.60396
5.64182	4.65603
5.63569	4.54535
5.62957	4.51493
5.62347	4.50064
5.61737	4.49314
5.61129	4.46047
5.60522	4.52715
5.59917	4.49702
5.59313	4.35364
5.5871	4.3086
5.58109	4.31126
5.57509	4.27641
5.5691	4.28151
5.56312	4.31921
5.55716	4.30947
5.55121	4.27871
5.54528	4.23437
5.53935	4.25326
5.53344	4.28212
5.52754	4.33232
5.52166	4.29612
5.51578	4.21841
5.50992	4.19795
5.50407	4.23858
5.49823	4.27326
5.49241	4.30087
5.4866	4.27685
5.4808	4.29813
5.47501	4.32262
5.46923	4.26497
5.46347	4.24403
5.45772	4.25352
5.45198	4.2222
5.44625	4.2693
5.44054	4.37643
5.43484	4.39881
5.42914	4.34927
5.42347	4.42194
5.4178	4.46773
5.41214	4.45457
5.4065	4.52065
5.40087	4.55424
5.39525	4.5795
5.38964	4.58982
5.38404	4.63452
5.37846	4.60626
5.37288	4.64621
5.36732	4.70494
5.36177	4.74437
5.35623	4.84507
5.35071	4.9185
5.34519	4.95206
5.33968	5.02662
5.33419	5.12365
5.32871	5.2495
5.32324	5.30689
5.31778	5.33014
5.31233	5.41693
5.30689	5.56204
5.30147	5.69176
5.29605	5.72889
5.29065	5.82251
5.28525	5.9931
5.27987	6.12097
5.2745	6.26354
5.26914	6.39598
5.26379	6.53611
5.25845	6.72087
5.25312	6.80941
5.24781	6.9277
5.2425	7.13479
5.23721	7.26729
5.23192	7.43888
5.22665	7.5949
5.22138	7.68079
5.21613	7.84195
5.21089	8.04847
5.20566	8.25365
5.20044	8.37571
5.19522	8.48365
5.19002	8.63395
5.18483	8.80442
5.17965	8.98528
5.17448	9.18891
5.16933	9.37486
5.16418	9.61517
5.15904	9.88807
5.15391	10.1045
5.14879	10.2672
5.14368	10.4814
5.13859	10.7007
5.1335	10.9093
5.12842	11.1729
5.12335	11.3786
5.1183	11.5566
5.11325	11.7415
5.10821	11.8881
5.10318	12.0964
5.09817	12.2646
5.09316	12.4061
5.08816	12.5801
5.08317	12.6658
5.07819	12.774
5.07322	12.8945
5.06826	12.9525
5.06331	13.0812
5.05837	13.231
5.05344	13.2972
5.04852	13.3544
5.04361	13.4232
5.03871	13.5022
5.03382	13.5711
5.02894	13.5702
5.02406	13.5991
5.0192	13.6717
5.01435	13.7185
5.0095	13.6959
5.00467	13.7003
4.99984	13.7789
4.99502	13.7409
4.99021	13.6611
4.98542	13.6863
4.98063	13.7453
4.97585	13.7327
4.97108	13.7476
4.96632	13.7155
4.96156	13.5965
4.95682	13.5733
4.95209	13.6782
4.94736	13.7635
4.94264	13.7352
4.93794	13.6242
4.93324	13.5834
4.92855	13.552
4.92387	13.6342
4.9192	13.7816
4.91453	13.7826
4.90988	13.7561
4.90524	13.7505
4.9006	13.8145
4.89597	13.9327
4.89135	14.0073
4.88674	14.1113
4.88214	14.2486
4.87755	14.3158
4.87296	14.3235
4.86839	14.4238
4.86382	14.59
4.85926	14.695
4.85471	14.7986
4.85017	14.8157
4.84564	14.8612
4.84111	15.0387
4.8366	15.2221
4.83209	15.3377
4.82759	15.3758
4.8231	15.375
4.81862	15.4725
4.81415	15.5387
4.80968	15.6435
4.80522	15.7715
4.80077	15.8258
4.79633	15.9227
4.7919	16.026
4.78747	16.1028
4.78306	16.1514
4.77865	16.3055
4.77425	16.5184
4.76986	16.6387
4.76547	16.7788
4.7611	16.916
4.75673	17.085
4.75237	17.2575
4.74802	17.4308
4.74367	17.5895
4.73934	17.763
4.73501	17.9263
4.73069	18.1319
4.72638	18.3288
4.72207	18.4704
4.71777	18.5536
4.71348	18.6682
4.7092	18.8451
4.70493	19.0346
4.70066	19.2191
4.69641	19.3837
4.69216	19.5652
4.68791	19.7391
4.68368	19.8942
4.67945	20.1084
4.67523	20.3793
4.67102	20.5634
4.66682	20.7894
4.66262	21.0509
4.65843	21.3616
4.65425	21.6199
4.65007	21.7932
4.64591	22.0878
4.64175	22.485
4.6376	22.8563
4.63345	23.118
4.62932	23.4005
4.62519	23.7635
4.62106	24.1951
4.61695	24.5945
4.61284	24.883
4.60874	25.2331
4.60465	25.618
4.60056	25.9417
4.59648	26.2957
4.59241	26.5978
4.58835	26.8257
4.58429	27.1743
4.58024	27.6154
4.5762	27.9145
4.57216	28.2021
4.56814	28.4613
4.56411	28.7467
4.5601	29.1269
4.55609	29.4817
4.55209	29.7427
4.5481	30.0305
4.54411	30.35
4.54013	30.6826
4.53616	30.9772
4.5322	31.3267
4.52824	31.7028
4.52429	32.0648
4.52034	32.3798
4.51641	32.7224
4.51247	33.1756
4.50855	33.6242
4.50463	33.966
4.50072	34.3011
4.49682	34.7387
4.49292	35.0545
4.48903	35.3324
4.48515	35.7872
4.48127	36.2852
4.4774	36.6874
4.47354	37.072
4.46968	37.4481
4.46584	37.862
4.46199	38.3259
4.45815	38.7461
4.45432	39.2249
4.4505	39.7346
4.44668	40.2721
4.44287	40.7806
4.43907	41.304
4.43527	41.7812
4.43148	42.2676
4.4277	42.8648
4.42392	43.3613
4.42015	43.8637
4.41638	44.4258
4.41262	44.9695
4.40887	45.3727
4.40513	45.8003
4.40139	46.2528
4.39765	46.752
4.39393	47.1973
4.39021	47.5718
4.38649	47.8986
4.38278	48.1743
4.37908	48.5254
4.37539	48.8262
4.3717	49.1109
4.36801	49.4251
4.36434	49.7014
4.36067	49.9107
4.357	50.1229
4.35335	50.3596
4.34969	50.5727
4.34605	50.7486
4.34241	50.9369
4.33877	51.0556
4.33514	51.2202
4.33152	51.4267
4.32791	51.5778
4.3243	51.7084
4.32069	51.922
4.3171	52.1065
4.31351	52.221
4.30992	52.3532
4.30634	52.4603
4.30277	52.5014
4.2992	52.6244
4.29564	52.7993
4.29208	52.973
4.28853	53.1318
4.28499	53.2142
4.28145	53.2571
4.27792	53.3587
4.27439	53.4091
4.27087	53.4537
4.26735	53.59
4.26384	53.6469
4.26034	53.6
4.25684	53.6471
4.25335	53.8628
4.24986	54.0354
4.24638	54.1231
4.24291	54.201
4.23944	54.2844
4.23598	54.3666
4.23252	54.4892
4.22906	54.5942
4.22562	54.5997
4.22218	54.6378
4.21874	54.642
4.21531	54.6742
4.21189	54.7197
4.20847	54.6765
4.20506	54.6264
4.20165	54.6972
4.19825	54.727
4.19485	54.7611
4.19146	54.8384
4.18807	54.8879
4.18469	54.888
4.18132	54.9015
4.17795	54.9888
4.17458	55.07
4.17123	55.1469
4.16787	55.1925
4.16453	55.2201
4.16118	55.2134
4.15785	55.206
4.15451	55.2599
4.15119	55.3156
4.14787	55.4276
4.14455	55.5405
4.14124	55.4927
4.13794	55.4742
4.13464	55.5456
4.13134	55.6007
4.12805	55.6584
4.12477	55.7012
4.12149	55.7334
4.11822	55.7737
4.11495	55.8267
4.11168	55.8635
4.10843	55.9118
4.10517	55.9684
4.10192	56.0229
4.09868	56.0894
4.09545	56.1411
4.09221	56.1299
4.08899	56.1795
4.08576	56.2749
4.08255	56.298
4.07933	56.2913
4.07613	56.4188
4.07292	56.5047
4.06973	56.5221
4.06654	56.4946
4.06335	56.4944
4.06017	56.5303
4.05699	56.5516
4.05382	56.6124
4.05065	56.7218
4.04749	56.8466
4.04433	56.9001
4.04118	56.9226
4.03803	56.9526
4.03489	56.9833
4.03175	57.0062
4.02862	57.0261
4.02549	56.9839
4.02237	57.0023
4.01925	57.0881
4.01614	57.096
4.01303	57.1271
4.00993	57.1902
4.00683	57.1928
4.00373	57.2884
4.00064	57.3991
3.99756	57.3575
3.99448	57.3565
3.9914	57.4019
3.98833	57.5149
3.98527	57.5227
3.98221	57.5118
3.97915	57.5443
3.9761	57.626
3.97305	57.7074
3.97001	57.7597
3.96697	57.7751
3.96394	57.7962
3.96091	57.8388
3.95789	57.8741
3.95487	57.8612
3.95186	57.9197
3.94885	57.9485
3.94584	57.9763
3.94284	58.041
3.93984	58.0918
3.93685	58.1057
3.93386	58.0956
3.93088	58.1166
3.9279	58.1658
3.92493	58.2444
3.92196	58.3276
3.919	58.3332
3.91604	58.3581
3.91308	58.4277
3.91013	58.3826
3.90718	58.3324
3.90424	58.39
3.9013	58.4387
3.89837	58.4799
3.89544	58.5418
3.89252	58.6151
3.8896	58.6712
3.88668	58.7574
3.88377	58.7473
3.88086	58.713
3.87796	58.7451
3.87506	58.7641
3.87217	58.8273
3.86928	58.9085
3.86639	58.9405
3.86351	58.9021
3.86064	58.8909
3.85776	58.9328
3.8549	58.9553
3.85203	59.0053
3.84917	58.9629
3.84631	59.0131
3.84346	59.03
3.84062	59.0205
3.83777	59.0537
3.83494	59.0541
3.8321	59.0501
3.82927	59.0457
3.82644	59.0298
3.82362	59.006
3.82081	58.97
3.81799	58.939
3.81518	58.8493
3.81238	58.7867
3.80958	58.7562
3.80678	58.7333
3.80399	58.7248
3.8012	58.6898
3.79841	58.5767
3.79563	58.4213
3.79286	58.2508
3.79008	58.1585
3.78731	58.1228
3.78455	58.0149
3.78179	57.8516
3.77903	57.6423
3.77628	57.4118
3.77353	57.1751
3.77079	57.0333
3.76805	56.83
3.76531	56.5942
3.76258	56.2928
3.75985	55.9145
3.75713	55.5107
3.7544	55.0575
3.75169	54.551
3.74898	54.0471
3.74627	53.5163
3.74356	53.0401
3.74086	52.5444
3.73816	52.0821
3.73547	51.6741
3.73278	51.4835
3.7301	51.3679
3.72741	51.2547
3.72474	51.1066
3.72206	51.0091
3.71939	50.9566
3.71673	50.8869
3.71406	50.8003
3.71141	50.7336
3.70875	50.7404
3.7061	50.8092
3.70345	50.8566
3.70081	50.9038
3.69817	50.9299
3.69553	50.9908
3.6929	51.0724
3.69027	51.1836
3.68765	51.3407
3.68503	51.4132
3.68241	51.3834
3.6798	51.3631
3.67719	51.3014
3.67458	51.2701
3.67198	51.3023
3.66938	51.2813
3.66678	51.2684
3.66419	51.237
3.66161	51.1576
3.65902	51.1236
3.65644	51.1418
3.65387	51.1925
3.65129	51.1593
3.64872	51.085
3.64616	51.1087
3.64359	51.1428
3.64103	51.0982
3.63848	51.004
3.63593	51.0417
3.63338	51.1665
3.63084	51.1722
3.6283	51.1242
3.62576	51.0626
3.62322	51.0961
3.62069	51.1064
3.61817	51.0501
3.61564	50.9484
3.61312	50.8889
3.61061	50.8371
3.6081	50.7109
3.60559	50.559
3.60308	50.4351
3.60058	50.2475
3.59808	50.0417
3.59558	49.8255
3.59309	49.6255
3.59061	49.3954
3.58812	49.1454
3.58564	48.8624
3.58316	48.5701
3.58069	48.2777
3.57822	47.9798
3.57575	47.6046
3.57328	47.2462
3.57082	46.9411
3.56836	46.5827
3.56591	46.2953
3.56346	45.9626
3.56101	45.6898
3.55857	45.4503
3.55613	45.1939
3.55369	45.0588
3.55126	44.8598
3.54883	44.6767
3.5464	44.5683
3.54397	44.4863
3.54155	44.4493
3.53914	44.4552
3.53672	44.4635
3.53431	44.4909
3.5319	44.5585
3.5295	44.6293
3.5271	44.6208
3.5247	44.6094
3.52231	44.657
3.51991	44.7684
3.51753	44.876
3.51514	44.8627
3.51276	44.862
3.51038	44.9942
3.50801	45.0438
3.50563	45.0429
3.50327	45.1805
3.5009	45.2432
3.49854	45.1575
3.49618	45.1627
3.49382	45.1906
3.49147	45.1484
3.48912	45.0349
3.48677	45.0017
3.48443	44.9648
3.48209	44.8427
3.47975	44.6894
3.47742	44.5075
