Name: Magnesite MgCO_3
Type: Mineral
Class: Carbonates
Subclass: 
Particle Size: 125-500um
Sample No.: C-6A
Owner: JPL
Wavelength range: VNIR-SWIR
Origin: USA, California, Riverside County.
Collected by:  Ward's
Description: 





Measurement: Hemispherical reflectance
First Column: X
Second Column: Y
X Units: Wavelength (micrometers)
Y Units: Reflectance (percent)
First X Value: 2.500
Last X Value: 0.400
Number of X Values: 2101
Additional information: c06aa.txt

2.500  34.909088
2.499  34.854869
2.498  34.872513
2.497  35.071497
2.496  34.771587
2.495  35.276755
2.494  34.989653
2.493  35.024103
2.492  35.110565
2.491  35.156534
2.490  35.143347
2.489  35.284970
2.488  35.338961
2.487  35.586955
2.486  35.466757
2.485  35.699083
2.484  35.911273
2.483  35.932098
2.482  36.071490
2.481  36.059825
2.480  36.147677
2.479  36.262205
2.478  36.322182
2.477  36.439739
2.476  36.519808
2.475  36.723308
2.474  36.751791
2.473  36.916204
2.472  36.830745
2.471  37.043530
2.470  37.149200
2.469  37.237055
2.468  37.465660
2.467  37.425140
2.466  37.710407
2.465  37.699030
2.464  37.891012
2.463  37.920478
2.462  37.915252
2.461  38.145670
2.460  38.158865
2.459  38.226601
2.458  38.322480
2.457  38.559033
2.456  38.633642
2.455  38.801430
2.454  38.870260
2.453  39.014829
2.452  39.118879
2.451  39.311187
2.450  39.446439
2.449  39.644694
2.448  39.807194
2.447  39.934451
2.446  40.117528
2.445  40.302239
2.444  40.500367
2.443  40.590954
2.442  40.621590
2.441  40.733889
2.440  41.073192
2.439  41.293008
2.438  41.414153
2.437  41.661717
2.436  41.813599
2.435  42.078884
2.434  42.142895
2.433  42.427135
2.432  42.533029
2.431  42.869269
2.430  43.050588
2.429  43.303924
2.428  43.443367
2.427  43.684473
2.426  43.826781
2.425  43.978427
2.424  44.245033
2.423  44.485221
2.422  44.663298
2.421  44.887676
2.420  45.059014
2.419  45.323478
2.418  45.441167
2.417  45.635071
2.416  45.902054
2.415  46.043415
2.414  46.195741
2.413  46.409581
2.412  46.616826
2.411  46.822965
2.410  46.894642
2.409  47.082531
2.408  47.204207
2.407  47.389930
2.406  47.464557
2.405  47.651175
2.404  47.786882
2.403  47.902512
2.402  48.046014
2.401  48.162052
2.400  48.401355
2.399  48.512881
2.398  48.639216
2.397  48.773409
2.396  48.833116
2.395  48.943559
2.394  49.097257
2.393  49.231713
2.392  49.404866
2.391  49.525433
2.390  49.581946
2.389  49.713760
2.388  49.869994
2.387  50.038432
2.386  50.204211
2.385  50.389491
2.384  50.566832
2.383  50.709090
2.382  50.856970
2.381  51.070978
2.380  51.286755
2.379  51.447576
2.378  51.580606
2.377  51.769619
2.376  51.988352
2.375  52.207347
2.374  52.351523
2.373  52.522439
2.372  52.744749
2.371  52.896640
2.370  53.022058
2.369  53.179692
2.368  53.358194
2.367  53.572856
2.366  53.713739
2.365  53.919566
2.364  54.076585
2.363  54.180759
2.362  54.292767
2.361  54.432916
2.360  54.658611
2.359  54.778011
2.358  54.883851
2.357  54.981387
2.356  55.089801
2.355  55.247833
2.354  55.394778
2.353  55.508471
2.352  55.573487
2.351  55.665656
2.350  55.781637
2.349  55.889521
2.348  55.977311
2.347  56.021915
2.346  56.025365
2.345  56.060155
2.344  56.097746
2.343  56.103192
2.342  56.093074
2.341  56.066085
2.340  55.988216
2.339  55.885335
2.338  55.898432
2.337  55.825942
2.336  55.670151
2.335  55.527068
2.334  55.365515
2.333  55.214017
2.332  55.054736
2.331  54.804744
2.330  54.601707
2.329  54.418496
2.328  54.153699
2.327  53.933421
2.326  53.718440
2.325  53.415927
2.324  53.148053
2.323  52.851437
2.322  52.592780
2.321  52.357500
2.320  52.137196
2.319  51.836550
2.318  51.576665
2.317  51.362837
2.316  51.141605
2.315  50.919373
2.314  50.746703
2.313  50.575318
2.312  50.398954
2.311  50.280079
2.310  50.170786
2.309  50.052346
2.308  50.049182
2.307  49.959489
2.306  49.993961
2.305  50.000799
2.304  50.038589
2.303  50.095046
2.302  50.116082
2.301  50.139556
2.300  50.230093
2.299  50.269314
2.298  50.408295
2.297  50.499307
2.296  50.592057
2.295  50.664915
2.294  50.750850
2.293  50.845542
2.292  50.962502
2.291  51.103241
2.290  51.128549
2.289  51.278159
2.288  51.468677
2.287  51.560368
2.286  51.695842
2.285  51.770894
2.284  51.868197
2.283  51.937366
2.282  52.100079
2.281  52.264423
2.280  52.412300
2.279  52.575152
2.278  52.666489
2.277  52.774973
2.276  52.914176
2.275  53.038295
2.274  53.202497
2.273  53.242778
2.272  53.426030
2.271  53.472169
2.270  53.532205
2.269  53.729210
2.268  53.838924
2.267  53.939477
2.266  53.973343
2.265  54.148188
2.264  54.236008
2.263  54.308181
2.262  54.465630
2.261  54.538268
2.260  54.659475
2.259  54.807920
2.258  54.873441
2.257  54.999139
2.256  55.165122
2.255  55.383706
2.254  55.503744
2.253  55.623702
2.252  55.725102
2.251  55.960497
2.250  56.128915
2.249  56.231544
2.248  56.438430
2.247  56.591588
2.246  56.821955
2.245  57.023142
2.244  57.241902
2.243  57.399542
2.242  57.564635
2.241  57.741402
2.240  58.059801
2.239  58.206613
2.238  58.426525
2.237  58.562323
2.236  58.876112
2.235  58.972865
2.234  59.213644
2.233  59.311321
2.232  59.556941
2.231  59.680103
2.230  59.964761
2.229  60.074276
2.228  60.186115
2.227  60.409706
2.226  60.515732
2.225  60.731749
2.224  60.779854
2.223  60.987623
2.222  61.206837
2.221  61.294744
2.220  61.368426
2.219  61.581856
2.218  61.659602
2.217  61.823634
2.216  61.896839
2.215  62.024664
2.214  62.090972
2.213  62.188978
2.212  62.347218
2.211  62.346089
2.210  62.585633
2.209  62.610110
2.208  62.731630
2.207  62.779303
2.206  62.867980
2.205  62.927788
2.204  63.027631
2.203  63.101684
2.202  63.135108
2.201  63.152192
2.200  63.227058
2.199  63.211872
2.198  63.345845
2.197  63.342077
2.196  63.380718
2.195  63.468304
2.194  63.458246
2.193  63.498986
2.192  63.541948
2.191  63.529047
2.190  63.515072
2.189  63.613059
2.188  63.547854
2.187  63.518797
2.186  63.596722
2.185  63.596924
2.184  63.663682
2.183  63.592505
2.182  63.682864
2.181  63.639772
2.180  63.634190
2.179  63.624039
2.178  63.660602
2.177  63.731457
2.176  63.665780
2.175  63.646566
2.174  63.714534
2.173  63.742265
2.172  63.740527
2.171  63.642262
2.170  63.666698
2.169  63.582538
2.168  63.583252
2.167  63.601028
2.166  63.575939
2.165  63.583352
2.164  63.585615
2.163  63.597819
2.162  63.489086
2.161  63.425868
2.160  63.411541
2.159  63.365624
2.158  63.323613
2.157  63.305167
2.156  63.201066
2.155  63.219814
2.154  63.103371
2.153  63.053150
2.152  63.009912
2.151  62.931760
2.150  62.823908
2.149  62.706595
2.148  62.624547
2.147  62.564920
2.146  62.496876
2.145  62.421117
2.144  62.333448
2.143  62.225783
2.142  62.134238
2.141  61.970950
2.140  61.885415
2.139  61.875984
2.138  61.753880
2.137  61.682897
2.136  61.572354
2.135  61.445417
2.134  61.426907
2.133  61.288956
2.132  61.218209
2.131  61.101645
2.130  61.065773
2.129  60.967160
2.128  60.829785
2.127  60.762610
2.126  60.685538
2.125  60.618245
2.124  60.610548
2.123  60.471737
2.122  60.379162
2.121  60.330931
2.120  60.259821
2.119  60.176227
2.118  60.087983
2.117  59.975657
2.116  59.929875
2.115  59.837278
2.114  59.739782
2.113  59.674712
2.112  59.609439
2.111  59.529247
2.110  59.401354
2.109  59.287716
2.108  59.233194
2.107  59.144130
2.106  59.059876
2.105  58.997858
2.104  58.947802
2.103  58.836720
2.102  58.718422
2.101  58.637805
2.100  58.580326
2.099  58.557889
2.098  58.487480
2.097  58.414434
2.096  58.400689
2.095  58.307002
2.094  58.250234
2.093  58.252862
2.092  58.186250
2.091  58.101733
2.090  58.096036
2.089  58.068882
2.088  57.991659
2.087  57.928415
2.086  57.923874
2.085  57.887127
2.084  57.866327
2.083  57.867219
2.082  57.793446
2.081  57.707267
2.080  57.668441
2.079  57.652449
2.078  57.607918
2.077  57.547663
2.076  57.516365
2.075  57.489356
2.074  57.454528
2.073  57.431254
2.072  57.396289
2.071  57.313082
2.070  57.313491
2.069  57.284423
2.068  57.212791
2.067  57.164761
2.066  57.148410
2.065  57.155258
2.064  57.084956
2.063  57.034879
2.062  57.017777
2.061  57.017195
2.060  57.012494
2.059  57.006049
2.058  56.991653
2.057  56.956351
2.056  56.962376
2.055  56.899463
2.054  56.842205
2.053  56.834622
2.052  56.819014
2.051  56.830830
2.050  56.826286
2.049  56.792880
2.048  56.767822
2.047  56.699389
2.046  56.712809
2.045  56.736500
2.044  56.699783
2.043  56.697831
2.042  56.654446
2.041  56.621327
2.040  56.606928
2.039  56.614470
2.038  56.611198
2.037  56.569610
2.036  56.559863
2.035  56.564119
2.034  56.572268
2.033  56.586401
2.032  56.558824
2.031  56.537919
2.030  56.502104
2.029  56.503255
2.028  56.496847
2.027  56.481729
2.026  56.414292
2.025  56.429752
2.024  56.419785
2.023  56.428020
2.022  56.384494
2.021  56.374722
2.020  56.317658
2.019  56.341802
2.018  56.392953
2.017  56.353332
2.016  56.289772
2.015  56.305772
2.014  56.316928
2.013  56.279374
2.012  56.243460
2.011  56.319339
2.010  56.321316
2.009  56.284376
2.008  56.293467
2.007  56.301127
2.006  56.293945
2.005  56.298149
2.004  56.351933
2.003  56.305830
2.002  56.226491
2.001  56.294684
2.000  56.252397
1.999  56.245694
1.998  56.253326
1.997  56.244357
1.996  56.208976
1.995  56.243560
1.994  56.235999
1.993  56.225752
1.992  56.252204
1.991  56.267814
1.990  56.274484
1.989  56.235967
1.988  56.225237
1.987  56.216118
1.986  56.209646
1.985  56.238189
1.984  56.151991
1.983  56.267757
1.982  56.282343
1.981  56.257553
1.980  56.247622
1.979  56.217945
1.978  56.289861
1.977  56.376222
1.976  56.392410
1.975  56.314005
1.974  56.401299
1.973  56.496883
1.972  56.475350
1.971  56.533327
1.970  56.582293
1.969  56.631224
1.968  56.646284
1.967  56.709738
1.966  56.750254
1.965  56.866694
1.964  56.873420
1.963  56.882142
1.962  56.975335
1.961  56.999121
1.960  57.086475
1.959  57.086326
1.958  57.186998
1.957  57.305134
1.956  57.309705
1.955  57.372067
1.954  57.288003
1.953  57.473106
1.952  57.518922
1.951  57.535449
1.950  57.495130
1.949  57.625209
1.948  57.584073
1.947  57.654468
1.946  57.657676
1.945  57.709530
1.944  57.726098
1.943  57.686764
1.942  57.807686
1.941  57.822380
1.940  57.746053
1.939  57.898343
1.938  57.802650
1.937  57.868620
1.936  57.822569
1.935  57.755217
1.934  57.803003
1.933  57.753499
1.932  57.695560
1.931  57.575603
1.930  57.633721
1.929  57.645877
1.928  57.482200
1.927  57.520581
1.926  57.255941
1.925  57.470455
1.924  57.303106
1.923  57.322559
1.922  57.257185
1.921  57.232272
1.920  57.195116
1.919  57.165850
1.918  57.208821
1.917  57.116241
1.916  57.275814
1.915  57.224976
1.914  57.384160
1.913  57.434551
1.912  57.516830
1.911  57.694540
1.910  57.801718
1.909  58.074508
1.908  58.262113
1.907  58.508684
1.906  58.717821
1.905  59.145130
1.904  59.445025
1.903  59.926291
1.902  60.425798
1.901  60.796929
1.900  61.386073
1.899  61.852069
1.898  62.400450
1.897  62.987311
1.896  63.525041
1.895  64.142014
1.894  64.657701
1.893  65.297994
1.892  65.773286
1.891  66.305249
1.890  66.690079
1.889  67.187315
1.888  67.611447
1.887  68.167300
1.886  68.496101
1.885  68.897361
1.884  69.272672
1.883  69.598157
1.882  70.016459
1.881  70.296963
1.880  70.620095
1.879  70.945214
1.878  71.320319
1.877  71.544139
1.876  71.748768
1.875  72.083507
1.874  72.339500
1.873  72.601173
1.872  72.848141
1.871  73.052743
1.870  73.222963
1.869  73.398409
1.868  73.533818
1.867  73.609836
1.866  73.741174
1.865  73.905349
1.864  73.856387
1.863  73.948813
1.862  74.044817
1.861  74.062140
1.860  73.986835
1.859  73.925310
1.858  73.997841
1.857  74.062670
1.856  74.074167
1.855  74.113573
1.854  74.052265
1.853  74.059353
1.852  74.118182
1.851  74.168061
1.850  74.196257
1.849  74.244646
1.848  74.275195
1.847  74.315820
1.846  74.367224
1.845  74.431504
1.844  74.477637
1.843  74.533403
1.842  74.564678
1.841  74.618102
1.840  74.708488
1.839  74.767182
1.838  74.758918
1.837  74.769613
1.836  74.864211
1.835  74.934313
1.834  74.966032
1.833  74.985504
1.832  75.071645
1.831  75.131883
1.830  75.127150
1.829  75.190113
1.828  75.226472
1.827  75.257672
1.826  75.305208
1.825  75.344822
1.824  75.358392
1.823  75.375047
1.822  75.404226
1.821  75.437255
1.820  75.422334
1.819  75.462038
1.818  75.542274
1.817  75.584284
1.816  75.547481
1.815  75.598152
1.814  75.658071
1.813  75.689318
1.812  75.687086
1.811  75.769279
1.810  75.781248
1.809  75.813462
1.808  75.824999
1.807  75.837653
1.806  75.908972
1.805  75.917320
1.804  75.904562
1.803  75.956604
1.802  75.989730
1.801  76.021803
1.800  76.102455
1.799  76.122524
1.798  76.090617
1.797  76.100979
1.796  76.119821
1.795  76.103219
1.794  76.122931
1.793  76.180466
1.792  76.149111
1.791  76.154235
1.790  76.206276
1.789  76.184515
1.788  76.234699
1.787  76.279701
1.786  76.238984
1.785  76.244170
1.784  76.282272
1.783  76.241877
1.782  76.219294
1.781  76.275726
1.780  76.303860
1.779  76.312865
1.778  76.331893
1.777  76.316995
1.776  76.319834
1.775  76.381899
1.774  76.412505
1.773  76.404032
1.772  76.412069
1.771  76.457391
1.770  76.462558
1.769  76.455050
1.768  76.474815
1.767  76.463128
1.766  76.517492
1.765  76.565234
1.764  76.536563
1.763  76.525622
1.762  76.586412
1.761  76.616967
1.760  76.579679
1.759  76.586115
1.758  76.656178
1.757  76.682351
1.756  76.666572
1.755  76.650350
1.754  76.693727
1.753  76.740820
1.752  76.698771
1.751  76.737294
1.750  76.813117
1.749  76.833579
1.748  76.805526
1.747  76.770780
1.746  76.777139
1.745  76.720583
1.744  76.724368
1.743  76.748859
1.742  76.712832
1.741  76.697639
1.740  76.762082
1.739  76.839581
1.738  76.798654
1.737  76.736489
1.736  76.764466
1.735  76.808981
1.734  76.842660
1.733  76.818403
1.732  76.770493
1.731  76.810847
1.730  76.790774
1.729  76.785576
1.728  76.791131
1.727  76.820401
1.726  76.851856
1.725  76.838292
1.724  76.803055
1.723  76.902273
1.722  76.874483
1.721  76.830822
1.720  76.911409
1.719  76.854713
1.718  76.878971
1.717  76.912189
1.716  76.911786
1.715  76.909472
1.714  76.918063
1.713  76.960083
1.712  77.040358
1.711  77.037195
1.710  76.985096
1.709  77.005301
1.708  76.999826
1.707  77.024052
1.706  77.033988
1.705  77.050200
1.704  77.114965
1.703  77.059288
1.702  77.095265
1.701  77.113433
1.700  77.120561
1.699  77.096503
1.698  77.136852
1.697  77.156290
1.696  77.186545
1.695  77.083660
1.694  77.158035
1.693  77.141713
1.692  77.248498
1.691  77.172059
1.690  77.172937
1.689  77.152242
1.688  77.199252
1.687  77.174916
1.686  77.123827
1.685  77.226772
1.684  77.214065
1.683  77.234148
1.682  77.327082
1.681  77.244756
1.680  77.236450
1.679  77.255019
1.678  77.307414
1.677  77.259173
1.676  77.385724
1.675  77.391398
1.674  77.303316
1.673  77.367924
1.672  77.365421
1.671  77.397963
1.670  77.365426
1.669  77.444179
1.668  77.449589
1.667  77.405466
1.666  77.464266
1.665  77.436721
1.664  77.428479
1.663  77.466046
1.662  77.525475
1.661  77.492704
1.660  77.533100
1.659  77.486276
1.658  77.500324
1.657  77.469690
1.656  77.440228
1.655  77.466960
1.654  77.456431
1.653  77.558716
1.652  77.576626
1.651  77.480020
1.650  77.500828
1.649  77.507444
1.648  77.567952
1.647  77.516100
1.646  77.462457
1.645  77.422075
1.644  77.470560
1.643  77.492215
1.642  77.494847
1.641  77.485179
1.640  77.536999
1.639  77.532876
1.638  77.388347
1.637  77.419540
1.636  77.515104
1.635  77.508082
1.634  77.541276
1.633  77.471110
1.632  77.522067
1.631  77.486742
1.630  77.502215
1.629  77.493660
1.628  77.552213
1.627  77.561496
1.626  77.474883
1.625  77.470902
1.624  77.509537
1.623  77.529536
1.622  77.514717
1.621  77.596977
1.620  77.670759
1.619  77.583344
1.618  77.584613
1.617  77.555092
1.616  77.608343
1.615  77.563388
1.614  77.585518
1.613  77.642205
1.612  77.585532
1.611  77.673091
1.610  77.614791
1.609  77.668967
1.608  77.642271
1.607  77.692565
1.606  77.655453
1.605  77.645370
1.604  77.686169
1.603  77.663921
1.602  77.617609
1.601  77.629562
1.600  77.707796
1.599  77.698712
1.598  77.678441
1.597  77.624724
1.596  77.641403
1.595  77.629182
1.594  77.641271
1.593  77.558460
1.592  77.649950
1.591  77.632349
1.590  77.608466
1.589  77.591674
1.588  77.518754
1.587  77.591527
1.586  77.623096
1.585  77.617838
1.584  77.587213
1.583  77.547531
1.582  77.603810
1.581  77.525995
1.580  77.530857
1.579  77.499528
1.578  77.525143
1.577  77.515996
1.576  77.480644
1.575  77.475267
1.574  77.500389
1.573  77.400522
1.572  77.389148
1.571  77.396279
1.570  77.409376
1.569  77.368367
1.568  77.391669
1.567  77.376054
1.566  77.346162
1.565  77.334121
1.564  77.318466
1.563  77.271195
1.562  77.261634
1.561  77.254259
1.560  77.250781
1.559  77.225694
1.558  77.208927
1.557  77.225918
1.556  77.176612
1.555  77.087098
1.554  77.141645
1.553  77.104219
1.552  77.081238
1.551  77.119723
1.550  77.041430
1.549  77.005542
1.548  77.079666
1.547  77.022046
1.546  76.958714
1.545  77.036103
1.544  77.031541
1.543  76.996787
1.542  77.002182
1.541  76.983220
1.540  76.970810
1.539  76.984276
1.538  77.000726
1.537  77.010876
1.536  77.002544
1.535  77.030414
1.534  77.034086
1.533  77.004666
1.532  77.020488
1.531  77.006217
1.530  77.012320
1.529  77.019305
1.528  77.026249
1.527  77.050021
1.526  77.067424
1.525  77.069804
1.524  77.031947
1.523  77.049100
1.522  77.157833
1.521  77.177064
1.520  77.149642
1.519  77.123641
1.518  77.137215
1.517  77.155202
1.516  77.185613
1.515  77.220504
1.514  77.204383
1.513  77.204617
1.512  77.242332
1.511  77.269215
1.510  77.268138
1.509  77.329024
1.508  77.364401
1.507  77.349728
1.506  77.371478
1.505  77.427725
1.504  77.450454
1.503  77.496488
1.502  77.536413
1.501  77.509706
1.500  77.538906
1.499  77.614313
1.498  77.619149
1.497  77.623622
1.496  77.630784
1.495  77.633734
1.494  77.683780
1.493  77.770382
1.492  77.790939
1.491  77.759242
1.490  77.777787
1.489  77.799476
1.488  77.808061
1.487  77.826590
1.486  77.882550
1.485  77.899142
1.484  77.883118
1.483  77.898941
1.482  77.940382
1.481  77.967645
1.480  77.963101
1.479  77.940785
1.478  77.937965
1.477  77.961057
1.476  77.989663
1.475  77.990334
1.474  77.963883
1.473  77.925325
1.472  78.016948
1.471  78.027894
1.470  77.961251
1.469  77.998154
1.468  78.057424
1.467  78.065341
1.466  78.110988
1.465  78.119127
1.464  78.131360
1.463  78.181613
1.462  78.249936
1.461  78.344153
1.460  78.358843
1.459  78.418928
1.458  78.496079
1.457  78.512082
1.456  78.480718
1.455  78.550538
1.454  78.564675
1.453  78.606830
1.452  78.611871
1.451  78.602425
1.450  78.651765
1.449  78.617317
1.448  78.675344
1.447  78.694855
1.446  78.602902
1.445  78.607468
1.444  78.587891
1.443  78.532657
1.442  78.528429
1.441  78.552232
1.440  78.533047
1.439  78.528285
1.438  78.560708
1.437  78.542596
1.436  78.678005
1.435  78.652822
1.434  78.636233
1.433  78.637370
1.432  78.664828
1.431  78.659599
1.430  78.692789
1.429  78.731945
1.428  78.817477
1.427  78.837601
1.426  78.876644
1.425  78.916289
1.424  78.976324
1.423  79.008439
1.422  79.068119
1.421  79.110648
1.420  79.253928
1.419  79.279231
1.418  79.306759
