Name: Diatomaceous Earth
Type: Rock
Class: Sedimentary
Subclass:  Siliceous 
Particle Size: Solid surface
Sample No.: Ward57.txt
Owner: JPL
Wavelength range:  VNIR SWIR IR
Origin: Ward's Collection of American Rocks.  Sample locality - Lompoc, Santa Barbara County, California.
Collected by:  Ward's Natural Science
Description: A soft, white chalky rock.
Geologic age - Tertiary (Upper Miocene).




Measurement: Hemispherical reflectance
First Column: X
Second Column: Y
X Units: Wavelength (micrometers)
Y Units: Reflectance (percent)
First X Value: 2.500
Last X Value: 0.400
Number of X Values: 2101
Additional information: None

2.500  56.977173
2.499  56.995470
2.498  57.282777
2.497  57.402390
2.496  57.125048
2.495  57.346459
2.494  57.243197
2.493  57.713755
2.492  57.512645
2.491  57.681576
2.490  57.652139
2.489  57.921471
2.488  57.661501
2.487  57.908379
2.486  57.978737
2.485  57.981350
2.484  57.940489
2.483  58.043280
2.482  58.190328
2.481  58.314251
2.480  58.266459
2.479  58.316417
2.478  58.466623
2.477  58.534892
2.476  58.391178
2.475  58.736489
2.474  58.686277
2.473  59.081494
2.472  58.720097
2.471  59.015408
2.470  58.990826
2.469  59.219400
2.468  59.253861
2.467  59.600745
2.466  59.311381
2.465  59.518266
2.464  59.633681
2.463  59.691091
2.462  59.781035
2.461  59.929822
2.460  60.022738
2.459  60.075651
2.458  60.014968
2.457  60.258183
2.456  60.257117
2.455  60.486269
2.454  60.435710
2.453  60.543391
2.452  60.674278
2.451  60.884173
2.450  60.843901
2.449  60.959572
2.448  61.118772
2.447  61.278569
2.446  61.290799
2.445  61.407507
2.444  61.453558
2.443  61.585428
2.442  61.795718
2.441  61.726096
2.440  61.881577
2.439  62.032127
2.438  62.134841
2.437  62.238499
2.436  62.379432
2.435  62.471519
2.434  62.582535
2.433  62.705896
2.432  62.703551
2.431  62.865903
2.430  62.991758
2.429  63.091054
2.428  63.148478
2.427  63.329454
2.426  63.356966
2.425  63.520418
2.424  63.616271
2.423  63.722198
2.422  63.710267
2.421  63.737827
2.420  63.965257
2.419  64.105081
2.418  64.113768
2.417  64.069040
2.416  64.112148
2.415  64.324296
2.414  64.376254
2.413  64.491150
2.412  64.498026
2.411  64.675999
2.410  64.767508
2.409  64.810958
2.408  64.897823
2.407  64.966844
2.406  65.026335
2.405  65.141409
2.404  65.182367
2.403  65.317651
2.402  65.295393
2.401  65.399044
2.400  65.427156
2.399  65.558874
2.398  65.605585
2.397  65.655462
2.396  65.772857
2.395  65.758444
2.394  65.830102
2.393  65.911084
2.392  65.964268
2.391  65.998395
2.390  66.107007
2.389  66.223668
2.388  66.298793
2.387  66.259169
2.386  66.357991
2.385  66.455434
2.384  66.498842
2.383  66.570225
2.382  66.559572
2.381  66.595647
2.380  66.676872
2.379  66.786334
2.378  66.868811
2.377  66.917655
2.376  66.918194
2.375  66.947915
2.374  66.971077
2.373  67.052205
2.372  67.155611
2.371  67.190609
2.370  67.195329
2.369  67.207507
2.368  67.269135
2.367  67.370778
2.366  67.384827
2.365  67.428028
2.364  67.466292
2.363  67.521516
2.362  67.603225
2.361  67.615426
2.360  67.552433
2.359  67.631228
2.358  67.714890
2.357  67.680677
2.356  67.737214
2.355  67.791893
2.354  67.804852
2.353  67.807110
2.352  67.889379
2.351  67.896135
2.350  67.879161
2.349  67.917991
2.348  67.938334
2.347  67.993585
2.346  67.979508
2.345  67.988926
2.344  68.022692
2.343  68.058529
2.342  68.093538
2.341  68.117360
2.340  68.096956
2.339  68.031518
2.338  68.023096
2.337  68.127678
2.336  68.113341
2.335  68.032475
2.334  68.016475
2.333  68.054289
2.332  68.069742
2.331  68.040251
2.330  68.031855
2.329  68.079788
2.328  68.126721
2.327  68.076572
2.326  68.100219
2.325  68.104299
2.324  68.134687
2.323  68.091755
2.322  68.021721
2.321  68.041390
2.320  68.051577
2.319  67.995191
2.318  67.976912
2.317  67.984015
2.316  68.035981
2.315  67.958950
2.314  67.917707
2.313  67.914006
2.312  67.963361
2.311  67.954729
2.310  67.964516
2.309  67.859248
2.308  67.845261
2.307  67.850597
2.306  67.852724
2.305  67.801359
2.304  67.734009
2.303  67.740492
2.302  67.723558
2.301  67.668613
2.300  67.692396
2.299  67.634380
2.298  67.593679
2.297  67.587006
2.296  67.611254
2.295  67.567619
2.294  67.543789
2.293  67.524740
2.292  67.507918
2.291  67.443985
2.290  67.415314
2.289  67.383191
2.288  67.436152
2.287  67.388779
2.286  67.411432
2.285  67.383349
2.284  67.448090
2.283  67.387050
2.282  67.301642
2.281  67.237091
2.280  67.333383
2.279  67.280274
2.278  67.292820
2.277  67.373384
2.276  67.240383
2.275  67.228152
2.274  67.242756
2.273  67.125561
2.272  67.238586
2.271  67.229447
2.270  67.210618
2.269  67.134089
2.268  67.181007
2.267  67.147906
2.266  67.125734
2.265  67.103699
2.264  67.073583
2.263  67.095496
2.262  67.116362
2.261  67.072647
2.260  67.050955
2.259  67.015734
2.258  67.059684
2.257  67.076460
2.256  67.102535
2.255  67.035951
2.254  67.048399
2.253  67.019281
2.252  67.045895
2.251  67.059500
2.250  67.058103
2.249  67.060724
2.248  67.092402
2.247  67.116956
2.246  67.127730
2.245  67.204988
2.244  67.199037
2.243  67.238653
2.242  67.232927
2.241  67.251999
2.240  67.268679
2.239  67.358122
2.238  67.342143
2.237  67.319708
2.236  67.348588
2.235  67.397250
2.234  67.414443
2.233  67.366037
2.232  67.403860
2.231  67.432545
2.230  67.496156
2.229  67.426204
2.228  67.538311
2.227  67.487198
2.226  67.560417
2.225  67.495081
2.224  67.486466
2.223  67.573170
2.222  67.519036
2.221  67.561453
2.220  67.588803
2.219  67.511073
2.218  67.535039
2.217  67.597261
2.216  67.652228
2.215  67.603564
2.214  67.777016
2.213  67.787133
2.212  67.953897
2.211  67.924280
2.210  68.090337
2.209  67.977609
2.208  68.252014
2.207  68.345025
2.206  68.443652
2.205  68.554867
2.204  68.696428
2.203  68.898860
2.202  69.173209
2.201  69.285514
2.200  69.494896
2.199  69.548388
2.198  69.747991
2.197  69.891817
2.196  70.085144
2.195  70.207684
2.194  70.390676
2.193  70.422162
2.192  70.588347
2.191  70.831486
2.190  71.024174
2.189  71.083587
2.188  71.243917
2.187  71.379277
2.186  71.469011
2.185  71.582272
2.184  71.732970
2.183  71.803260
2.182  72.010604
2.181  72.149579
2.180  72.218096
2.179  72.334542
2.178  72.465680
2.177  72.458376
2.176  72.640103
2.175  72.759102
2.174  72.846242
2.173  72.979138
2.172  73.090432
2.171  73.136613
2.170  73.214478
2.169  73.353732
2.168  73.471280
2.167  73.559266
2.166  73.593820
2.165  73.717186
2.164  73.798003
2.163  73.797312
2.162  74.001399
2.161  74.064323
2.160  74.162043
2.159  74.171201
2.158  74.161282
2.157  74.281516
2.156  74.350160
2.155  74.381565
2.154  74.433280
2.153  74.531195
2.152  74.608292
2.151  74.581009
2.150  74.655063
2.149  74.706528
2.148  74.767739
2.147  74.750982
2.146  74.810770
2.145  74.835730
2.144  74.808503
2.143  74.848899
2.142  74.921358
2.141  74.880641
2.140  74.939977
2.139  74.936323
2.138  74.863498
2.137  74.922882
2.136  74.974889
2.135  74.968698
2.134  74.944410
2.133  74.879197
2.132  74.981960
2.131  74.940282
2.130  74.920139
2.129  74.862833
2.128  74.879389
2.127  74.806304
2.126  74.795789
2.125  74.734546
2.124  74.708863
2.123  74.719687
2.122  74.736968
2.121  74.684731
2.120  74.595439
2.119  74.537441
2.118  74.508703
2.117  74.494072
2.116  74.394859
2.115  74.290372
2.114  74.310268
2.113  74.258688
2.112  74.255379
2.111  74.229105
2.110  74.155624
2.109  74.064128
2.108  74.082381
2.107  73.998069
2.106  73.933357
2.105  73.915066
2.104  73.824095
2.103  73.875667
2.102  73.798679
2.101  73.657818
2.100  73.709573
2.099  73.779879
2.098  73.750688
2.097  73.734804
2.096  73.724810
2.095  73.756172
2.094  73.761543
2.093  73.759731
2.092  73.767541
2.091  73.735625
2.090  73.703449
2.089  73.725343
2.088  73.683500
2.087  73.671313
2.086  73.709374
2.085  73.691559
2.084  73.768634
2.083  73.762719
2.082  73.685511
2.081  73.696905
2.080  73.700932
2.079  73.644710
2.078  73.623281
2.077  73.633536
2.076  73.624825
2.075  73.647386
2.074  73.639185
2.073  73.638117
2.072  73.647034
2.071  73.599636
2.070  73.568410
2.069  73.606890
2.068  73.667311
2.067  73.659859
2.066  73.622487
2.065  73.549404
2.064  73.495823
2.063  73.556063
2.062  73.574413
2.061  73.541607
2.060  73.524226
2.059  73.519603
2.058  73.527270
2.057  73.577050
2.056  73.518154
2.055  73.454314
2.054  73.467688
2.053  73.462366
2.052  73.444042
2.051  73.362027
2.050  73.259186
2.049  73.274784
2.048  73.277913
2.047  73.245396
2.046  73.187914
2.045  73.196270
2.044  73.156939
2.043  73.105820
2.042  73.061934
2.041  73.053274
2.040  73.039891
2.039  73.036108
2.038  72.954928
2.037  72.929421
2.036  72.884573
2.035  72.844927
2.034  72.819982
2.033  72.807746
2.032  72.734492
2.031  72.646802
2.030  72.564555
2.029  72.485146
2.028  72.471930
2.027  72.455980
2.026  72.423237
2.025  72.332390
2.024  72.255270
2.023  72.158455
2.022  72.124992
2.021  72.030725
2.020  72.058189
2.019  72.011660
2.018  71.845896
2.017  71.772465
2.016  71.687495
2.015  71.716141
2.014  71.637247
2.013  71.522811
2.012  71.434784
2.011  71.387871
2.010  71.351382
2.009  71.190962
2.008  71.172546
2.007  71.131796
2.006  71.002006
2.005  70.942302
2.004  70.833802
2.003  70.796498
2.002  70.679008
2.001  70.634032
2.000  70.537312
1.999  70.420254
1.998  70.246364
1.997  70.242560
1.996  70.197483
1.995  70.033478
1.994  69.984941
1.993  69.879264
1.992  69.712053
1.991  69.674877
1.990  69.551217
1.989  69.475842
1.988  69.282171
1.987  69.284759
1.986  69.137873
1.985  69.054358
1.984  69.028297
1.983  68.930887
1.982  68.713639
1.981  68.719503
1.980  68.594629
1.979  68.490097
1.978  68.411886
1.977  68.238163
1.976  68.121558
1.975  68.160509
1.974  67.997553
1.973  67.856173
1.972  67.799972
1.971  67.769836
1.970  67.611244
1.969  67.517501
1.968  67.459544
1.967  67.351573
1.966  67.301632
1.965  67.141709
1.964  67.003730
1.963  67.007931
1.962  66.904567
1.961  66.909119
1.960  66.704251
1.959  66.621308
1.958  66.604558
1.957  66.513193
1.956  66.433723
1.955  66.421834
1.954  66.339722
1.953  66.222776
1.952  66.145295
1.951  66.021839
1.950  66.014557
1.949  65.928221
1.948  65.894628
1.947  65.785316
1.946  65.679340
1.945  65.677247
1.944  65.608671
1.943  65.643617
1.942  65.541741
1.941  65.551358
1.940  65.457697
1.939  65.392112
1.938  65.391411
1.937  65.276877
1.936  65.190201
1.935  65.237039
1.934  65.089556
1.933  65.152603
1.932  65.018915
1.931  65.092079
1.930  64.954386
1.929  64.989338
1.928  64.781267
1.927  64.830309
1.926  64.603344
1.925  64.722908
1.924  64.599542
1.923  64.639755
1.922  64.445845
1.921  64.361313
1.920  64.315695
1.919  64.294538
1.918  64.268212
1.917  64.278115
1.916  64.041025
1.915  64.061959
1.914  63.867893
1.913  63.870335
1.912  63.725727
1.911  63.834799
1.910  63.664887
1.909  63.697352
1.908  63.530858
1.907  63.592558
1.906  63.523883
1.905  63.611224
1.904  63.647891
1.903  63.717781
1.902  63.884572
1.901  64.048898
1.900  64.212834
1.899  64.483477
1.898  64.831295
1.897  65.163803
1.896  65.536358
1.895  66.017494
1.894  66.504385
1.893  67.070442
1.892  67.513057
1.891  68.137614
1.890  68.697179
1.889  69.309484
1.888  69.832199
1.887  70.327990
1.886  70.826732
1.885  71.308789
1.884  71.777133
1.883  72.156304
1.882  72.621245
1.881  73.046587
1.880  73.445772
1.879  73.815228
1.878  74.291634
1.877  74.619458
1.876  74.942678
1.875  75.375731
1.874  75.704881
1.873  76.026556
1.872  76.342794
1.871  76.649355
1.870  76.957465
1.869  77.167147
1.868  77.361514
1.867  77.544866
1.866  77.702089
1.865  77.860101
1.864  78.036449
1.863  78.157046
1.862  78.280389
1.861  78.348404
1.860  78.481482
1.859  78.572103
1.858  78.568825
1.857  78.779438
1.856  78.797700
1.855  78.910227
1.854  78.966553
1.853  79.028692
1.852  79.077619
1.851  79.107131
1.850  79.121007
1.849  79.132819
1.848  79.250749
1.847  79.237408
1.846  79.245562
1.845  79.286552
1.844  79.311019
1.843  79.423143
1.842  79.372462
1.841  79.348093
1.840  79.412665
1.839  79.447351
1.838  79.474089
1.837  79.516232
1.836  79.488773
1.835  79.494002
1.834  79.448864
1.833  79.519885
1.832  79.519005
1.831  79.461886
1.830  79.508833
1.829  79.537524
1.828  79.608903
1.827  79.611800
1.826  79.562097
1.825  79.590826
1.824  79.627066
1.823  79.606812
1.822  79.622506
1.821  79.625386
1.820  79.602112
1.819  79.666475
1.818  79.633865
1.817  79.630363
1.816  79.696497
1.815  79.707607
1.814  79.712936
1.813  79.659306
1.812  79.674165
1.811  79.728082
1.810  79.690946
1.809  79.710673
1.808  79.784738
1.807  79.741830
1.806  79.681021
1.805  79.720818
1.804  79.698527
1.803  79.679332
1.802  79.701636
1.801  79.776572
1.800  79.757145
1.799  79.745601
1.798  79.775387
1.797  79.797811
1.796  79.805419
1.795  79.732329
1.794  79.733736
1.793  79.781465
1.792  79.750075
1.791  79.678080
1.790  79.671378
1.789  79.698642
1.788  79.752857
1.787  79.756339
1.786  79.736193
1.785  79.793191
1.784  79.753099
1.783  79.746702
1.782  79.800530
1.781  79.781651
1.780  79.762590
1.779  79.730254
1.778  79.716142
1.777  79.766387
1.776  79.807537
1.775  79.853025
1.774  79.842701
1.773  79.851430
1.772  79.880072
1.771  79.884106
1.770  79.845050
1.769  79.888159
1.768  79.901439
1.767  79.915866
1.766  79.896644
1.765  79.924108
1.764  80.013583
1.763  80.050246
1.762  80.020779
1.761  80.014967
1.760  80.082857
1.759  80.056710
1.758  80.078716
1.757  80.070321
1.756  80.063357
1.755  80.159640
1.754  80.218140
1.753  80.231299
1.752  80.246453
1.751  80.252140
1.750  80.268617
1.749  80.256437
1.748  80.220101
1.747  80.275873
1.746  80.266811
1.745  80.231978
1.744  80.355948
1.743  80.400025
1.742  80.420193
1.741  80.377043
1.740  80.398030
1.739  80.383683
1.738  80.477185
1.737  80.510257
1.736  80.490858
1.735  80.509618
1.734  80.551278
1.733  80.519497
1.732  80.580476
1.731  80.597743
1.730  80.586774
1.729  80.507994
1.728  80.538821
1.727  80.666676
1.726  80.640814
1.725  80.639815
1.724  80.616369
1.723  80.635834
1.722  80.733762
1.721  80.677244
1.720  80.645426
1.719  80.666187
1.718  80.691250
1.717  80.646747
1.716  80.699360
1.715  80.683226
1.714  80.771981
1.713  80.780125
1.712  80.766534
1.711  80.718309
1.710  80.813153
1.709  80.835126
1.708  80.723753
1.707  80.677587
1.706  80.692099
1.705  80.787900
1.704  80.751265
1.703  80.692739
1.702  80.771725
1.701  80.795055
1.700  80.812105
1.699  80.741913
1.698  80.776568
1.697  80.808397
1.696  80.809923
1.695  80.757156
1.694  80.748057
1.693  80.703308
1.692  80.758008
1.691  80.693904
1.690  80.770786
1.689  80.848573
1.688  80.888621
1.687  80.765168
1.686  80.784797
1.685  80.735392
1.684  80.738890
1.683  80.859445
1.682  80.806323
1.681  80.801214
1.680  80.720355
1.679  80.794371
1.678  80.721738
1.677  80.783655
1.676  80.769898
1.675  80.781457
1.674  80.753688
1.673  80.761749
1.672  80.946645
1.671  80.899025
1.670  80.804425
1.669  80.906378
1.668  80.944546
1.667  80.908221
1.666  80.897189
1.665  80.894542
1.664  80.806999
1.663  80.853642
1.662  80.896842
1.661  80.824565
1.660  81.002934
1.659  80.809047
1.658  80.948579
1.657  80.958851
1.656  81.034547
1.655  80.862973
1.654  80.900051
1.653  80.921782
1.652  80.944528
1.651  80.927203
1.650  80.854215
1.649  80.923216
1.648  80.932687
1.647  80.940013
1.646  80.921591
1.645  80.873602
1.644  80.974367
1.643  80.998636
1.642  80.958325
1.641  80.853475
1.640  81.049646
1.639  80.853837
1.638  80.957948
1.637  80.843016
1.636  80.931500
1.635  80.914776
1.634  80.860558
1.633  81.050839
1.632  80.916602
1.631  80.981972
1.630  80.860270
1.629  80.815887
1.628  80.922121
1.627  80.868243
1.626  80.842198
1.625  80.952968
1.624  80.862758
1.623  80.777946
1.622  80.919052
1.621  80.942845
1.620  81.001226
1.619  80.947822
1.618  80.901627
1.617  81.013995
1.616  80.923389
1.615  80.897829
1.614  80.754690
1.613  80.874638
1.612  80.916460
1.611  80.855824
1.610  80.980293
1.609  81.045171
1.608  80.969497
1.607  80.825209
1.606  80.868498
1.605  80.926187
1.604  80.920232
1.603  80.878822
1.602  80.921367
1.601  80.938726
1.600  81.056332
1.599  80.956863
1.598  80.947405
1.597  80.877278
1.596  80.855446
1.595  80.765012
1.594  80.838255
1.593  80.915968
1.592  80.882475
1.591  80.775971
1.590  80.831577
1.589  80.881410
1.588  80.741310
1.587  80.773007
1.586  80.781833
1.585  80.709686
1.584  80.743247
1.583  80.772759
1.582  80.769979
1.581  80.713718
1.580  80.742248
1.579  80.659633
1.578  80.666190
1.577  80.647333
1.576  80.659608
1.575  80.605400
1.574  80.690603
1.573  80.626748
1.572  80.546724
1.571  80.559915
1.570  80.540715
1.569  80.589013
1.568  80.563619
1.567  80.536338
1.566  80.491660
1.565  80.528594
1.564  80.526081
1.563  80.486162
1.562  80.458333
1.561  80.513798
1.560  80.493995
1.559  80.427713
1.558  80.473396
1.557  80.365190
1.556  80.354626
1.555  80.339203
1.554  80.238714
1.553  80.243239
1.552  80.367617
1.551  80.274371
1.550  80.316004
1.549  80.307405
1.548  80.189073
1.547  80.152046
1.546  80.110281
1.545  80.134291
1.544  80.161625
1.543  80.186186
1.542  80.184775
1.541  80.178859
1.540  80.053353
1.539  80.053740
1.538  80.061928
1.537  80.014949
1.536  80.003417
1.535  79.958146
1.534  79.946584
1.533  79.938991
1.532  79.937774
1.531  79.874304
1.530  79.823368
1.529  79.798964
1.528  79.756422
1.527  79.734257
1.526  79.750595
1.525  79.687341
1.524  79.683745
1.523  79.664092
1.522  79.634753
1.521  79.600894
1.520  79.570931
1.519  79.538187
1.518  79.533795
1.517  79.552787
1.516  79.534620
1.515  79.491168
1.514  79.431338
1.513  79.385409
1.512  79.369220
1.511  79.380282
1.510  79.328673
1.509  79.302586
1.508  79.271326
1.507  79.191696
1.506  79.186472
1.505  79.089041
1.504  79.044785
1.503  79.006204
1.502  78.952271
1.501  78.987984
1.500  78.986126
1.499  78.957507
1.498  78.905739
1.497  78.834136
1.496  78.798670
1.495  78.805866
1.494  78.760567
1.493  78.720587
1.492  78.605149
1.491  78.551394
1.490  78.585164
1.489  78.544036
1.488  78.549445
1.487  78.511777
1.486  78.415323
1.485  78.416220
1.484  78.406081
1.483  78.305380
1.482  78.302554
1.481  78.176312
1.480  78.084734
1.479  78.127016
1.478  78.016895
1.477  78.003323
1.476  77.976647
1.475  78.003099
1.474  77.994485
1.473  77.854516
1.472  77.803573
1.471  77.800893
1.470  77.738583
1.469  77.688605
1.468  77.667610
1.467  77.588258
1.466  77.559591
1.465  77.544607
1.464  77.486679
1.463  77.520738
1.462  77.536385
1.461  77.504711
1.460  77.508995
1.459  77.468079
1.458  77.471998
1.457  77.425153
1.456  77.403349
1.455  77.513770
1.454  77.461902
1.453  77.493469
1.452  77.409910
1.451  77.390601
1.450  77.478180
1.449  77.520317
1.448  77.491952
1.447  77.441550
1.446  77.397199
1.445  77.416221
1.444  77.307325
1.443  77.315671
1.442  77.333740
1.441  77.373740
1.440  77.343662
1.439  77.274183
1.438  77.213753
1.437  77.287135
1.436  77.199972
1.435  77.129040
1.434  77.091494
1.433  77.047746
1.432  77.061525
1.431  77.090183
1.430  77.020678
1.429  77.008108
1.428  77.007048
1.427  76.931653
