Name: Smithsonite PbCO_3
Type: Mineral
Class: Carbonates
Subclass: 
Particle Size: 125-500um
Sample No.: C-11A
Owner: JPL
Wavelength range: IR
Origin: 
Collected by JPL
Description: 





Measurement: Hemispherical reflectance
First Column: X
Second Column: Y
X Units:  Wavelength (micrometers)
Y Units:  Reflectance (percent)
First X Value: 15.3853
Last X Value: 2.00032
Number of X Values: 2256
Additional information: c11aa.txt
 
15.3853	6.11512
15.3397	6.04144
15.2945	6.06924
15.2495	6.22677
15.2048	6.25066
15.1603	6.01021
15.1161	5.95357
15.0722	6.12132
15.0285	6.2619
14.9851	6.41563
14.9419	6.30358
14.8989	6.14459
14.8563	6.26353
14.8138	6.29171
14.7716	6.21626
14.7296	6.14447
14.6879	6.09693
14.6464	6.05587
14.6052	6.02197
14.5641	6.23196
14.5233	6.12054
14.4828	5.89117
14.4424	5.9598
14.4023	6.07867
14.3624	5.98628
14.3227	5.77985
14.2833	5.62798
14.244	5.6396
14.205	5.51737
14.1662	5.44581
14.1276	5.3513
14.0892	5.17983
14.051	5.12692
14.0131	5.07841
13.9753	4.96258
13.9377	4.92486
13.9004	4.92771
13.8632	4.91967
13.8262	4.86632
13.7895	4.85265
13.7529	4.79833
13.7165	4.80588
13.6803	5.00737
13.6443	4.93652
13.6085	4.99521
13.5729	5.16854
13.5374	5.66718
13.5022	6.41133
13.4671	7.24233
13.4322	7.21669
13.3975	5.115
13.363	2.89156
13.3286	2.37594
13.2944	2.43742
13.2604	2.61371
13.2266	2.94877
13.193	3.2012
13.1595	3.42636
13.1262	3.64091
13.093	3.83808
13.06	4.1825
13.0272	4.3445
12.9946	4.37208
12.9621	4.56879
12.9298	4.70467
12.8976	4.73155
12.8656	4.92594
12.8337	5.0667
12.8021	5.12304
12.7705	5.29356
12.7391	5.29518
12.7079	5.16954
12.6769	5.31129
12.6459	5.55942
12.6152	5.71596
12.5845	5.77249
12.5541	5.68216
12.5238	5.56421
12.4936	5.68107
12.4635	5.75019
12.4337	5.66149
12.4039	5.74734
12.3743	5.82456
12.3448	5.8261
12.3155	5.90477
12.2863	5.95439
12.2573	5.85165
12.2284	5.69254
12.1996	5.64022
12.171	5.63882
12.1425	5.68014
12.1141	5.72393
12.0859	5.7353
12.0578	5.75742
12.0298	5.8817
12.0019	5.91645
11.9742	5.80817
11.9466	5.84835
11.9192	5.87952
11.8918	5.77773
11.8646	5.60334
11.8375	5.70421
11.8106	5.93478
11.7837	6.17445
11.757	6.43052
11.7304	6.69553
11.7039	7.13726
11.6776	7.74271
11.6513	8.48256
11.6252	9.80306
11.5992	11.3918
11.5733	12.529
11.5475	13.4324
11.5219	14.7225
11.4963	16.8048
11.4709	19.2465
11.4455	20.9126
11.4203	22.0234
11.3952	22.8379
11.3702	23.3467
11.3454	23.1642
11.3206	21.3731
11.2959	16.7756
11.2714	10.6121
11.2469	6.49882
11.2226	4.71639
11.1983	4.03291
11.1742	3.73225
11.1502	3.54568
11.1263	3.62269
11.1024	3.7526
11.0787	3.71734
11.0551	3.6453
11.0316	3.49373
11.0081	3.57274
10.9848	3.79115
10.9616	3.91699
10.9385	3.92205
10.9154	4.02197
10.8925	3.99134
10.8697	4.00272
10.8469	4.09093
10.8243	4.16451
10.8017	4.29241
10.7793	4.2472
10.7569	4.23017
10.7346	4.29847
10.7125	4.39408
10.6904	4.40659
10.6684	4.34924
10.6465	4.33217
10.6247	4.32818
10.6029	4.29192
10.5813	4.27346
10.5597	4.29155
10.5383	4.2906
10.5169	4.37892
10.4956	4.44612
10.4744	4.43379
10.4533	4.43044
10.4323	4.42358
10.4113	4.51254
10.3904	4.64524
10.3697	4.63091
10.349	4.61479
10.3284	4.62794
10.3078	4.73242
10.2874	4.72555
10.267	4.66939
10.2467	4.70242
10.2265	4.79091
10.2064	4.91735
10.1863	5.01733
10.1663	4.96409
10.1464	4.94114
10.1266	5.11004
10.1069	5.1113
10.0872	5.10067
10.0676	5.12017
10.0481	5.10166
10.0287	5.07655
10.0093	5.12346
9.99005	5.22726
9.97084	5.29616
9.95169	5.32625
9.93263	5.2719
9.91364	5.221
9.89472	5.16719
9.87587	5.08767
9.8571	5.09805
9.83839	5.10755
9.81976	5.0657
9.80119	5.07924
9.78271	5.07867
9.76428	5.10981
9.74592	5.11823
9.72764	5.03517
9.70943	4.95589
9.69128	4.95747
9.6732	4.92168
9.65518	4.92103
9.63724	4.939
9.61935	4.91949
9.60155	4.89668
9.5838	4.79291
9.56611	4.87479
9.5485	4.88239
9.53094	4.86237
9.51345	4.87126
9.49604	4.86885
9.47867	4.87901
9.46137	4.91621
9.44414	4.93914
9.42697	4.97521
9.40986	5.04334
9.39281	5.0815
9.37583	5.08998
9.35891	5.0275
9.34204	4.91618
9.32524	4.91914
9.3085	4.96276
9.29182	4.96932
9.27519	5.06516
9.25863	5.17723
9.24213	5.14782
9.22568	5.00697
9.2093	5.08626
9.19297	5.06541
9.17669	4.92003
9.16048	5.08875
9.14433	5.18041
9.12823	5.01823
9.11218	4.98805
9.0962	5.12996
9.08027	5.17106
9.06439	5.14972
9.04858	5.1314
9.03281	5.21229
9.0171	5.24694
9.00145	5.2289
8.98585	5.21016
8.9703	5.19207
8.9548	5.15845
8.93937	5.22537
8.92398	5.33051
8.90865	5.40762
8.89337	5.39771
8.87814	5.44751
8.86296	5.56569
8.84784	5.60146
8.83277	5.50688
8.81774	5.43513
8.80277	5.50612
8.78786	5.58188
8.77298	5.64366
8.75816	5.62694
8.7434	5.56942
8.72868	5.67551
8.714	5.74164
8.69938	5.5677
8.68481	5.52209
8.67029	5.61462
8.65581	5.65491
8.64139	5.63157
8.62701	5.57999
8.61268	5.60011
8.5984	5.54043
8.58416	5.52716
8.56997	5.5521
8.55583	5.56681
8.54174	5.61551
8.52769	5.54163
8.51368	5.56529
8.49973	5.73257
8.48582	5.78872
8.47195	5.72608
8.45813	5.63002
8.44436	5.71719
8.43062	5.78883
8.41693	5.71553
8.4033	5.6516
8.3897	5.70256
8.37614	5.72338
8.36264	5.79408
8.34917	5.88976
8.33574	5.96673
8.32236	5.94759
8.30903	5.86325
8.29573	5.86848
8.28248	5.93449
8.26927	5.97989
8.2561	5.94286
8.24298	5.97416
8.2299	6.01293
8.21685	6.0945
8.20385	6.13872
8.19089	6.0111
8.17797	5.94788
8.16509	5.98905
8.15225	6.08848
8.13946	6.20966
8.1267	6.24393
8.11398	6.16852
8.10131	6.16316
8.08867	6.23604
8.07606	6.24173
8.0635	6.29135
8.05099	6.33103
8.0385	6.36066
8.02606	6.48821
8.01366	6.56889
8.00129	6.55985
7.98896	6.56617
7.97667	6.57875
7.96442	6.5335
7.9522	6.54277
7.94002	6.70208
7.92788	6.85678
7.91578	6.85773
7.90371	6.84309
7.89168	6.89313
7.87969	6.8811
7.86773	6.896
7.85581	6.99048
7.84392	7.01085
7.83207	6.96539
7.82026	7.05776
7.80849	7.19891
7.79674	7.30999
7.78503	7.32177
7.77337	7.33631
7.76173	7.37195
7.75012	7.42463
7.73856	7.51435
7.72703	7.6023
7.71553	7.5856
7.70406	7.60546
7.69263	7.71199
7.68123	7.7989
7.66987	7.92689
7.65855	8.0251
7.64725	8.0142
7.63598	8.03723
7.62475	8.16165
7.61356	8.26032
7.60239	8.29654
7.59126	8.36727
7.58017	8.4546
7.5691	8.52126
7.55806	8.60039
7.54707	8.75405
7.5361	8.90339
7.52516	8.89935
7.51425	9.00694
7.50338	9.14013
7.49253	9.23075
7.48172	9.42852
7.47094	9.60901
7.46019	9.692
7.44947	9.77926
7.43879	9.93737
7.42813	10.0516
7.4175	10.1219
7.4069	10.3088
7.39634	10.5566
7.3858	10.7296
7.37529	10.8018
7.36482	10.9243
7.35437	11.1339
7.34396	11.3962
7.33357	11.6377
7.32321	11.8022
7.31288	12.0654
7.30258	12.3939
7.29231	12.7528
7.28207	13.0128
7.27185	13.3407
7.26167	13.7897
7.25152	14.2327
7.24139	14.616
7.23129	15.0296
7.22122	15.3895
7.21117	15.7083
7.20116	16.1112
7.19117	16.7892
7.18121	17.905
7.17128	19.3171
7.16137	20.6572
7.1515	21.892
7.14164	22.9466
7.13182	23.5934
7.12203	23.9712
7.11225	24.1045
7.10251	24.0903
7.0928	24.2637
7.08311	24.4629
7.07344	24.5471
7.06381	24.6205
7.0542	24.803
7.04461	24.88
7.03506	24.6899
7.02552	24.7099
7.01601	24.7841
7.00653	24.7666
6.99708	24.8282
6.98765	24.8722
6.97824	24.868
6.96886	24.9828
6.95951	25.1071
6.95018	24.9336
6.94087	24.9069
6.9316	25.0092
6.92234	25.2336
6.91311	25.4272
6.90391	25.5653
6.89473	25.628
6.88557	25.7415
6.87644	26.0497
6.86733	26.6775
6.85824	26.8277
6.84918	26.6432
6.84015	26.7771
6.83114	27.1742
6.82215	27.4615
6.81319	27.6025
6.80424	27.8798
6.79532	28.4409
6.78643	28.8466
6.77756	29.1039
6.76871	29.3248
6.75989	29.5189
6.75109	30.0258
6.74231	30.54
6.73355	31.0791
6.72482	31.8059
6.71611	32.5277
6.70742	33.0479
6.69875	33.4259
6.69011	34.1178
6.68149	34.8186
6.67289	35.1252
6.66431	35.3419
6.65576	35.6382
6.64722	36.3361
6.63871	37.1943
6.63022	37.1549
6.62175	36.9368
6.61331	37.0921
6.60488	37.3129
6.59648	37.723
6.5881	38.0771
6.57974	38.4329
6.5714	38.7989
6.56308	38.7116
6.55478	38.7036
6.54651	38.5575
6.53825	38.4687
6.53001	38.4963
6.5218	38.571
6.51361	38.1806
6.50544	38.0272
6.49729	38.3661
6.48915	38.0857
6.48104	37.1579
6.47295	36.2132
6.46488	35.0163
6.45683	33.8628
6.4488	32.5073
6.44079	31.1783
6.4328	29.8033
6.42482	28.2991
6.41687	26.9013
6.40894	24.7354
6.40103	22.2168
6.39314	20.1935
6.38526	18.4232
6.37741	16.7325
6.36957	14.9087
6.36176	13.0716
6.35396	11.402
6.34618	9.85409
6.33843	8.30282
6.33069	6.9676
6.32297	5.71804
6.31527	4.71844
6.30758	4.01623
6.29992	3.42772
6.29227	2.97686
6.28465	2.65666
6.27704	2.23042
6.26945	1.84046
6.26188	1.53758
6.25432	1.34916
6.24679	1.2614
6.23927	1.18561
6.23177	1.03348
6.22429	0.990586
6.21683	1.00329
6.20938	0.998007
6.20195	0.899428
6.19454	0.791091
6.18715	0.682573
6.17978	0.552203
6.17242	0.560113
6.16508	0.590505
6.15776	0.547756
6.15045	0.530971
6.14317	0.534498
6.1359	0.497166
6.12864	0.483623
6.12141	0.555717
6.11419	0.469242
6.10699	0.353489
6.0998	0.419325
6.09263	0.52402
6.08549	0.522177
6.07835	0.464794
6.07123	0.450292
6.06413	0.482285
6.05705	0.519051
6.04998	0.574706
6.04293	0.633297
6.0359	0.616749
6.02888	0.555415
6.02187	0.541375
6.01489	0.553535
6.00792	0.63436
6.00096	0.677665
5.99403	0.606295
5.98711	0.598312
5.9802	0.666246
5.97331	0.623371
5.96644	0.686563
5.95958	0.719449
5.95274	0.697569
5.94591	0.668188
5.9391	0.731118
5.9323	0.761997
5.92552	0.711514
5.91876	0.794973
5.91201	0.846212
5.90528	0.830873
5.89856	0.899364
5.89186	0.886653
5.88517	0.886371
5.8785	0.904215
5.87184	0.834205
5.8652	0.829672
5.85857	0.953323
5.85196	0.995723
5.84536	0.96534
5.83878	0.998536
5.83221	1.16818
5.82566	1.22924
5.81912	1.17973
5.81259	1.11642
5.80608	1.07547
5.79959	1.09687
5.79311	1.15495
5.78665	1.18769
5.78019	1.22852
5.77376	1.22753
5.76734	1.244
5.76093	1.16781
5.75453	1.15613
5.74815	1.17265
5.74179	1.14826
5.73543	1.14489
5.7291	1.28413
5.72277	1.41682
5.71646	1.40332
5.71017	1.44645
5.70389	1.47925
5.69762	1.43704
5.69136	1.43956
5.68513	1.49569
5.6789	1.51396
5.67268	1.47188
5.66648	1.39592
5.6603	1.37099
5.65413	1.42449
5.64797	1.47357
5.64182	1.48279
5.63569	1.5255
5.62957	1.57121
5.62347	1.57919
5.61737	1.61259
5.61129	1.59518
5.60522	1.52583
5.59917	1.60676
5.59313	1.67047
5.5871	1.60631
5.58109	1.56489
5.57509	1.57294
5.5691	1.51892
5.56312	1.49968
5.55716	1.48228
5.55121	1.54314
5.54528	1.57779
5.53935	1.47205
5.53344	1.43339
5.52754	1.49352
5.52166	1.57833
5.51578	1.57188
5.50992	1.53618
5.50407	1.5314
5.49823	1.50488
5.49241	1.54315
5.4866	1.55666
5.4808	1.50829
5.47501	1.51658
5.46923	1.56955
5.46347	1.62026
5.45772	1.66453
5.45198	1.70916
5.44625	1.80455
5.44054	1.75388
5.43484	1.786
5.42914	1.92247
5.42347	2.18722
5.4178	2.44655
5.41214	2.58737
5.4065	2.81421
5.40087	3.08048
5.39525	3.34617
5.38964	3.63995
5.38404	3.96198
5.37846	4.239
5.37288	4.47265
5.36732	4.66716
5.36177	4.94587
5.35623	5.23008
5.35071	5.48655
5.34519	5.72737
5.33968	5.96452
5.33419	6.20746
5.32871	6.39089
5.32324	6.64676
5.31778	6.90211
5.31233	7.08669
5.30689	7.27759
5.30147	7.52965
5.29605	7.76468
5.29065	7.94517
5.28525	8.14566
5.27987	8.26889
5.2745	8.32527
5.26914	8.42968
5.26379	8.60711
5.25845	8.76808
5.25312	8.8956
5.24781	9.00954
5.2425	9.10343
5.23721	9.19037
5.23192	9.29909
5.22665	9.42758
5.22138	9.52614
5.21613	9.71018
5.21089	9.81049
5.20566	9.82264
5.20044	9.90208
5.19522	9.92524
5.19002	9.91183
5.18483	9.93875
5.17965	10.0349
5.17448	10.0766
5.16933	10.0505
5.16418	10.0306
5.15904	10.071
5.15391	10.1846
5.14879	10.1588
5.14368	9.90185
5.13859	9.4706
5.1335	8.88873
5.12842	8.2391
5.12335	7.61041
5.1183	7.16946
5.11325	7.00994
5.10821	7.35033
5.10318	8.07161
5.09817	8.79553
5.09316	9.34504
5.08816	9.78331
5.08317	10.191
5.07819	10.5327
5.07322	10.7217
5.06826	10.9285
5.06331	11.2118
5.05837	11.3696
5.05344	11.3789
5.04852	11.402
5.04361	11.4462
5.03871	11.5391
5.03382	11.6247
5.02894	11.6235
5.02406	11.658
5.0192	11.6885
5.01435	11.6864
5.0095	11.6725
5.00467	11.6903
4.99984	11.7136
4.99502	11.7563
4.99021	11.7711
4.98542	11.8367
4.98063	11.9313
4.97585	11.9519
4.97108	11.8989
4.96632	11.9472
4.96156	12.0506
4.95682	12.1193
4.95209	12.1303
4.94736	12.1207
4.94264	12.1415
4.93794	12.2363
4.93324	12.2293
4.92855	12.309
4.92387	12.379
4.9192	12.3477
4.91453	12.389
4.90988	12.4124
4.90524	12.3803
4.9006	12.4005
4.89597	12.4698
4.89135	12.4951
4.88674	12.5321
4.88214	12.5806
4.87755	12.556
4.87296	12.5639
4.86839	12.5497
4.86382	12.5581
4.85926	12.5881
4.85471	12.6247
4.85017	12.6351
4.84564	12.5795
4.84111	12.5768
4.8366	12.5589
4.83209	12.5869
4.82759	12.6351
4.8231	12.5999
4.81862	12.5571
4.81415	12.5007
4.80968	12.4331
4.80522	12.3853
4.80077	12.2813
4.79633	12.318
4.7919	12.3738
4.78747	12.32
4.78306	12.2109
4.77865	12.0605
4.77425	11.9517
4.76986	11.8986
4.76547	11.7787
4.7611	11.5582
4.75673	11.4103
4.75237	11.2697
4.74802	11.0768
4.74367	10.8203
4.73934	10.4848
4.73501	10.1465
4.73069	9.79563
4.72638	9.45099
4.72207	8.99071
4.71777	8.31569
4.71348	7.68587
4.7092	7.03623
4.70493	6.42596
4.70066	5.91758
4.69641	5.63685
4.69216	5.46889
4.68791	5.2774
4.68368	5.17992
4.67945	5.14861
4.67523	5.13511
4.67102	5.11934
4.66682	5.17615
4.66262	5.2362
4.65843	5.25968
4.65425	5.35701
4.65007	5.46773
4.64591	5.69165
4.64175	5.94215
4.6376	6.15403
4.63345	6.31478
4.62932	6.57795
4.62519	6.94117
4.62106	7.21005
4.61695	7.4233
4.61284	7.61488
4.60874	7.75567
4.60465	7.83698
4.60056	7.88892
4.59648	8.02806
4.59241	8.21856
4.58835	8.33857
4.58429	8.47379
4.58024	8.65012
4.5762	8.75109
4.57216	8.83524
4.56814	8.87449
4.56411	8.97609
4.5601	9.09101
4.55609	9.15582
4.55209	9.22424
4.5481	9.25006
4.54411	9.26309
4.54013	9.251
4.53616	9.27578
4.5322	9.35993
4.52824	9.41253
4.52429	9.43771
4.52034	9.42115
4.51641	9.34774
4.51247	9.27606
4.50855	9.24439
4.50463	9.31921
4.50072	9.3287
4.49682	9.3436
4.49292	9.34318
4.48903	9.30858
4.48515	9.31913
4.48127	9.39655
4.4774	9.45203
4.47354	9.50812
4.46968	9.51878
4.46584	9.5694
4.46199	9.70017
4.45815	9.86239
4.45432	9.951
4.4505	10.0201
4.44668	10.0445
4.44287	10.0238
4.43907	10.1781
4.43527	10.3859
4.43148	10.5224
4.4277	10.6501
4.42392	10.699
4.42015	10.7146
4.41638	10.7072
4.41262	10.6657
4.40887	10.5347
4.40513	10.3623
4.40139	10.2533
4.39765	10.2695
4.39393	10.3566
4.39021	10.4638
4.38649	10.5633
4.38278	10.662
4.37908	10.8015
4.37539	10.9045
4.3717	10.9542
4.36801	10.937
4.36434	11.0077
4.36067	11.0714
4.357	11.0974
4.35335	11.1273
4.34969	11.1161
4.34605	11.1151
4.34241	11.2228
4.33877	11.2771
4.33514	11.3346
4.33152	11.4506
4.32791	11.509
4.3243	11.5308
4.32069	11.5352
4.3171	11.5238
4.31351	11.5837
4.30992	11.713
4.30634	11.7123
4.30277	11.739
4.2992	11.7623
4.29564	11.7475
4.29208	11.902
4.28853	12.0555
4.28499	12.0761
4.28145	12.0442
4.27792	11.9436
4.27439	11.9547
4.27087	11.9857
4.26735	11.9224
4.26384	11.8189
4.26034	11.7789
4.25684	11.7366
4.25335	11.7019
4.24986	11.717
4.24638	11.662
4.24291	11.5917
4.23944	11.5266
4.23598	11.4996
4.23252	11.4403
4.22906	11.2568
4.22562	11.0997
4.22218	11.0196
4.21874	11.0052
4.21531	10.9277
4.21189	10.7175
4.20847	10.6468
4.20506	10.627
4.20165	10.461
4.19825	10.3631
4.19485	10.3166
4.19146	10.1944
4.18807	10.1579
4.18469	10.1732
4.18132	10.1344
4.17795	10.0146
4.17458	9.95652
4.17123	9.82176
4.16787	9.68718
4.16453	9.61322
4.16118	9.53142
4.15785	9.37699
4.15451	9.20676
4.15119	9.05724
4.14787	8.83342
4.14455	8.74284
4.14124	8.67654
4.13794	8.57197
4.13464	8.46488
4.13134	8.26754
4.12805	8.06903
4.12477	7.91264
4.12149	7.76338
4.11822	7.63333
4.11495	7.44234
4.11168	7.22976
4.10843	7.0138
4.10517	6.84175
4.10192	6.63519
4.09868	6.50874
4.09545	6.35413
4.09221	6.07253
4.08899	5.8463
4.08576	5.63998
4.08255	5.43593
4.07933	5.19959
4.07613	4.99072
4.07292	4.84935
4.06973	4.6629
4.06654	4.37075
4.06335	4.10041
4.06017	3.90922
4.05699	3.80391
4.05382	3.68659
4.05065	3.54843
4.04749	3.47959
4.04433	3.40598
4.04118	3.22396
4.03803	3.09146
4.03489	3.00057
4.03175	2.95222
4.02862	2.92903
4.02549	2.93642
4.02237	2.96826
4.01925	2.97963
4.01614	2.92845
4.01303	2.81914
4.00993	2.78903
4.00683	2.76933
4.00373	2.74838
4.00064	2.68818
3.99756	2.69008
3.99448	2.81761
3.9914	2.8449
3.98833	2.7435
3.98527	2.70275
3.98221	2.76488
3.97915	2.83338
3.9761	2.8287
3.97305	2.83652
3.97001	2.83825
3.96697	2.77795
3.96394	2.81216
3.96091	2.8952
3.95789	2.86499
3.95487	2.85692
3.95186	2.93599
3.94885	3.00324
3.94584	2.98139
3.94284	3.01494
3.93984	3.03237
3.93685	3.07267
3.93386	3.10701
3.93088	3.08824
3.9279	3.10737
3.92493	3.13994
3.92196	3.17085
3.919	3.11158
3.91604	3.0568
3.91308	3.11494
3.91013	3.18828
3.90718	3.19696
3.90424	3.24367
3.9013	3.29336
3.89837	3.22689
3.89544	3.14665
3.89252	3.12065
3.8896	3.1007
3.88668	3.17991
3.88377	3.25638
3.88086	3.19808
3.87796	3.14767
3.87506	3.14346
3.87217	3.11594
3.86928	3.18298
3.86639	3.31203
3.86351	3.27291
3.86064	3.21848
3.85776	3.27028
3.8549	3.33595
3.85203	3.30549
3.84917	3.2777
3.84631	3.28483
3.84346	3.27548
3.84062	3.33542
3.83777	3.34682
3.83494	3.3356
3.8321	3.3731
3.82927	3.45505
3.82644	3.49539
3.82362	3.49342
3.82081	3.54888
3.81799	3.61129
3.81518	3.70119
3.81238	3.8095
3.80958	3.90533
3.80678	4.01731
3.80399	4.10674
3.8012	4.16916
3.79841	4.29456
3.79563	4.36291
3.79286	4.42374
3.79008	4.61234
3.78731	4.73107
3.78455	4.7833
3.78179	5.00389
3.77903	5.24822
3.77628	5.48895
3.77353	5.79533
3.77079	6.1259
3.76805	6.42892
3.76531	6.67136
3.76258	6.88205
3.75985	7.11742
3.75713	7.29559
3.7544	7.5207
3.75169	7.70683
3.74898	7.86721
3.74627	7.96968
3.74356	7.98838
3.74086	8.10628
3.73816	8.18894
3.73547	8.20187
3.73278	8.21386
3.7301	8.26372
3.72741	8.28232
3.72474	8.29899
3.72206	8.35695
3.71939	8.40997
3.71673	8.51288
3.71406	8.65468
3.71141	8.70178
3.70875	8.69198
3.7061	8.72235
3.70345	8.78292
3.70081	8.91977
3.69817	9.02963
3.69553	9.06932
3.6929	9.0965
3.69027	9.19787
3.68765	9.26144
3.68503	9.31291
3.68241	9.34754
3.6798	9.30795
3.67719	9.37032
3.67458	9.41369
3.67198	9.38296
3.66938	9.3711
3.66678	9.36936
3.66419	9.32975
3.66161	9.24346
3.65902	9.21015
3.65644	9.23919
3.65387	9.24863
3.65129	9.15506
3.64872	9.13095
3.64616	9.14317
3.64359	9.08648
3.64103	8.98363
3.63848	8.85967
3.63593	8.74013
3.63338	8.67366
3.63084	8.54437
3.6283	8.418
3.62576	8.24777
3.62322	8.11769
3.62069	7.88841
3.61817	7.51946
3.61564	7.19969
3.61312	6.82795
3.61061	6.55433
3.6081	6.52182
3.60559	6.61659
3.60308	6.77322
3.60058	6.7874
3.59808	6.66882
3.59558	6.54091
3.59309	6.42255
3.59061	6.11042
3.58812	5.79092
3.58564	5.52727
3.58316	5.27729
3.58069	5.032
3.57822	4.74702
3.57575	4.44024
3.57328	4.07821
3.57082	3.76823
3.56836	3.57176
3.56591	3.50886
3.56346	3.55886
3.56101	3.54346
3.55857	3.39716
3.55613	3.34072
3.55369	3.36522
3.55126	3.34012
3.54883	3.21357
3.5464	3.17118
3.54397	3.28697
3.54155	3.33659
3.53914	3.33237
3.53672	3.37987
3.53431	3.26412
3.5319	3.12916
3.5295	3.20657
3.5271	3.22706
3.5247	3.22146
3.52231	3.20885
3.51991	3.20047
3.51753	3.20534
3.51514	3.15382
3.51276	3.08402
3.51038	3.05647
3.50801	3.04674
3.50563	3.04452
3.50327	3.0449
3.5009	3.01403
3.49854	3.00522
3.49618	3.02925
3.49382	3.11628
3.49147	3.20386
3.48912	3.3528
3.48677	3.41336
3.48443	3.36252
3.48209	3.33125
3.47975	3.31226
3.47742	3.36349
3.47509	3.45499
3.47276	3.43149
3.47044	3.31033
3.46812	3.24374
3.4658	3.23013
