Name: Quartz SiO_2
Type: Mineral
Class: Silicates
Subclass: Tectosilicates
Particle Size: 0-45um
Sample No.: TS-1B
Owner: JPL
Wavelength range: VNIR-SWIR
Origin: Brazil, Minas Gerais.
Collected by:  Burminco
Description: Smoky quartz





Measurement: Hemispherical reflectance
First Column: X
Second Column: Y
X Units: Wavelength (micrometers)
Y Units: Reflectance (percent)
First X Value: 2.500
Last X Value: 0.400
Number of X Values: 2101
Additional information: ts01ba.txt

2.500  74.505306
2.499  74.558508
2.498  74.889906
2.497  74.664808
2.496  74.743748
2.495  74.641856
2.494  74.796684
2.493  74.708633
2.492  74.695080
2.491  74.699824
2.490  74.638676
2.489  74.541136
2.488  74.603588
2.487  74.605876
2.486  74.752049
2.485  74.733701
2.484  74.774418
2.483  74.739244
2.482  74.773607
2.481  74.891733
2.480  74.942282
2.479  74.756682
2.478  74.731563
2.477  74.813336
2.476  74.761617
2.475  74.911642
2.474  74.767470
2.473  74.842378
2.472  74.861867
2.471  74.827489
2.470  74.895767
2.469  74.990351
2.468  75.082865
2.467  74.938630
2.466  74.962895
2.465  75.045211
2.464  74.893123
2.463  74.970299
2.462  75.029063
2.461  75.152453
2.460  75.131387
2.459  74.965252
2.458  75.046272
2.457  75.093755
2.456  75.121922
2.455  75.136004
2.454  75.020364
2.453  75.066586
2.452  75.106203
2.451  75.136814
2.450  75.127001
2.449  75.174810
2.448  75.161674
2.447  75.105545
2.446  75.040913
2.445  75.107085
2.444  75.127899
2.443  75.095412
2.442  75.062761
2.441  75.115406
2.440  75.209265
2.439  75.234895
2.438  75.321045
2.437  75.266774
2.436  75.188562
2.435  75.186872
2.434  75.185077
2.433  75.147588
2.432  75.124547
2.431  75.188297
2.430  75.249985
2.429  75.198035
2.428  75.209724
2.427  75.244939
2.426  75.304388
2.425  75.227327
2.424  75.282059
2.423  75.359133
2.422  75.325099
2.421  75.367048
2.420  75.390310
2.419  75.345037
2.418  75.395152
2.417  75.380530
2.416  75.416648
2.415  75.389039
2.414  75.389658
2.413  75.420701
2.412  75.441456
2.411  75.435911
2.410  75.417780
2.409  75.380444
2.408  75.464159
2.407  75.422646
2.406  75.450674
2.405  75.482190
2.404  75.454566
2.403  75.488944
2.402  75.521049
2.401  75.515459
2.400  75.521894
2.399  75.507314
2.398  75.515200
2.397  75.591536
2.396  75.654778
2.395  75.664726
2.394  75.681167
2.393  75.606048
2.392  75.572210
2.391  75.648094
2.390  75.678380
2.389  75.653608
2.388  75.670328
2.387  75.677918
2.386  75.654424
2.385  75.667893
2.384  75.760930
2.383  75.830415
2.382  75.831333
2.381  75.762186
2.380  75.813397
2.379  75.785842
2.378  75.749997
2.377  75.844323
2.376  75.882048
2.375  75.810709
2.374  75.798393
2.373  75.876661
2.372  75.916769
2.371  75.919189
2.370  75.941890
2.369  75.921172
2.368  75.932891
2.367  75.990101
2.366  75.998558
2.365  76.009833
2.364  75.992187
2.363  75.981348
2.362  76.008347
2.361  76.047475
2.360  76.083567
2.359  76.065534
2.358  76.028145
2.357  76.019834
2.356  76.064950
2.355  76.110136
2.354  76.118539
2.353  76.079349
2.352  76.067118
2.351  76.130345
2.350  76.132352
2.349  76.071698
2.348  76.105651
2.347  76.155767
2.346  76.221480
2.345  76.206617
2.344  76.125197
2.343  76.147399
2.342  76.169801
2.341  76.172041
2.340  76.136308
2.339  76.184019
2.338  76.223878
2.337  76.190981
2.336  76.183640
2.335  76.170017
2.334  76.147717
2.333  76.169807
2.332  76.097273
2.331  76.115538
2.330  76.149161
2.329  76.147127
2.328  76.143567
2.327  76.185656
2.326  76.128535
2.325  76.111240
2.324  76.096779
2.323  76.074709
2.322  76.080700
2.321  76.104114
2.320  76.113443
2.319  76.130375
2.318  76.091334
2.317  76.057541
2.316  76.064412
2.315  76.058412
2.314  76.032958
2.313  76.028222
2.312  76.128532
2.311  76.138348
2.310  76.074037
2.309  76.028787
2.308  76.036624
2.307  76.128994
2.306  76.088058
2.305  76.096319
2.304  76.011215
2.303  75.980382
2.302  75.989785
2.301  76.033667
2.300  76.045319
2.299  76.079687
2.298  76.070416
2.297  76.075912
2.296  76.032733
2.295  76.040032
2.294  76.037190
2.293  76.012520
2.292  76.013923
2.291  76.016895
2.290  76.032487
2.289  76.071305
2.288  76.006413
2.287  75.999395
2.286  76.024235
2.285  76.004207
2.284  75.981268
2.283  76.050804
2.282  76.008530
2.281  76.040543
2.280  76.018582
2.279  76.013496
2.278  75.994727
2.277  76.014158
2.276  76.009272
2.275  75.982731
2.274  75.992361
2.273  75.989248
2.272  76.025406
2.271  76.037013
2.270  75.969362
2.269  75.960007
2.268  76.028168
2.267  75.991282
2.266  75.963696
2.265  75.931543
2.264  75.994732
2.263  76.001488
2.262  76.013887
2.261  76.011985
2.260  75.996682
2.259  75.975493
2.258  75.934933
2.257  75.938409
2.256  75.971128
2.255  76.037332
2.254  75.953532
2.253  75.971164
2.252  75.979956
2.251  75.896904
2.250  76.018818
2.249  76.032130
2.248  76.048165
2.247  76.027216
2.246  75.975361
2.245  76.051479
2.244  75.998796
2.243  76.045732
2.242  76.049092
2.241  76.075766
2.240  76.061295
2.239  76.105864
2.238  75.981142
2.237  76.072588
2.236  75.993721
2.235  76.076919
2.234  76.033602
2.233  76.062533
2.232  76.065169
2.231  76.100914
2.230  76.207160
2.229  76.080570
2.228  76.016841
2.227  76.134022
2.226  76.071759
2.225  76.052302
2.224  76.228950
2.223  76.148765
2.222  76.107666
2.221  76.241926
2.220  76.115545
2.219  76.246827
2.218  76.239472
2.217  76.294061
2.216  76.267599
2.215  76.259549
2.214  76.259753
2.213  76.344731
2.212  76.330394
2.211  76.287621
2.210  76.338223
2.209  76.339511
2.208  76.428738
2.207  76.492961
2.206  76.445376
2.205  76.445443
2.204  76.506501
2.203  76.481509
2.202  76.488112
2.201  76.544419
2.200  76.538969
2.199  76.669623
2.198  76.524589
2.197  76.614157
2.196  76.602493
2.195  76.587419
2.194  76.526764
2.193  76.717638
2.192  76.603323
2.191  76.630555
2.190  76.628186
2.189  76.712091
2.188  76.680922
2.187  76.701598
2.186  76.794756
2.185  76.736760
2.184  76.685363
2.183  76.800359
2.182  76.779356
2.181  76.735004
2.180  76.796829
2.179  76.901288
2.178  76.889730
2.177  76.845529
2.176  76.895723
2.175  76.961053
2.174  76.966116
2.173  77.042648
2.172  77.107495
2.171  77.056826
2.170  77.024294
2.169  77.126231
2.168  77.129396
2.167  77.137259
2.166  77.169491
2.165  77.191939
2.164  77.196894
2.163  77.248749
2.162  77.334604
2.161  77.272681
2.160  77.265529
2.159  77.304056
2.158  77.372565
2.157  77.387137
2.156  77.350788
2.155  77.417903
2.154  77.475077
2.153  77.475361
2.152  77.431115
2.151  77.439970
2.150  77.457485
2.149  77.469073
2.148  77.483774
2.147  77.474078
2.146  77.435453
2.145  77.508560
2.144  77.466183
2.143  77.468746
2.142  77.462743
2.141  77.449786
2.140  77.477266
2.139  77.464224
2.138  77.528361
2.137  77.512162
2.136  77.436719
2.135  77.405395
2.134  77.435735
2.133  77.481830
2.132  77.430048
2.131  77.384450
2.130  77.280210
2.129  77.278356
2.128  77.247037
2.127  77.270836
2.126  77.233543
2.125  77.225661
2.124  77.138354
2.123  77.081954
2.122  77.017787
2.121  76.954263
2.120  77.020481
2.119  76.958076
2.118  76.952415
2.117  76.917913
2.116  76.848705
2.115  76.860346
2.114  76.788314
2.113  76.738507
2.112  76.671641
2.111  76.594676
2.110  76.589075
2.109  76.527736
2.108  76.518365
2.107  76.488616
2.106  76.454081
2.105  76.374750
2.104  76.313831
2.103  76.351073
2.102  76.306094
2.101  76.314528
2.100  76.300522
2.099  76.270805
2.098  76.214216
2.097  76.240535
2.096  76.316668
2.095  76.318056
2.094  76.301582
2.093  76.320040
2.092  76.304416
2.091  76.347845
2.090  76.358802
2.089  76.384314
2.088  76.371527
2.087  76.320881
2.086  76.372039
2.085  76.423389
2.084  76.421383
2.083  76.391316
2.082  76.421834
2.081  76.414634
2.080  76.441410
2.079  76.495412
2.078  76.510970
2.077  76.508217
2.076  76.523579
2.075  76.549099
2.074  76.523941
2.073  76.578281
2.072  76.549094
2.071  76.509630
2.070  76.511821
2.069  76.591075
2.068  76.670767
2.067  76.639576
2.066  76.626999
2.065  76.594662
2.064  76.580901
2.063  76.641313
2.062  76.640257
2.061  76.652525
2.060  76.713004
2.059  76.694747
2.058  76.699549
2.057  76.733193
2.056  76.722575
2.055  76.753966
2.054  76.797607
2.053  76.774670
2.052  76.748430
2.051  76.726384
2.050  76.767384
2.049  76.791642
2.048  76.831095
2.047  76.777079
2.046  76.809520
2.045  76.855210
2.044  76.891823
2.043  76.893545
2.042  76.888519
2.041  76.863863
2.040  76.946339
2.039  76.928632
2.038  76.889892
2.037  76.938982
2.036  76.975814
2.035  76.965452
2.034  76.949094
2.033  76.922750
2.032  76.968755
2.031  76.997238
2.030  76.941108
2.029  76.912012
2.028  76.935250
2.027  76.947332
2.026  76.944424
2.025  76.962235
2.024  76.957800
2.023  76.899146
2.022  76.942957
2.021  76.914453
2.020  77.000408
2.019  76.984074
2.018  76.928256
2.017  76.938858
2.016  76.951776
2.015  76.976893
2.014  76.982596
2.013  77.012108
2.012  77.008730
2.011  76.974709
2.010  76.958924
2.009  76.937761
2.008  76.965968
2.007  76.981806
2.006  76.937492
2.005  76.931525
2.004  76.934250
2.003  76.903877
2.002  76.926125
2.001  77.046628
2.000  76.982280
1.999  76.958698
1.998  76.935102
1.997  76.933144
1.996  76.938382
1.995  76.930455
1.994  76.896303
1.993  76.922862
1.992  76.991234
1.991  76.853512
1.990  76.857891
1.989  76.812216
1.988  76.844901
1.987  76.847668
1.986  76.882791
1.985  76.845434
1.984  76.808481
1.983  76.813152
1.982  76.799299
1.981  76.764718
1.980  76.744207
1.979  76.720497
1.978  76.798716
1.977  76.702610
1.976  76.770041
1.975  76.727108
1.974  76.772804
1.973  76.729097
1.972  76.692356
1.971  76.662258
1.970  76.691260
1.969  76.732671
1.968  76.722867
1.967  76.687063
1.966  76.613663
1.965  76.666645
1.964  76.641620
1.963  76.705871
1.962  76.670952
1.961  76.587406
1.960  76.629357
1.959  76.651496
1.958  76.654790
1.957  76.608265
1.956  76.635335
1.955  76.640011
1.954  76.673189
1.953  76.671275
1.952  76.689735
1.951  76.593165
1.950  76.671658
1.949  76.584857
1.948  76.662004
1.947  76.675996
1.946  76.677435
1.945  76.634444
1.944  76.747496
1.943  76.577388
1.942  76.680404
1.941  76.620012
1.940  76.654611
1.939  76.635925
1.938  76.665139
1.937  76.655598
1.936  76.753008
1.935  76.708151
1.934  76.734868
1.933  76.744339
1.932  76.779836
1.931  76.679132
1.930  76.698245
1.929  76.719333
1.928  76.681079
1.927  76.811661
1.926  76.732365
1.925  76.759114
1.924  76.709703
1.923  76.803780
1.922  76.790746
1.921  76.744660
1.920  76.769854
1.919  76.735719
1.918  76.799740
1.917  76.808448
1.916  76.796320
1.915  76.786567
1.914  76.871427
1.913  76.801402
1.912  76.818062
1.911  76.948498
1.910  76.923500
1.909  76.907028
1.908  76.910554
1.907  76.861519
1.906  76.967119
1.905  76.944012
1.904  76.908718
1.903  76.950902
1.902  76.982383
1.901  76.908042
1.900  77.039788
1.899  76.955785
1.898  76.992742
1.897  76.958477
1.896  77.037520
1.895  77.117748
1.894  77.047227
1.893  77.063107
1.892  77.155654
1.891  77.179101
1.890  77.171084
1.889  77.177173
1.888  77.207402
1.887  77.228219
1.886  77.180893
1.885  77.136505
1.884  77.170970
1.883  77.224973
1.882  77.168154
1.881  77.250923
1.880  77.237526
1.879  77.230291
1.878  77.286535
1.877  77.202005
1.876  77.240136
1.875  77.241196
1.874  77.285377
1.873  77.283342
1.872  77.302841
1.871  77.288454
1.870  77.236251
1.869  77.319666
1.868  77.288129
1.867  77.293332
1.866  77.305292
1.865  77.316160
1.864  77.336568
1.863  77.327057
1.862  77.386214
1.861  77.367506
1.860  77.390699
1.859  77.383243
1.858  77.446966
1.857  77.423247
1.856  77.407234
1.855  77.352603
1.854  77.373566
1.853  77.383633
1.852  77.380665
1.851  77.284216
1.850  77.408661
1.849  77.382336
1.848  77.317199
1.847  77.381108
1.846  77.377011
1.845  77.442347
1.844  77.425393
1.843  77.406438
1.842  77.382742
1.841  77.404892
1.840  77.427230
1.839  77.442018
1.838  77.380923
1.837  77.383717
1.836  77.452774
1.835  77.451690
1.834  77.423694
1.833  77.415552
1.832  77.455626
1.831  77.424934
1.830  77.443210
1.829  77.409006
1.828  77.406169
1.827  77.457171
1.826  77.430552
1.825  77.505650
1.824  77.488514
1.823  77.451024
1.822  77.492295
1.821  77.501933
1.820  77.444945
1.819  77.432791
1.818  77.492724
1.817  77.516068
1.816  77.465641
1.815  77.532563
1.814  77.487954
1.813  77.437939
1.812  77.539604
1.811  77.550197
1.810  77.518951
1.809  77.439604
1.808  77.493249
1.807  77.539564
1.806  77.514238
1.805  77.546006
1.804  77.538116
1.803  77.542135
1.802  77.513230
1.801  77.460748
1.800  77.493934
1.799  77.534090
1.798  77.526720
1.797  77.549759
1.796  77.579356
1.795  77.586525
1.794  77.568635
1.793  77.538106
1.792  77.567428
1.791  77.561400
1.790  77.530464
1.789  77.528869
1.788  77.509334
1.787  77.531934
1.786  77.551945
1.785  77.536013
1.784  77.502422
1.783  77.500717
1.782  77.535621
1.781  77.512436
1.780  77.506079
1.779  77.478719
1.778  77.432576
1.777  77.482791
1.776  77.495905
1.775  77.444834
1.774  77.390544
1.773  77.432130
1.772  77.518498
1.771  77.491460
1.770  77.505077
1.769  77.522603
1.768  77.482259
1.767  77.449832
1.766  77.500929
1.765  77.539474
1.764  77.491828
1.763  77.470115
1.762  77.437904
1.761  77.498305
1.760  77.457413
1.759  77.419932
1.758  77.493731
1.757  77.518616
1.756  77.481199
1.755  77.462884
1.754  77.532381
1.753  77.560193
1.752  77.512725
1.751  77.493647
1.750  77.543161
1.749  77.538035
1.748  77.526830
1.747  77.504409
1.746  77.537160
1.745  77.549109
1.744  77.575853
1.743  77.567701
1.742  77.512423
1.741  77.494595
1.740  77.517497
1.739  77.568581
1.738  77.592442
1.737  77.595733
1.736  77.596633
1.735  77.585356
1.734  77.559825
1.733  77.559224
1.732  77.528350
1.731  77.611421
1.730  77.611798
1.729  77.594944
1.728  77.620606
1.727  77.578016
1.726  77.565402
1.725  77.669846
1.724  77.662163
1.723  77.551176
1.722  77.595601
1.721  77.612076
1.720  77.574489
1.719  77.582641
1.718  77.631147
1.717  77.658382
1.716  77.654234
1.715  77.568840
1.714  77.550414
1.713  77.563979
1.712  77.581860
1.711  77.591174
1.710  77.492685
1.709  77.537710
1.708  77.575796
1.707  77.582320
1.706  77.611849
1.705  77.555707
1.704  77.579257
1.703  77.579834
1.702  77.541207
1.701  77.644665
1.700  77.617702
1.699  77.582715
1.698  77.559768
1.697  77.601988
1.696  77.626070
1.695  77.572193
1.694  77.548545
1.693  77.567969
1.692  77.624252
1.691  77.589203
1.690  77.560778
1.689  77.527613
1.688  77.585237
1.687  77.584255
1.686  77.630256
1.685  77.568259
1.684  77.568996
1.683  77.503753
1.682  77.520513
1.681  77.586133
1.680  77.532992
1.679  77.554821
1.678  77.499784
1.677  77.625430
1.676  77.559310
1.675  77.548088
1.674  77.589197
1.673  77.535964
1.672  77.533648
1.671  77.588220
1.670  77.620567
1.669  77.519290
1.668  77.485514
1.667  77.661650
1.666  77.640237
1.665  77.554522
1.664  77.551644
1.663  77.552518
1.662  77.587995
1.661  77.565740
1.660  77.631147
1.659  77.627693
1.658  77.483872
1.657  77.591895
1.656  77.535132
1.655  77.644910
1.654  77.523549
1.653  77.615666
1.652  77.501537
1.651  77.475230
1.650  77.610645
1.649  77.621751
1.648  77.512712
1.647  77.524400
1.646  77.622006
1.645  77.558639
1.644  77.645995
1.643  77.603563
1.642  77.535502
1.641  77.556187
1.640  77.635547
1.639  77.630603
1.638  77.576089
1.637  77.660796
1.636  77.608529
1.635  77.681726
1.634  77.536388
1.633  77.633969
1.632  77.630977
1.631  77.586815
1.630  77.621591
1.629  77.569758
1.628  77.484765
1.627  77.610943
1.626  77.517943
1.625  77.559446
1.624  77.524637
1.623  77.631774
1.622  77.582948
1.621  77.636525
1.620  77.591491
1.619  77.582684
1.618  77.600892
1.617  77.577078
1.616  77.652647
1.615  77.573925
1.614  77.684663
1.613  77.647209
1.612  77.608321
1.611  77.628050
1.610  77.612662
1.609  77.634653
1.608  77.629337
1.607  77.635892
1.606  77.592124
1.605  77.549895
1.604  77.643651
1.603  77.591965
1.602  77.646910
1.601  77.652490
1.600  77.541424
1.599  77.559083
1.598  77.631427
1.597  77.608832
1.596  77.621539
1.595  77.676523
1.594  77.605625
1.593  77.624358
1.592  77.644913
1.591  77.630758
1.590  77.628431
1.589  77.619152
1.588  77.619267
1.587  77.607281
1.586  77.632287
1.585  77.630204
1.584  77.553582
1.583  77.597501
1.582  77.656805
1.581  77.623620
1.580  77.635643
1.579  77.572417
1.578  77.525540
1.577  77.570169
1.576  77.579253
1.575  77.547386
1.574  77.633859
1.573  77.604973
1.572  77.573142
1.571  77.614048
1.570  77.638965
1.569  77.601988
1.568  77.623246
1.567  77.581853
1.566  77.534551
1.565  77.585679
1.564  77.612151
1.563  77.594652
1.562  77.561884
1.561  77.582575
1.560  77.549376
1.559  77.577600
1.558  77.599160
1.557  77.647945
1.556  77.642665
1.555  77.641818
1.554  77.557354
1.553  77.620430
1.552  77.633032
1.551  77.618862
1.550  77.573827
1.549  77.572972
1.548  77.613283
1.547  77.585649
1.546  77.594817
1.545  77.614581
1.544  77.561853
1.543  77.581197
1.542  77.587017
1.541  77.593984
1.540  77.625804
1.539  77.630289
1.538  77.623312
1.537  77.622262
1.536  77.606615
1.535  77.608590
1.534  77.586202
1.533  77.612227
1.532  77.583188
1.531  77.560774
1.530  77.568195
1.529  77.517819
1.528  77.537097
1.527  77.595596
1.526  77.613625
1.525  77.602997
1.524  77.518256
1.523  77.494480
1.522  77.473910
1.521  77.520694
1.520  77.578028
1.519  77.595905
1.518  77.621460
1.517  77.575854
1.516  77.510711
1.515  77.514198
1.514  77.507779
1.513  77.579584
1.512  77.565664
1.511  77.554210
1.510  77.541668
1.509  77.518669
1.508  77.515573
1.507  77.553727
1.506  77.567208
1.505  77.559166
1.504  77.537269
1.503  77.558650
1.502  77.585220
1.501  77.538952
1.500  77.547378
1.499  77.567220
1.498  77.574222
1.497  77.531329
1.496  77.509185
1.495  77.537170
1.494  77.586974
1.493  77.523690
1.492  77.461472
1.491  77.545671
1.490  77.507358
1.489  77.481979
1.488  77.483883
1.487  77.491429
1.486  77.563110
1.485  77.562822
1.484  77.552132
1.483  77.497884
1.482  77.485070
1.481  77.522678
1.480  77.519460
1.479  77.574510
1.478  77.581062
1.477  77.550839
1.476  77.518404
1.475  77.452715
1.474  77.442139
1.473  77.467737
1.472  77.507534
1.471  77.540770
1.470  77.563120
1.469  77.516836
1.468  77.531164
1.467  77.512836
1.466  77.527993
1.465  77.531768
1.464  77.563491
1.463  77.576429
1.462  77.560108
1.461  77.548550
1.460  77.527450
1.459  77.491859
1.458  77.510007
1.457  77.534898
1.456  77.541591
1.455  77.499348
1.454  77.461814
1.453  77.486486
1.452  77.420140
1.451  77.527170
1.450  77.530825
1.449  77.521018
1.448  77.499815
1.447  77.463120
1.446  77.493664
1.445  77.491492
1.444  77.477864
1.443  77.532535
1.442  77.582370
1.441  77.555467
1.440  77.486591
1.439  77.461983
1.438  77.489197
1.437  77.543515
1.436  77.499139
1.435  77.498975
1.434  77.504327
1.433  77.492202
1.432  77.460783
1.431  77.473002
1.430  77.526468
1.429  77.564494
1.428  77.533854
1.427  77.524181
1.426  77.565459
1.425  77.524495
1.424  77.451076
1.423  77.523180
1.422  77.515624
1.421  77.435993
1.420  77.511576
1.419  77.478905
1.418  77.427501
