Name: Carbonaceous Shale
Type: Rock
Class: Sedimentary
Subclass:  Shale 
Particle Size: Solid surface
Sample No.: Ward54.txt
Owner: JPL
Wavelength range:  VNIR SWIR IR
Origin: Ward's Collection of American Rocks.  Sample locality - Mingo County, West Virginia.
Collected by:  Ward's Natural Science
Description: A dull grayish black shaly rock with numerous fern and other
coal plant impressions.  A slight amount of carbonaceous material i
present.
Geologic age - Pennsylvanian (Pottsville).


Measurement: Hemispherical reflectance
First Column: X
Second Column: Y
X Units: Wavelength (micrometers)
Y Units: Reflectance (percent)
First X Value: 2.500
Last X Value: 0.400
Number of X Values: 2101
Additional information: None

2.500  10.825127
2.499  10.434468
2.498  11.028879
2.497  10.670934
2.496  10.554544
2.495  10.626793
2.494  10.745078
2.493  10.668578
2.492  10.765897
2.491  10.706447
2.490  10.777263
2.489  10.614788
2.488  10.749833
2.487  10.611702
2.486  10.931508
2.485  10.684774
2.484  10.930822
2.483  10.800548
2.482  10.858764
2.481  10.766012
2.480  10.873247
2.479  10.730465
2.478  10.980952
2.477  10.746796
2.476  10.960873
2.475  10.657878
2.474  10.896202
2.473  10.760250
2.472  10.850975
2.471  10.802331
2.470  10.988259
2.469  10.744067
2.468  10.969180
2.467  10.953805
2.466  10.886128
2.465  10.926225
2.464  11.131685
2.463  10.832582
2.462  10.974867
2.461  10.797143
2.460  11.030027
2.459  10.787674
2.458  10.968871
2.457  10.851957
2.456  11.008972
2.455  10.768712
2.454  11.002467
2.453  10.914808
2.452  11.006798
2.451  10.839731
2.450  10.993505
2.449  10.864348
2.448  10.994156
2.447  10.865014
2.446  11.071202
2.445  11.002734
2.444  11.087252
2.443  10.920349
2.442  11.097331
2.441  10.929205
2.440  11.038655
2.439  11.018489
2.438  11.168908
2.437  11.029977
2.436  11.139910
2.435  11.025966
2.434  11.210560
2.433  11.147163
2.432  11.275453
2.431  11.135506
2.430  11.169479
2.429  11.165334
2.428  11.300580
2.427  11.240673
2.426  11.262706
2.425  11.164326
2.424  11.316500
2.423  11.275235
2.422  11.308301
2.421  11.272413
2.420  11.470342
2.419  11.347154
2.418  11.517763
2.417  11.473689
2.416  11.448516
2.415  11.363612
2.414  11.465449
2.413  11.381705
2.412  11.455016
2.411  11.375506
2.410  11.425447
2.409  11.498381
2.408  11.567053
2.407  11.494900
2.406  11.558072
2.405  11.535915
2.404  11.549465
2.403  11.475233
2.402  11.560202
2.401  11.554434
2.400  11.573336
2.399  11.538528
2.398  11.598150
2.397  11.503213
2.396  11.545893
2.395  11.500437
2.394  11.575987
2.393  11.575224
2.392  11.585665
2.391  11.500577
2.390  11.568543
2.389  11.552850
2.388  11.549355
2.387  11.539293
2.386  11.576927
2.385  11.523878
2.384  11.555677
2.383  11.530839
2.382  11.541267
2.381  11.507702
2.380  11.509671
2.379  11.548634
2.378  11.576091
2.377  11.473943
2.376  11.495768
2.375  11.544367
2.374  11.556122
2.373  11.549277
2.372  11.623880
2.371  11.596364
2.370  11.586949
2.369  11.571397
2.368  11.597628
2.367  11.579051
2.366  11.565763
2.365  11.581711
2.364  11.628045
2.363  11.584851
2.362  11.569258
2.361  11.605258
2.360  11.581188
2.359  11.583736
2.358  11.562507
2.357  11.576451
2.356  11.616157
2.355  11.602603
2.354  11.632457
2.353  11.606174
2.352  11.566399
2.351  11.644469
2.350  11.644663
2.349  11.599324
2.348  11.585345
2.347  11.652281
2.346  11.680168
2.345  11.666502
2.344  11.670988
2.343  11.726318
2.342  11.688799
2.341  11.692784
2.340  11.687536
2.339  11.678257
2.338  11.718060
2.337  11.728950
2.336  11.735905
2.335  11.826792
2.334  11.828498
2.333  11.847526
2.332  11.895670
2.331  11.867062
2.330  11.800427
2.329  11.843587
2.328  11.864047
2.327  11.879325
2.326  11.887392
2.325  11.923349
2.324  11.890363
2.323  11.982965
2.322  11.966643
2.321  11.986979
2.320  11.999834
2.319  12.035591
2.318  11.959906
2.317  12.003557
2.316  12.054110
2.315  12.135955
2.314  12.081921
2.313  12.145211
2.312  12.140949
2.311  12.215294
2.310  12.107409
2.309  12.179089
2.308  12.213383
2.307  12.271359
2.306  12.254507
2.305  12.271332
2.304  12.215534
2.303  12.323970
2.302  12.270808
2.301  12.317523
2.300  12.294732
2.299  12.400438
2.298  12.346443
2.297  12.398478
2.296  12.366810
2.295  12.483981
2.294  12.455655
2.293  12.429315
2.292  12.385389
2.291  12.454550
2.290  12.413233
2.289  12.446060
2.288  12.500418
2.287  12.531511
2.286  12.514895
2.285  12.572089
2.284  12.517850
2.283  12.556200
2.282  12.517346
2.281  12.541446
2.280  12.540446
2.279  12.601371
2.278  12.481801
2.277  12.592343
2.276  12.530986
2.275  12.559796
2.274  12.495186
2.273  12.571790
2.272  12.587577
2.271  12.624840
2.270  12.525236
2.269  12.596284
2.268  12.555753
2.267  12.655106
2.266  12.579098
2.265  12.586168
2.264  12.492382
2.263  12.559090
2.262  12.493954
2.261  12.592013
2.260  12.522585
2.259  12.644137
2.258  12.484833
2.257  12.584475
2.256  12.531531
2.255  12.561172
2.254  12.484692
2.253  12.598018
2.252  12.465054
2.251  12.568381
2.250  12.486951
2.249  12.666621
2.248  12.494167
2.247  12.642637
2.246  12.563595
2.245  12.557764
2.244  12.588629
2.243  12.640508
2.242  12.574444
2.241  12.692739
2.240  12.522619
2.239  12.635588
2.238  12.494898
2.237  12.563525
2.236  12.501700
2.235  12.682527
2.234  12.537131
2.233  12.529987
2.232  12.514072
2.231  12.609774
2.230  12.540874
2.229  12.543542
2.228  12.416107
2.227  12.605344
2.226  12.446322
2.225  12.492954
2.224  12.455970
2.223  12.343214
2.222  12.396860
2.221  12.302235
2.220  12.251297
2.219  12.280868
2.218  12.163323
2.217  12.251506
2.216  12.022108
2.215  12.035293
2.214  11.945401
2.213  12.034086
2.212  11.975374
2.211  11.791826
2.210  11.757452
2.209  11.787011
2.208  11.736324
2.207  11.841538
2.206  11.764115
2.205  11.999583
2.204  11.748855
2.203  11.921306
2.202  11.872168
2.201  12.024938
2.200  11.955474
2.199  12.118998
2.198  12.010792
2.197  12.183776
2.196  12.133802
2.195  12.269581
2.194  12.193210
2.193  12.321072
2.192  12.246868
2.191  12.390654
2.190  12.335893
2.189  12.489030
2.188  12.355579
2.187  12.509351
2.186  12.463942
2.185  12.541470
2.184  12.477567
2.183  12.608523
2.182  12.638789
2.181  12.694044
2.180  12.625112
2.179  12.737289
2.178  12.648560
2.177  12.749254
2.176  12.709680
2.175  12.828866
2.174  12.719862
2.173  12.850345
2.172  12.826820
2.171  12.796726
2.170  12.755555
2.169  12.872860
2.168  12.816222
2.167  12.965323
2.166  12.853720
2.165  12.933712
2.164  12.879411
2.163  13.008835
2.162  12.896815
2.161  13.023253
2.160  13.005363
2.159  13.056493
2.158  12.989761
2.157  13.068526
2.156  12.991711
2.155  13.151637
2.154  13.125627
2.153  13.173536
2.152  13.136604
2.151  13.258518
2.150  13.148094
2.149  13.272291
2.148  13.175256
2.147  13.318276
2.146  13.289772
2.145  13.385672
2.144  13.346325
2.143  13.374416
2.142  13.344100
2.141  13.522419
2.140  13.431424
2.139  13.545089
2.138  13.473367
2.137  13.494878
2.136  13.461870
2.135  13.517746
2.134  13.465832
2.133  13.596581
2.132  13.512559
2.131  13.589861
2.130  13.524921
2.129  13.526763
2.128  13.518685
2.127  13.545969
2.126  13.519871
2.125  13.548737
2.124  13.450588
2.123  13.498674
2.122  13.502968
2.121  13.494927
2.120  13.427048
2.119  13.517365
2.118  13.464511
2.117  13.495968
2.116  13.458606
2.115  13.455299
2.114  13.417968
2.113  13.487323
2.112  13.407370
2.111  13.436593
2.110  13.396357
2.109  13.446942
2.108  13.394137
2.107  13.452969
2.106  13.397932
2.105  13.437314
2.104  13.376653
2.103  13.392268
2.102  13.400037
2.101  13.414042
2.100  13.404197
2.099  13.398506
2.098  13.397626
2.097  13.472868
2.096  13.424171
2.095  13.436171
2.094  13.371419
2.093  13.381477
2.092  13.417806
2.091  13.473470
2.090  13.494892
2.089  13.515983
2.088  13.454035
2.087  13.464976
2.086  13.475741
2.085  13.505269
2.084  13.512068
2.083  13.519689
2.082  13.462376
2.081  13.458067
2.080  13.481424
2.079  13.511296
2.078  13.533039
2.077  13.519698
2.076  13.522619
2.075  13.539180
2.074  13.512957
2.073  13.521055
2.072  13.498455
2.071  13.488760
2.070  13.511516
2.069  13.571692
2.068  13.559379
2.067  13.540962
2.066  13.611478
2.065  13.607695
2.064  13.593249
2.063  13.539202
2.062  13.550278
2.061  13.576426
2.060  13.565704
2.059  13.539308
2.058  13.605347
2.057  13.616569
2.056  13.610448
2.055  13.586373
2.054  13.582407
2.053  13.613295
2.052  13.643550
2.051  13.613594
2.050  13.628748
2.049  13.597485
2.048  13.605371
2.047  13.588418
2.046  13.599312
2.045  13.588020
2.044  13.589346
2.043  13.609766
2.042  13.645043
2.041  13.568921
2.040  13.621490
2.039  13.634889
2.038  13.641087
2.037  13.665108
2.036  13.682214
2.035  13.655080
2.034  13.633863
2.033  13.613959
2.032  13.640038
2.031  13.576542
2.030  13.652361
2.029  13.600411
2.028  13.695104
2.027  13.602086
2.026  13.634013
2.025  13.570151
2.024  13.623968
2.023  13.562836
2.022  13.577379
2.021  13.585980
2.020  13.624114
2.019  13.609310
2.018  13.681618
2.017  13.624984
2.016  13.639152
2.015  13.659697
2.014  13.717108
2.013  13.617256
2.012  13.609600
2.011  13.595860
2.010  13.699634
2.009  13.622702
2.008  13.624279
2.007  13.556433
2.006  13.621891
2.005  13.583355
2.004  13.624491
2.003  13.661759
2.002  13.700038
2.001  13.675627
2.000  13.679588
1.999  13.615279
1.998  13.667992
1.997  13.576755
1.996  13.684199
1.995  13.655299
1.994  13.671610
1.993  13.632951
1.992  13.636933
1.991  13.704340
1.990  13.650643
1.989  13.568432
1.988  13.692433
1.987  13.620726
1.986  13.679068
1.985  13.625433
1.984  13.701496
1.983  13.641232
1.982  13.715737
1.981  13.602396
1.980  13.715321
1.979  13.582841
1.978  13.727942
1.977  13.674864
1.976  13.692779
1.975  13.671119
1.974  13.745370
1.973  13.649299
1.972  13.759718
1.971  13.646443
1.970  13.746566
1.969  13.661067
1.968  13.752287
1.967  13.725055
1.966  13.765498
1.965  13.673438
1.964  13.796902
1.963  13.576070
1.962  13.768522
1.961  13.670877
1.960  13.831917
1.959  13.674504
1.958  13.828984
1.957  13.757928
1.956  13.795323
1.955  13.735880
1.954  13.802442
1.953  13.704780
1.952  13.916974
1.951  13.729563
1.950  13.844069
1.949  13.755386
1.948  13.904366
1.947  13.744362
1.946  13.917493
1.945  13.719067
1.944  13.830449
1.943  13.844051
1.942  13.919709
1.941  13.798895
1.940  13.865469
1.939  13.844194
1.938  13.971069
1.937  13.880928
1.936  13.943131
1.935  13.746997
1.934  14.006146
1.933  13.809561
1.932  14.052539
1.931  13.826021
1.930  13.934386
1.929  13.815642
1.928  13.947930
1.927  13.910258
1.926  13.906488
1.925  13.873025
1.924  13.996532
1.923  13.815059
1.922  13.897071
1.921  13.829128
1.920  13.894540
1.919  13.835532
1.918  13.964244
1.917  13.886152
1.916  13.907136
1.915  13.839587
1.914  13.972721
1.913  13.927969
1.912  13.796954
1.911  13.804392
1.910  13.984412
1.909  13.913623
1.908  13.982140
1.907  13.867230
1.906  13.961640
1.905  13.904541
1.904  13.982756
1.903  13.876112
1.902  14.017432
1.901  13.992791
1.900  14.036655
1.899  13.952132
1.898  14.038070
1.897  13.955703
1.896  14.085231
1.895  14.031645
1.894  14.060953
1.893  13.947410
1.892  14.113811
1.891  13.998710
1.890  14.180682
1.889  14.043664
1.888  14.187994
1.887  14.036226
1.886  14.132900
1.885  14.069215
1.884  14.172270
1.883  14.084901
1.882  14.191310
1.881  14.128866
1.880  14.146881
1.879  14.086408
1.878  14.229650
1.877  14.160179
1.876  14.319118
1.875  14.222406
1.874  14.390671
1.873  14.207341
1.872  14.355384
1.871  14.272720
1.870  14.321769
1.869  14.211968
1.868  14.345049
1.867  14.268866
1.866  14.284746
1.865  14.297123
1.864  14.314227
1.863  14.224759
1.862  14.307697
1.861  14.212455
1.860  14.289802
1.859  14.198601
1.858  14.260013
1.857  14.204721
1.856  14.268238
1.855  14.147015
1.854  14.215090
1.853  14.195159
1.852  14.335041
1.851  14.233314
1.850  14.262081
1.849  14.245644
1.848  14.280617
1.847  14.232104
1.846  14.233208
1.845  14.224117
1.844  14.263893
1.843  14.219569
1.842  14.269805
1.841  14.248740
1.840  14.280807
1.839  14.247597
1.838  14.299433
1.837  14.248771
1.836  14.226575
1.835  14.218735
1.834  14.327152
1.833  14.257607
1.832  14.295846
1.831  14.200809
1.830  14.219668
1.829  14.223207
1.828  14.276037
1.827  14.198694
1.826  14.245999
1.825  14.250793
1.824  14.271829
1.823  14.192753
1.822  14.304973
1.821  14.229487
1.820  14.195229
1.819  14.225548
1.818  14.221307
1.817  14.213745
1.816  14.207442
1.815  14.200736
1.814  14.236934
1.813  14.149912
1.812  14.225103
1.811  14.231997
1.810  14.231698
1.809  14.184043
1.808  14.239525
1.807  14.237121
1.806  14.222690
1.805  14.168689
1.804  14.223462
1.803  14.226730
1.802  14.252673
1.801  14.245863
1.800  14.267449
1.799  14.208507
1.798  14.199597
1.797  14.219274
1.796  14.242194
1.795  14.247132
1.794  14.238204
1.793  14.225013
1.792  14.260858
1.791  14.287511
1.790  14.198040
1.789  14.193208
1.788  14.260569
1.787  14.262377
1.786  14.292891
1.785  14.230749
1.784  14.249521
1.783  14.296749
1.782  14.274268
1.781  14.241101
1.780  14.224072
1.779  14.239869
1.778  14.242695
1.777  14.275819
1.776  14.246319
1.775  14.276187
1.774  14.298780
1.773  14.299857
1.772  14.314845
1.771  14.332055
1.770  14.320471
1.769  14.330720
1.768  14.305552
1.767  14.332962
1.766  14.293589
1.765  14.310468
1.764  14.302574
1.763  14.323728
1.762  14.266636
1.761  14.325608
1.760  14.314969
1.759  14.335104
1.758  14.284064
1.757  14.378408
1.756  14.343306
1.755  14.339838
1.754  14.375652
1.753  14.396463
1.752  14.347093
1.751  14.362547
1.750  14.309603
1.749  14.365665
1.748  14.331509
1.747  14.366570
1.746  14.299143
1.745  14.385037
1.744  14.415746
1.743  14.440875
1.742  14.359341
1.741  14.383831
1.740  14.341251
1.739  14.407020
1.738  14.339223
1.737  14.390158
1.736  14.342834
1.735  14.416530
1.734  14.361251
1.733  14.403862
1.732  14.350282
1.731  14.409378
1.730  14.365586
1.729  14.376001
1.728  14.366410
1.727  14.404456
1.726  14.374535
1.725  14.381271
1.724  14.404560
1.723  14.449537
1.722  14.390133
1.721  14.448035
1.720  14.348163
1.719  14.433545
1.718  14.397977
1.717  14.434764
1.716  14.342267
1.715  14.486193
1.714  14.433934
1.713  14.466587
1.712  14.366639
1.711  14.471970
1.710  14.409177
1.709  14.438418
1.708  14.361131
1.707  14.405098
1.706  14.427328
1.705  14.426788
1.704  14.403238
1.703  14.411228
1.702  14.437734
1.701  14.405939
1.700  14.353980
1.699  14.487507
1.698  14.387557
1.697  14.399073
1.696  14.319591
1.695  14.388664
1.694  14.372228
1.693  14.429885
1.692  14.368462
1.691  14.464323
1.690  14.382888
1.689  14.443886
1.688  14.336401
1.687  14.427485
1.686  14.357455
1.685  14.435191
1.684  14.388077
1.683  14.475995
1.682  14.361166
1.681  14.371489
1.680  14.348832
1.679  14.460447
1.678  14.363296
1.677  14.403615
1.676  14.439386
1.675  14.382549
1.674  14.413999
1.673  14.481627
1.672  14.372545
1.671  14.508200
1.670  14.362894
1.669  14.483123
1.668  14.185387
1.667  14.435934
1.666  14.351063
1.665  14.375248
1.664  14.376430
1.663  14.426322
1.662  14.338416
1.661  14.441488
1.660  14.314188
1.659  14.445886
1.658  14.320013
1.657  14.438455
1.656  14.343812
1.655  14.372852
1.654  14.306045
1.653  14.468057
1.652  14.369779
1.651  14.458508
1.650  14.364894
1.649  14.482523
1.648  14.366902
1.647  14.296655
1.646  14.372471
1.645  14.480327
1.644  14.306889
1.643  14.483071
1.642  14.393886
1.641  14.293885
1.640  14.399275
1.639  14.430998
1.638  14.318118
1.637  14.458133
1.636  14.351012
1.635  14.435856
1.634  14.335619
1.633  14.410963
1.632  14.362331
1.631  14.475446
1.630  14.361528
1.629  14.490975
1.628  14.336061
1.627  14.434674
1.626  14.292874
1.625  14.431410
1.624  14.337018
1.623  14.486246
1.622  14.371468
1.621  14.431735
1.620  14.353547
1.619  14.460086
1.618  14.372221
1.617  14.392866
1.616  14.401915
1.615  14.495542
1.614  14.383459
1.613  14.436172
1.612  14.353479
1.611  14.420850
1.610  14.391151
1.609  14.413535
1.608  14.400338
1.607  14.428369
1.606  14.369797
1.605  14.519605
1.604  14.365062
1.603  14.428038
1.602  14.315372
1.601  14.492778
1.600  14.353049
1.599  14.429646
1.598  14.369415
1.597  14.503477
1.596  14.397458
1.595  14.432777
1.594  14.354621
1.593  14.510221
1.592  14.326704
1.591  14.460446
1.590  14.392495
1.589  14.388815
1.588  14.364773
1.587  14.429000
1.586  14.405994
1.585  14.411435
1.584  14.405765
1.583  14.487569
1.582  14.343397
1.581  14.427224
1.580  14.355764
1.579  14.461385
1.578  14.450656
1.577  14.478297
1.576  14.344057
1.575  14.399203
1.574  14.460084
1.573  14.493142
1.572  14.395646
1.571  14.418860
1.570  14.400261
1.569  14.494031
1.568  14.376672
1.567  14.427682
1.566  14.392223
1.565  14.397415
1.564  14.323876
1.563  14.426890
1.562  14.447511
1.561  14.446397
1.560  14.335070
1.559  14.392286
1.558  14.321620
1.557  14.445313
1.556  14.331479
1.555  14.428182
1.554  14.426331
1.553  14.447932
1.552  14.404825
1.551  14.435555
1.550  14.388791
1.549  14.429918
1.548  14.373944
1.547  14.437532
1.546  14.328450
1.545  14.392164
1.544  14.362014
1.543  14.438252
1.542  14.467630
1.541  14.412321
1.540  14.361081
1.539  14.398039
1.538  14.388363
1.537  14.427000
1.536  14.357040
1.535  14.397547
1.534  14.367350
1.533  14.380679
1.532  14.435985
1.531  14.441785
1.530  14.380481
1.529  14.411836
1.528  14.398311
1.527  14.402087
1.526  14.419936
1.525  14.437071
1.524  14.332228
1.523  14.333244
1.522  14.358277
1.521  14.398841
1.520  14.400203
1.519  14.361756
1.518  14.373725
1.517  14.385177
1.516  14.351397
1.515  14.399790
1.514  14.403270
1.513  14.387986
1.512  14.365838
1.511  14.410302
1.510  14.406077
1.509  14.356899
1.508  14.337180
1.507  14.383433
1.506  14.370508
1.505  14.336171
1.504  14.332862
1.503  14.338568
1.502  14.385090
1.501  14.377797
1.500  14.352380
1.499  14.371209
1.498  14.405494
1.497  14.409938
1.496  14.375002
1.495  14.389749
1.494  14.406132
1.493  14.340682
1.492  14.357161
1.491  14.384437
1.490  14.370707
1.489  14.356769
1.488  14.360356
1.487  14.343704
1.486  14.387868
1.485  14.386844
1.484  14.388880
1.483  14.342911
1.482  14.366849
1.481  14.349566
1.480  14.385205
1.479  14.384109
1.478  14.406328
1.477  14.311307
1.476  14.366806
1.475  14.381622
1.474  14.335029
1.473  14.282586
1.472  14.317384
1.471  14.280227
1.470  14.335170
1.469  14.353251
1.468  14.365611
1.467  14.339957
1.466  14.338423
1.465  14.323311
1.464  14.416423
1.463  14.360348
1.462  14.334772
1.461  14.334971
1.460  14.371764
1.459  14.328061
1.458  14.355102
1.457  14.325497
1.456  14.366344
1.455  14.244239
1.454  14.337178
1.453  14.295776
1.452  14.295396
1.451  14.247077
1.450  14.331773
1.449  14.332750
1.448  14.352200
1.447  14.307672
1.446  14.355854
1.445  14.336185
1.444  14.372135
1.443  14.260669
1.442  14.322735
1.441  14.276290
1.440  14.312727
1.439  14.295127
1.438  14.350787
1.437  14.292944
1.436  14.307337
1.435  14.252927
1.434  14.250589
1.433  14.184240
1.432  14.236601
