Name: Arsenopyrite FeAsS
Type: Mineral
Class: Sulfides
Subclass: 
Particle Size: 125-500um
Sample No.: S-5A
Owner: JPL
Wavelength range: IR
Origin: USA, Nevada, Lander County, Austin
Collected by Burminco
Description: 





Measurement: Hemispherical reflectance
First Column: X
Second Column: Y
X Units:  Wavelength (micrometers)
Y Units:  Reflectance (percent)
First X Value: 15.3853
Last X Value: 2.00032
Number of X Values: 2256
Additional information: s05aa.txt
 
15.3853	11.291
15.3397	11.3707
15.2945	11.2443
15.2495	11.3123
15.2048	11.49
15.1603	11.7414
15.1161	11.5578
15.0722	11.274
15.0285	11.3237
14.9851	11.2949
14.9419	11.2696
14.8989	11.1893
14.8563	11.1754
14.8138	11.4486
14.7716	11.6138
14.7296	11.4007
14.6879	11.2998
14.6464	11.3753
14.6052	11.4313
14.5641	11.408
14.5233	11.5933
14.4828	11.7311
14.4424	11.5573
14.4023	11.426
14.3624	11.3907
14.3227	11.2695
14.2833	11.154
14.244	11.0517
14.205	11.0276
14.1662	11.2069
14.1276	11.4422
14.0892	11.5339
14.051	11.4346
14.0131	11.2985
13.9753	11.2082
13.9377	11.2595
13.9004	11.4012
13.8632	11.4955
13.8262	11.6347
13.7895	11.6301
13.7529	11.4449
13.7165	11.3358
13.6803	11.4906
13.6443	11.7028
13.6085	11.8117
13.5729	11.7655
13.5374	11.7342
13.5022	11.7304
13.4671	11.7759
13.4322	11.8016
13.3975	11.8208
13.363	11.9478
13.3286	12.0301
13.2944	12.0942
13.2604	12.055
13.2266	12.0768
13.193	12.1711
13.1595	12.1817
13.1262	12.2189
13.093	12.3706
13.06	12.4704
13.0272	12.775
12.9946	13.0283
12.9621	13.2213
12.9298	13.5348
12.8976	13.869
12.8656	14.0992
12.8337	14.3542
12.8021	14.5881
12.7705	14.4223
12.7391	14.1109
12.7079	13.675
12.6769	13.2746
12.6459	13.0747
12.6152	13.1799
12.5845	13.4425
12.5541	13.7896
12.5238	14.0426
12.4936	13.9349
12.4635	13.6871
12.4337	13.1936
12.4039	12.4618
12.3743	11.6421
12.3448	10.9436
12.3155	10.6449
12.2863	10.6269
12.2573	10.6677
12.2284	10.6583
12.1996	10.7502
12.171	11.0573
12.1425	11.0354
12.1141	10.9597
12.0859	10.9962
12.0578	11.0689
12.0298	11.2986
12.0019	11.4381
11.9742	11.303
11.9466	11.2343
11.9192	11.2223
11.8918	11.2539
11.8646	11.3006
11.8375	11.4085
11.8106	11.5388
11.7837	11.5348
11.757	11.4249
11.7304	11.4834
11.7039	11.5167
11.6776	11.4312
11.6513	11.4531
11.6252	11.5385
11.5992	11.5098
11.5733	11.5679
11.5475	11.5934
11.5219	11.4922
11.4963	11.4184
11.4709	11.5074
11.4455	11.6857
11.4203	11.6694
11.3952	11.61
11.3702	11.5342
11.3454	11.5381
11.3206	11.6045
11.2959	11.676
11.2714	11.7674
11.2469	11.812
11.2226	11.6767
11.1983	11.6015
11.1742	11.568
11.1502	11.5459
11.1263	11.5764
11.1024	11.6558
11.0787	11.7189
11.0551	11.6441
11.0316	11.6558
11.0081	11.7629
10.9848	11.8395
10.9616	11.7193
10.9385	11.6667
10.9154	11.7556
10.8925	11.8267
10.8697	11.8656
10.8469	11.9769
10.8243	11.9532
10.8017	11.7698
10.7793	11.8405
10.7569	12.0323
10.7346	12.0934
10.7125	12.0813
10.6904	12.0932
10.6684	12.1458
10.6465	12.2272
10.6247	12.1858
10.6029	12.1118
10.5813	12.0353
10.5597	12.0257
10.5383	12.0415
10.5169	12.1301
10.4956	12.1974
10.4744	12.2117
10.4533	12.1914
10.4323	12.0644
10.4113	12.1147
10.3904	12.2378
10.3697	12.3471
10.349	12.397
10.3284	12.458
10.3078	12.5197
10.2874	12.4628
10.267	12.4408
10.2467	12.5436
10.2265	12.5958
10.2064	12.6192
10.1863	12.6472
10.1663	12.5763
10.1464	12.561
10.1266	12.6757
10.1069	12.7143
10.0872	12.8374
10.0676	12.9591
10.0481	13.0092
10.0287	13.0075
10.0093	13.1009
9.99005	13.2268
9.97084	13.3792
9.95169	13.4687
9.93263	13.4738
9.91364	13.5385
9.89472	13.5427
9.87587	13.4968
9.8571	13.6297
9.83839	13.7826
9.81976	13.9308
9.80119	14.0723
9.78271	14.1811
9.76428	14.279
9.74592	14.4059
9.72764	14.4996
9.70943	14.5983
9.69128	14.7103
9.6732	14.8647
9.65518	15.1921
9.63724	15.4572
9.61935	15.5267
9.60155	15.6913
9.5838	15.986
9.56611	16.2048
9.5485	16.4844
9.53094	16.7847
9.51345	17.0806
9.49604	17.4505
9.47867	17.9965
9.46137	18.7716
9.44414	19.5077
9.42697	20.0001
9.40986	20.7401
9.39281	21.7123
9.37583	22.6794
9.35891	23.5908
9.34204	24.474
9.32524	25.2097
9.3085	25.6994
9.29182	25.9434
9.27519	26.0002
9.25863	26.2974
9.24213	26.6386
9.22568	26.721
9.2093	26.7825
9.19297	26.8484
9.17669	26.7374
9.16048	26.71
9.14433	26.8994
9.12823	26.994
9.11218	26.9751
9.0962	26.8809
9.08027	26.9055
9.06439	26.9202
9.04858	26.9048
9.03281	26.9482
9.0171	26.9671
9.00145	26.9858
8.98585	26.7532
8.9703	26.4865
8.9548	26.4746
8.93937	26.4167
8.92398	26.2433
8.90865	26.1695
8.89337	26.116
8.87814	25.8981
8.86296	25.7225
8.84784	25.5778
8.83277	25.3588
8.81774	25.2272
8.80277	24.9589
8.78786	24.7747
8.77298	24.6959
8.75816	24.5834
8.7434	24.3513
8.72868	23.8889
8.714	23.5084
8.69938	23.1898
8.68481	22.8311
8.67029	22.2592
8.65581	21.4163
8.64139	20.5453
8.62701	20.1236
8.61268	20.6138
8.5984	21.559
8.58416	22.4738
8.56997	23.1861
8.55583	23.5843
8.54174	23.7739
8.52769	23.9125
8.51368	24.0713
8.49973	24.0533
8.48582	24.0579
8.47195	24.0511
8.45813	24.09
8.44436	24.1918
8.43062	24.2618
8.41693	24.2984
8.4033	24.2607
8.3897	24.132
8.37614	24.0778
8.36264	24.0292
8.34917	24.0431
8.33574	24.0183
8.32236	23.971
8.30903	24.1395
8.29573	24.2772
8.28248	24.2709
8.26927	24.2529
8.2561	24.2014
8.24298	24.2391
8.2299	24.3118
8.21685	24.1836
8.20385	23.9904
8.19089	23.7922
8.17797	23.493
8.16509	23.1246
8.15225	22.6781
8.13946	22.0228
8.1267	21.3432
8.11398	20.6692
8.10131	19.9588
8.08867	19.4245
8.07606	18.9491
8.0635	18.315
8.05099	17.7939
8.0385	17.3118
8.02606	16.8112
8.01366	16.3485
8.00129	16.0534
7.98896	15.6457
7.97667	15.1825
7.96442	14.8157
7.9522	14.4537
7.94002	14.2179
7.92788	13.9407
7.91578	13.6536
7.90371	13.4497
7.89168	13.2253
7.87969	12.9551
7.86773	12.7049
7.85581	12.5038
7.84392	12.3283
7.83207	12.2283
7.82026	12.1254
7.80849	11.9883
7.79674	11.93
7.78503	11.929
7.77337	11.8238
7.76173	11.6296
7.75012	11.5405
7.73856	11.5017
7.72703	11.4548
7.71553	11.424
7.70406	11.4059
7.69263	11.3903
7.68123	11.2839
7.66987	11.1606
7.65855	11.1451
7.64725	11.1364
7.63598	11.0422
7.62475	10.9268
7.61356	10.904
7.60239	10.9036
7.59126	10.8861
7.58017	10.8319
7.5691	10.6983
7.55806	10.5503
7.54707	10.5497
7.5361	10.6478
7.52516	10.6418
7.51425	10.6353
7.50338	10.5786
7.49253	10.4807
7.48172	10.4955
7.47094	10.5645
7.46019	10.5307
7.44947	10.4952
7.43879	10.4628
7.42813	10.399
7.4175	10.4071
7.4069	10.4234
7.39634	10.4256
7.3858	10.3454
7.37529	10.3389
7.36482	10.3641
7.35437	10.3074
7.34396	10.3118
7.33357	10.3648
7.32321	10.3081
7.31288	10.3005
7.30258	10.4018
7.29231	10.427
7.28207	10.358
7.27185	10.3201
7.26167	10.3708
7.25152	10.4266
7.24139	10.3802
7.23129	10.3065
7.22122	10.3716
7.21117	10.4612
7.20116	10.5146
7.19117	10.4712
7.18121	10.3921
7.17128	10.4591
7.16137	10.4176
7.1515	10.3992
7.14164	10.403
7.13182	10.42
7.12203	10.4701
7.11225	10.5279
7.10251	10.5335
7.0928	10.444
7.08311	10.3977
7.07344	10.3932
7.06381	10.3836
7.0542	10.4153
7.04461	10.5254
7.03506	10.4538
7.02552	10.3946
7.01601	10.4411
7.00653	10.4702
6.99708	10.4746
6.98765	10.4559
6.97824	10.3832
6.96886	10.4124
6.95951	10.4282
6.95018	10.3256
6.94087	10.3502
6.9316	10.3898
6.92234	10.377
6.91311	10.3517
6.90391	10.3183
6.89473	10.3469
6.88557	10.3399
6.87644	10.357
6.86733	10.5396
6.85824	10.4981
6.84918	10.3884
6.84015	10.3083
6.83114	10.2262
6.82215	10.1595
6.81319	10.146
6.80424	10.1192
6.79532	10.1245
6.78643	10.1298
6.77756	10.0713
6.76871	10.013
6.75989	9.96623
6.75109	9.93335
6.74231	9.86286
6.73355	9.87597
6.72482	9.96928
6.71611	10.0408
6.70742	10.0243
6.69875	9.8865
6.69011	9.92759
6.68149	10.0255
6.67289	9.93608
6.66431	9.90108
6.65576	9.90706
6.64722	10.0339
6.63871	10.1588
6.63022	10.064
6.62175	9.99761
6.61331	9.9969
6.60488	10.0418
6.59648	10.1422
6.5881	10.1038
6.57974	9.98718
6.5714	9.95099
6.56308	9.85775
6.55478	9.85503
6.54651	9.8358
6.53825	9.8612
6.53001	9.93261
6.5218	9.97472
6.51361	10.0088
6.50544	10.1129
6.49729	10.3017
6.48915	10.2991
6.48104	10.2853
6.47295	10.3118
6.46488	10.2231
6.45683	10.2501
6.4488	10.246
6.44079	10.2605
6.4328	10.3028
6.42482	10.3935
6.41687	10.5744
6.40894	10.4783
6.40103	10.2971
6.39314	10.2862
6.38526	10.2403
6.37741	10.147
6.36957	10.078
6.36176	10.045
6.35396	10.1126
6.34618	10.1878
6.33843	10.0306
6.33069	9.93357
6.32297	9.94618
6.31527	9.90759
6.30758	9.81215
6.29992	9.69004
6.29227	9.73642
6.28465	9.74222
6.27704	9.65556
6.26945	9.55965
6.26188	9.53377
6.25432	9.58332
6.24679	9.65135
6.23927	9.65924
6.23177	9.68504
6.22429	9.62319
6.21683	9.56317
6.20938	9.57349
6.20195	9.60482
6.19454	9.66617
6.18715	9.69816
6.17978	9.62501
6.17242	9.65322
6.16508	9.71223
6.15776	9.76486
6.15045	9.75324
6.14317	9.74816
6.1359	9.77746
6.12864	9.80652
6.12141	9.97286
6.11419	10.1367
6.10699	10.0386
6.0998	9.89356
6.09263	9.89409
6.08549	10.0016
6.07835	10.1388
6.07123	10.1744
6.06413	10.1388
6.05705	10.2064
6.04998	10.422
6.04293	10.2914
6.0359	10.0935
6.02888	10.0728
6.02187	10.067
6.01489	10.056
6.00792	10.004
6.00096	10.0132
5.99403	10.1308
5.98711	10.1569
5.9802	10.038
5.97331	9.92009
5.96644	9.85596
5.95958	9.88375
5.95274	9.88943
5.94591	9.92412
5.9391	10.1168
5.9323	10.0489
5.92552	9.85264
5.91876	9.90837
5.91201	9.92681
5.90528	9.88908
5.89856	10.1296
5.89186	10.1876
5.88517	10.2323
5.8785	10.2325
5.87184	10.1246
5.8652	10.2194
5.85857	10.2402
5.85196	10.1688
5.84536	10.0841
5.83878	10.1545
5.83221	10.1956
5.82566	10.258
5.81912	10.364
5.81259	10.3681
5.80608	10.3695
5.79959	10.3099
5.79311	10.2548
5.78665	10.2894
5.78019	10.3765
5.77376	10.4406
5.76734	10.5922
5.76093	10.5705
5.75453	10.4058
5.74815	10.3798
5.74179	10.439
5.73543	10.4851
5.7291	10.4982
5.72277	10.5101
5.71646	10.5113
5.71017	10.5134
5.70389	10.4151
5.69762	10.4034
5.69136	10.3682
5.68513	10.3217
5.6789	10.3052
5.67268	10.2038
5.66648	10.1256
5.6603	10.1134
5.65413	10.1007
5.64797	10.1291
5.64182	10.1714
5.63569	10.0955
5.62957	9.995
5.62347	9.90083
5.61737	9.86747
5.61129	9.7449
5.60522	9.72104
5.59917	9.75583
5.59313	9.6775
5.5871	9.69984
5.58109	9.77065
5.57509	9.70487
5.5691	9.66432
5.56312	9.75289
5.55716	9.81336
5.55121	9.74989
5.54528	9.67199
5.53935	9.65605
5.53344	9.70799
5.52754	9.80842
5.52166	9.88706
5.51578	9.9019
5.50992	9.85768
5.50407	9.90532
5.49823	9.90894
5.49241	9.93693
5.4866	9.95543
5.4808	9.95324
5.47501	9.93837
5.46923	9.96535
5.46347	10.0463
5.45772	9.96692
5.45198	9.91122
5.44625	9.91634
5.44054	9.96583
5.43484	9.97393
5.42914	9.93714
5.42347	9.94909
5.4178	9.93171
5.41214	9.81452
5.4065	9.6607
5.40087	9.5883
5.39525	9.57928
5.38964	9.54996
5.38404	9.49848
5.37846	9.45721
5.37288	9.37799
5.36732	9.38081
5.36177	9.37414
5.35623	9.43969
5.35071	9.49408
5.34519	9.45165
5.33968	9.39953
5.33419	9.38555
5.32871	9.36798
5.32324	9.29525
5.31778	9.29399
5.31233	9.28501
5.30689	9.33311
5.30147	9.4445
5.29605	9.46428
5.29065	9.43223
5.28525	9.41318
5.27987	9.41697
5.2745	9.47538
5.26914	9.43667
5.26379	9.38694
5.25845	9.5127
5.25312	9.60749
5.24781	9.65763
5.2425	9.69467
5.23721	9.66903
5.23192	9.71127
5.22665	9.77677
5.22138	9.84021
5.21613	9.86248
5.21089	9.80853
5.20566	9.8318
5.20044	9.903
5.19522	9.90888
5.19002	9.88362
5.18483	9.91595
5.17965	9.89816
5.17448	9.82808
5.16933	9.77912
5.16418	9.82265
5.15904	9.86029
5.15391	9.84206
5.14879	9.86115
5.14368	9.83097
5.13859	9.77487
5.1335	9.7578
5.12842	9.77093
5.12335	9.75149
5.1183	9.72577
5.11325	9.75934
5.10821	9.74119
5.10318	9.67081
5.09817	9.70861
5.09316	9.7658
5.08816	9.7554
5.08317	9.74907
5.07819	9.72965
5.07322	9.70509
5.06826	9.62955
5.06331	9.61024
5.05837	9.61393
5.05344	9.66752
5.04852	9.68449
5.04361	9.62052
5.03871	9.58819
5.03382	9.60644
5.02894	9.61249
5.02406	9.64207
5.0192	9.65759
5.01435	9.64471
5.0095	9.65121
5.00467	9.58449
4.99984	9.56608
4.99502	9.61272
4.99021	9.66473
4.98542	9.70198
4.98063	9.72788
4.97585	9.71405
4.97108	9.70623
4.96632	9.7775
4.96156	9.76746
4.95682	9.76219
4.95209	9.86453
4.94736	9.93956
4.94264	9.98706
4.93794	9.93532
4.93324	9.95669
4.92855	10.0325
4.92387	10.0061
4.9192	9.99214
4.91453	10.0726
4.90988	10.2315
4.90524	10.3362
4.9006	10.3636
4.89597	10.3596
4.89135	10.4239
4.88674	10.5535
4.88214	10.7286
4.87755	10.86
4.87296	10.9218
4.86839	10.9506
4.86382	10.9677
4.85926	11.0542
4.85471	11.1628
4.85017	11.2384
4.84564	11.2424
4.84111	11.2367
4.8366	11.2985
4.83209	11.2693
4.82759	11.2418
4.8231	11.3303
4.81862	11.4034
4.81415	11.3484
4.80968	11.3604
4.80522	11.4154
4.80077	11.4304
4.79633	11.451
4.7919	11.4863
4.78747	11.5216
4.78306	11.4975
4.77865	11.4641
4.77425	11.5245
4.76986	11.5279
4.76547	11.4933
4.7611	11.5063
4.75673	11.5676
4.75237	11.5509
4.74802	11.5815
4.74367	11.6551
4.73934	11.7161
4.73501	11.6862
4.73069	11.6345
4.72638	11.5181
4.72207	11.4779
4.71777	11.5339
4.71348	11.5455
4.7092	11.5015
4.70493	11.4755
4.70066	11.4426
4.69641	11.4148
4.69216	11.3892
4.68791	11.3521
4.68368	11.3819
4.67945	11.4171
4.67523	11.3451
4.67102	11.3375
4.66682	11.3765
4.66262	11.3592
4.65843	11.3578
4.65425	11.4827
4.65007	11.6366
4.64591	11.6432
4.64175	11.6105
4.6376	11.6185
4.63345	11.5872
4.62932	11.5829
4.62519	11.6398
4.62106	11.6743
4.61695	11.6768
4.61284	11.6892
4.60874	11.702
4.60465	11.6675
4.60056	11.649
4.59648	11.6716
4.59241	11.6671
4.58835	11.6508
4.58429	11.6369
4.58024	11.6796
4.5762	11.754
4.57216	11.7154
4.56814	11.6589
4.56411	11.6401
4.5601	11.6331
4.55609	11.6252
4.55209	11.6244
4.5481	11.604
4.54411	11.5458
4.54013	11.5577
4.53616	11.5797
4.5322	11.5089
4.52824	11.4437
4.52429	11.4077
4.52034	11.3717
4.51641	11.3582
4.51247	11.3491
4.50855	11.2603
4.50463	11.133
4.50072	11.0802
4.49682	11.1578
4.49292	11.17
4.48903	11.1291
4.48515	11.1283
4.48127	11.0738
4.4774	11.0544
4.47354	11.1888
4.46968	11.2595
4.46584	11.1541
4.46199	11.1111
4.45815	11.1389
4.45432	11.1214
4.4505	11.1204
4.44668	11.155
4.44287	11.183
4.43907	11.204
4.43527	11.1745
4.43148	11.1959
4.4277	11.2512
4.42392	11.2569
4.42015	11.1645
4.41638	11.1664
4.41262	11.2289
4.40887	11.2719
4.40513	11.3085
4.40139	11.2753
4.39765	11.2214
4.39393	11.2298
4.39021	11.2748
4.38649	11.3388
4.38278	11.3778
4.37908	11.3957
4.37539	11.4552
4.3717	11.486
4.36801	11.4538
4.36434	11.4439
4.36067	11.494
4.357	11.5717
4.35335	11.6067
4.34969	11.5308
4.34605	11.5375
4.34241	11.6367
4.33877	11.6478
4.33514	11.5856
4.33152	11.5385
4.32791	11.5545
4.3243	11.6163
4.32069	11.6118
4.3171	11.5434
4.31351	11.5135
4.30992	11.5241
4.30634	11.5008
4.30277	11.4762
4.2992	11.4872
4.29564	11.5229
4.29208	11.5104
4.28853	11.4906
4.28499	11.5157
4.28145	11.5128
4.27792	11.5088
4.27439	11.5388
4.27087	11.5314
4.26735	11.4589
4.26384	11.4174
4.26034	11.5137
4.25684	11.5282
4.25335	11.4535
4.24986	11.4609
4.24638	11.4696
4.24291	11.4875
4.23944	11.5184
4.23598	11.5497
4.23252	11.4652
4.22906	11.4475
4.22562	11.5296
4.22218	11.518
4.21874	11.5192
4.21531	11.5618
4.21189	11.5039
4.20847	11.4532
4.20506	11.4873
4.20165	11.5328
4.19825	11.5161
4.19485	11.5052
4.19146	11.5349
4.18807	11.5522
4.18469	11.5752
4.18132	11.6573
4.17795	11.6623
4.17458	11.6689
4.17123	11.6559
4.16787	11.5645
4.16453	11.54
4.16118	11.6142
4.15785	11.6562
4.15451	11.5978
4.15119	11.539
4.14787	11.5926
4.14455	11.6432
4.14124	11.6761
4.13794	11.7198
4.13464	11.7098
4.13134	11.734
4.12805	11.7099
4.12477	11.6933
4.12149	11.6602
4.11822	11.6648
4.11495	11.6288
4.11168	11.5848
4.10843	11.5091
4.10517	11.6163
4.10192	11.7482
4.09868	11.7066
4.09545	11.6554
4.09221	11.6919
4.08899	11.7186
4.08576	11.7265
4.08255	11.7829
4.07933	11.7446
4.07613	11.6818
4.07292	11.7399
4.06973	11.7665
4.06654	11.727
4.06335	11.7043
4.06017	11.7517
4.05699	11.7015
4.05382	11.6242
4.05065	11.6615
4.04749	11.6463
4.04433	11.758
4.04118	11.7171
4.03803	11.6785
4.03489	11.7502
4.03175	11.7556
4.02862	11.7369
4.02549	11.7354
4.02237	11.7379
4.01925	11.7489
4.01614	11.7419
4.01303	11.6901
4.00993	11.6424
4.00683	11.6225
4.00373	11.5834
4.00064	11.6213
3.99756	11.7046
3.99448	11.7423
3.9914	11.7163
3.98833	11.6962
3.98527	11.7034
3.98221	11.6928
3.97915	11.6744
3.9761	11.6899
3.97305	11.783
3.97001	11.8369
3.96697	11.7595
3.96394	11.6906
3.96091	11.7455
3.95789	11.7602
3.95487	11.6967
3.95186	11.7453
3.94885	11.8562
3.94584	11.7973
3.94284	11.7361
3.93984	11.7532
3.93685	11.709
3.93386	11.6952
3.93088	11.6709
3.9279	11.7275
3.92493	11.7038
3.92196	11.606
3.919	11.6573
3.91604	11.7491
3.91308	11.7142
3.91013	11.6705
3.90718	11.7377
3.90424	11.802
3.9013	11.7992
3.89837	11.7838
3.89544	11.7478
3.89252	11.6659
3.8896	11.6113
3.88668	11.6387
3.88377	11.7111
3.88086	11.763
3.87796	11.7162
3.87506	11.687
3.87217	11.7387
3.86928	11.7128
3.86639	11.7082
3.86351	11.6227
3.86064	11.5495
3.85776	11.5965
3.8549	11.5754
3.85203	11.6516
3.84917	11.7523
3.84631	11.7217
3.84346	11.608
3.84062	11.5194
3.83777	11.5452
3.83494	11.5729
3.8321	11.5862
3.82927	11.6525
3.82644	11.7607
3.82362	11.7475
3.82081	11.6675
3.81799	11.6205
3.81518	11.5961
3.81238	11.6122
3.80958	11.5572
3.80678	11.4742
3.80399	11.446
3.8012	11.5767
3.79841	11.6575
3.79563	11.6023
3.79286	11.5175
3.79008	11.5075
3.78731	11.5601
3.78455	11.5517
3.78179	11.5254
3.77903	11.5459
3.77628	11.4725
3.77353	11.4322
3.77079	11.4771
3.76805	11.4743
3.76531	11.4562
3.76258	11.4212
3.75985	11.3646
3.75713	11.3459
3.7544	11.4315
3.75169	11.5223
3.74898	11.544
3.74627	11.4941
3.74356	11.4473
3.74086	11.5085
3.73816	11.5516
3.73547	11.4967
3.73278	11.4952
3.7301	11.3965
3.72741	11.3797
3.72474	11.4033
3.72206	11.425
3.71939	11.4764
3.71673	11.4469
3.71406	11.4032
3.71141	11.4178
3.70875	11.3434
3.7061	11.3009
3.70345	11.3672
3.70081	11.4626
3.69817	11.4911
3.69553	11.4638
3.6929	11.3985
3.69027	11.3936
3.68765	11.4568
3.68503	11.4068
3.68241	11.3712
3.6798	11.3666
3.67719	11.363
3.67458	11.3554
3.67198	11.3872
3.66938	11.3568
3.66678	11.3177
3.66419	11.376
3.66161	11.4839
3.65902	11.4303
3.65644	11.3312
3.65387	11.3109
3.65129	11.2735
3.64872	11.1945
3.64616	11.2631
3.64359	11.3309
3.64103	11.323
3.63848	11.2763
3.63593	11.2577
3.63338	11.2847
3.63084	11.3412
3.6283	11.3714
3.62576	11.4051
3.62322	11.418
3.62069	11.3526
3.61817	11.2693
3.61564	11.2405
3.61312	11.2377
3.61061	11.2101
3.6081	11.2266
3.60559	11.2365
3.60308	11.1982
3.60058	11.1844
3.59808	11.2589
3.59558	11.2332
3.59309	11.1464
3.59061	11.1441
3.58812	11.1796
3.58564	11.172
3.58316	11.1046
3.58069	10.9876
3.57822	10.9903
3.57575	11.0729
3.57328	11.0819
3.57082	11.0819
3.56836	11.1342
3.56591	11.1081
3.56346	11.0595
3.56101	11.0838
3.55857	11.072
3.55613	11.004
3.55369	11.056
3.55126	11.1893
3.54883	11.194
3.5464	11.105
3.54397	10.9894
3.54155	10.927
3.53914	10.9242
3.53672	10.927
3.53431	10.9722
3.5319	10.9749
3.5295	10.9904
3.5271	11.023
3.5247	11.0193
3.52231	10.9389
3.51991	10.8767
3.51753	10.933
3.51514	11.0394
3.51276	11.0145
3.51038	10.9113
3.50801	10.8549
3.50563	10.8866
3.50327	10.9239
3.5009	10.9282
3.49854	10.8924
3.49618	10.8469
3.49382	10.7887
3.49147	10.7599
3.48912	10.7775
3.48677	10.8542
3.48443	10.9238
3.48209	10.9084
3.47975	10.8238
3.47742	10.7569
3.47509	10.8178
3.47276	10.8359
3.47044	10.8116
3.46812	10.8149
3.4658	10.7572
3.46348	10.7544
