Name: Atacamite Cu_2Cl(OH)_3
Type: Mineral
Class: Halides
Subclass: 
Particle Size: 45-125um
Sample No.: H-4A
Owner: JPL
Wavelength range: IR
Origin: Chile, Atacama, Copiapo
Collected by Grieger's Inc.
Description: 





Measurement: Hemispherical reflectance
First Column: X
Second Column: Y
X Units:  Wavelength (micrometers)
Y Units:  Reflectance (percent)
First X Value: 15.3853
Last X Value: 2.00032
Number of X Values: 2256
Additional information: h04aa.txt
 
15.3853	1.24833
15.3397	1.11283
15.2945	0.992223
15.2495	0.911118
15.2048	0.92952
15.1603	1.00622
15.1161	1.18398
15.0722	1.66775
15.0285	1.87697
14.9851	1.69111
14.9419	1.36089
14.8989	1.14868
14.8563	1.27508
14.8138	1.37578
14.7716	1.49535
14.7296	1.33724
14.6879	1.19528
14.6464	1.16414
14.6052	1.22101
14.5641	1.44299
14.5233	1.44304
14.4828	1.26446
14.4424	1.30893
14.4023	1.51394
14.3624	1.43404
14.3227	1.27352
14.2833	1.38571
14.244	1.37391
14.205	1.26031
14.1662	1.21112
14.1276	1.27605
14.0892	1.31914
14.051	1.1522
14.0131	1.22301
13.9753	1.47584
13.9377	1.34204
13.9004	1.39942
13.8632	1.60991
13.8262	1.57555
13.7895	1.50341
13.7529	1.48241
13.7165	1.50945
13.6803	1.51507
13.6443	1.52676
13.6085	1.41993
13.5729	1.3387
13.5374	1.38361
13.5022	1.51056
13.4671	1.6094
13.4322	1.54427
13.3975	1.55347
13.363	1.53423
13.3286	1.55113
13.2944	1.58504
13.2604	1.64986
13.2266	1.7029
13.193	1.70775
13.1595	1.66867
13.1262	1.48748
13.093	1.41915
13.06	1.62426
13.0272	1.78681
12.9946	1.70623
12.9621	1.66412
12.9298	1.53233
12.8976	1.56456
12.8656	1.51451
12.8337	1.53587
12.8021	1.52252
12.7705	1.53333
12.7391	1.52244
12.7079	1.5422
12.6769	1.58997
12.6459	1.70349
12.6152	1.61229
12.5845	1.44235
12.5541	1.41565
12.5238	1.46403
12.4936	1.58256
12.4635	1.6321
12.4337	1.60506
12.4039	1.65297
12.3743	1.66403
12.3448	1.67438
12.3155	1.81349
12.2863	1.68376
12.2573	1.55915
12.2284	1.52834
12.1996	1.51564
12.171	1.49046
12.1425	1.42395
12.1141	1.56278
12.0859	1.66635
12.0578	1.57365
12.0298	1.53939
12.0019	1.67304
11.9742	1.85017
11.9466	2.04577
11.9192	1.93198
11.8918	1.9446
11.8646	2.19177
11.8375	2.16887
11.8106	2.06603
11.7837	2.1788
11.757	2.24968
11.7304	2.26046
11.7039	2.13687
11.6776	1.79329
11.6513	1.58655
11.6252	1.62027
11.5992	1.50851
11.5733	1.44311
11.5475	1.47976
11.5219	1.54182
11.4963	1.55166
11.4709	1.5785
11.4455	1.60674
11.4203	1.49733
11.3952	1.57436
11.3702	1.78289
11.3454	1.84277
11.3206	1.83459
11.2959	1.85475
11.2714	2.01528
11.2469	2.10412
11.2226	2.13953
11.1983	2.16809
11.1742	2.19168
11.1502	2.3045
11.1263	2.23004
11.1024	2.05948
11.0787	1.91256
11.0551	1.9773
11.0316	2.02443
11.0081	2.05143
10.9848	2.10464
10.9616	2.16917
10.9385	2.2676
10.9154	2.42588
10.8925	2.40759
10.8697	2.24714
10.8469	2.0717
10.8243	1.92709
10.8017	1.86128
10.7793	1.93102
10.7569	1.98546
10.7346	1.95758
10.7125	2.01257
10.6904	2.04385
10.6684	1.99867
10.6465	1.95174
10.6247	2.02924
10.6029	2.26253
10.5813	2.36478
10.5597	2.36542
10.5383	2.28169
10.5169	2.28389
10.4956	2.32586
10.4744	2.32785
10.4533	2.40834
10.4323	2.38954
10.4113	2.33016
10.3904	2.47576
10.3697	2.57956
10.349	2.58366
10.3284	2.68541
10.3078	2.81005
10.2874	2.83555
10.267	2.81567
10.2467	2.93085
10.2265	3.03448
10.2064	3.26602
10.1863	3.63311
10.1663	3.89199
10.1464	3.93895
10.1266	3.86205
10.1069	3.83287
10.0872	3.86246
10.0676	3.85554
10.0481	3.8271
10.0287	3.992
10.0093	4.22219
9.99005	4.41814
9.97084	4.49648
9.95169	4.65965
9.93263	4.87047
9.91364	5.01303
9.89472	5.15826
9.87587	5.30999
9.8571	5.4626
9.83839	5.70905
9.81976	5.81485
9.80119	5.86285
9.78271	5.94068
9.76428	6.0048
9.74592	6.20539
9.72764	6.45155
9.70943	6.57022
9.69128	6.69589
9.6732	6.74852
9.65518	6.77027
9.63724	6.83661
9.61935	7.04932
9.60155	7.10195
9.5838	7.08461
9.56611	7.17792
9.5485	7.16534
9.53094	7.12854
9.51345	7.04032
9.49604	6.98439
9.47867	6.91169
9.46137	6.73389
9.44414	6.55814
9.42697	6.3248
9.40986	6.01537
9.39281	5.65104
9.37583	5.39412
9.35891	4.99564
9.34204	4.67192
9.32524	4.49085
9.3085	4.21598
9.29182	4.07598
9.27519	3.8344
9.25863	3.50235
9.24213	3.28593
9.22568	3.15771
9.2093	2.98581
9.19297	2.71852
9.17669	2.61023
9.16048	2.52625
9.14433	2.2417
9.12823	2.13207
9.11218	2.18623
9.0962	2.06114
9.08027	1.90104
9.06439	1.97592
9.04858	1.93731
9.03281	1.65419
9.0171	1.50401
9.00145	1.39978
8.98585	1.45749
8.9703	1.52611
8.9548	1.42978
8.93937	1.32606
8.92398	1.39583
8.90865	1.4026
8.89337	1.35556
8.87814	1.41369
8.86296	1.30639
8.84784	1.20521
8.83277	1.1161
8.81774	1.07078
8.80277	1.14597
8.78786	1.26552
8.77298	1.234
8.75816	1.18709
8.7434	1.15056
8.72868	1.16214
8.714	1.03222
8.69938	0.837671
8.68481	0.795151
8.67029	0.963213
8.65581	1.01616
8.64139	0.979872
8.62701	1.05795
8.61268	1.12952
8.5984	0.976393
8.58416	0.791132
8.56997	0.896988
8.55583	0.991265
8.54174	0.959971
8.52769	0.859313
8.51368	0.846568
8.49973	0.863981
8.48582	0.980674
8.47195	1.19631
8.45813	1.22118
8.44436	1.0542
8.43062	1.00134
8.41693	1.09562
8.4033	1.12375
8.3897	1.07544
8.37614	1.06297
8.36264	0.981262
8.34917	0.807685
8.33574	0.896172
8.32236	1.08705
8.30903	1.17784
8.29573	1.22537
8.28248	1.27782
8.26927	1.29159
8.2561	1.38272
8.24298	1.46182
8.2299	1.42786
8.21685	1.25594
8.20385	1.22462
8.19089	1.41613
8.17797	1.54909
8.16509	1.39706
8.15225	1.41824
8.13946	1.59137
8.1267	1.51173
8.11398	1.47445
8.10131	1.62751
8.08867	1.78399
8.07606	1.7266
8.0635	1.57509
8.05099	1.52247
8.0385	1.64739
8.02606	1.73234
8.01366	1.77352
8.00129	1.841
7.98896	1.87701
7.97667	1.80104
7.96442	1.74854
7.9522	1.74091
7.94002	1.80891
7.92788	1.90061
7.91578	1.85102
7.90371	1.82243
7.89168	1.90707
7.87969	2.01843
7.86773	1.94702
7.85581	1.91665
7.84392	1.95428
7.83207	1.9683
7.82026	1.9724
7.80849	1.94178
7.79674	1.90029
7.78503	1.93106
7.77337	2.10892
7.76173	2.20307
7.75012	2.14401
7.73856	2.07202
7.72703	2.06726
7.71553	2.05763
7.70406	2.01745
7.69263	2.02608
7.68123	2.06581
7.66987	2.04957
7.65855	1.99103
7.64725	2.08172
7.63598	2.22612
7.62475	2.18313
7.61356	2.15553
7.60239	2.14365
7.59126	2.20189
7.58017	2.31535
7.5691	2.46327
7.55806	2.48734
7.54707	2.48827
7.5361	2.51136
7.52516	2.44774
7.51425	2.43478
7.50338	2.47052
7.49253	2.49019
7.48172	2.53718
7.47094	2.58268
7.46019	2.49552
7.44947	2.41436
7.43879	2.44
7.42813	2.45861
7.4175	2.48278
7.4069	2.50193
7.39634	2.48263
7.3858	2.47516
7.37529	2.52972
7.36482	2.67614
7.35437	2.77351
7.34396	2.65791
7.33357	2.61652
7.32321	2.73515
7.31288	2.81722
7.30258	2.83405
7.29231	2.84761
7.28207	2.81042
7.27185	2.78519
7.26167	2.80539
7.25152	2.78011
7.24139	2.73075
7.23129	2.6584
7.22122	2.63368
7.21117	2.64585
7.20116	2.7308
7.19117	2.84473
7.18121	2.84628
7.17128	2.77925
7.16137	2.82503
7.1515	2.87933
7.14164	2.81785
7.13182	2.81755
7.12203	2.79716
7.11225	2.76085
7.10251	2.75437
7.0928	2.79673
7.08311	2.89313
7.07344	2.88793
7.06381	2.8019
7.0542	2.7574
7.04461	2.71841
7.03506	2.73968
7.02552	2.79108
7.01601	2.87042
7.00653	2.81957
6.99708	2.83735
6.98765	2.93211
6.97824	2.93508
6.96886	2.92385
6.95951	2.94576
6.95018	3.03668
6.94087	2.98765
6.9316	2.91606
6.92234	2.92673
6.91311	2.88625
6.90391	2.84156
6.89473	2.88528
6.88557	2.94519
6.87644	2.94837
6.86733	2.9313
6.85824	2.84798
6.84918	2.85061
6.84015	2.92314
6.83114	2.88218
6.82215	2.96908
6.81319	3.06104
6.80424	2.98271
6.79532	2.83236
6.78643	2.85609
6.77756	3.07102
6.76871	3.21317
6.75989	3.21564
6.75109	3.1709
6.74231	3.22354
6.73355	3.28277
6.72482	3.25993
6.71611	3.18611
6.70742	3.14868
6.69875	3.23362
6.69011	3.25284
6.68149	3.16649
6.67289	3.13598
6.66431	3.22226
6.65576	3.26399
6.64722	3.13542
6.63871	3.0029
6.63022	3.05443
6.62175	3.1435
6.61331	3.13298
6.60488	3.14127
6.59648	3.18788
6.5881	3.1912
6.57974	3.1485
6.5714	3.14379
6.56308	3.20474
6.55478	3.30008
6.54651	3.25197
6.53825	3.20265
6.53001	3.22463
6.5218	3.15783
6.51361	3.20001
6.50544	3.21849
6.49729	3.02405
6.48915	2.92275
6.48104	2.95205
6.47295	3.0086
6.46488	3.14989
6.45683	3.19579
6.4488	3.13891
6.44079	3.0633
6.4328	2.97551
6.42482	2.91231
6.41687	2.80793
6.40894	2.81313
6.40103	2.84551
6.39314	2.81443
6.38526	2.78805
6.37741	2.71316
6.36957	2.65476
6.36176	2.6759
6.35396	2.59657
6.34618	2.41365
6.33843	2.36081
6.33069	2.39007
6.32297	2.3094
6.31527	2.28017
6.30758	2.25906
6.29992	2.16923
6.29227	2.08939
6.28465	2.1441
6.27704	2.12907
6.26945	2.01866
6.26188	1.92341
6.25432	1.93479
6.24679	1.9314
6.23927	1.84805
6.23177	1.81218
6.22429	1.75013
6.21683	1.63817
6.20938	1.61166
6.20195	1.53306
6.19454	1.45864
6.18715	1.48966
6.17978	1.52926
6.17242	1.48396
6.16508	1.40899
6.15776	1.29995
6.15045	1.2655
6.14317	1.30583
6.1359	1.40415
6.12864	1.40944
6.12141	1.31282
6.11419	1.18175
6.10699	1.1964
6.0998	1.26118
6.09263	1.23474
6.08549	1.16619
6.07835	1.18205
6.07123	1.22929
6.06413	1.21025
6.05705	1.09475
6.04998	1.08908
6.04293	1.17513
6.0359	1.23554
6.02888	1.20185
6.02187	1.18879
6.01489	1.14482
6.00792	1.09446
6.00096	1.18475
5.99403	1.16122
5.98711	1.08897
5.9802	1.21322
5.97331	1.21568
5.96644	1.20185
5.95958	1.29176
5.95274	1.34194
5.94591	1.36869
5.9391	1.41464
5.9323	1.33994
5.92552	1.35231
5.91876	1.36254
5.91201	1.36534
5.90528	1.45576
5.89856	1.44699
5.89186	1.40579
5.88517	1.4284
5.8785	1.50682
5.87184	1.58751
5.8652	1.61565
5.85857	1.71231
5.85196	1.77898
5.84536	1.80072
5.83878	1.75441
5.83221	1.7257
5.82566	1.80941
5.81912	1.87737
5.81259	1.86198
5.80608	1.92607
5.79959	2.03003
5.79311	2.11032
5.78665	2.16339
5.78019	2.22644
5.77376	2.29029
5.76734	2.28182
5.76093	2.29525
5.75453	2.40299
5.74815	2.44463
5.74179	2.45765
5.73543	2.54835
5.7291	2.6539
5.72277	2.70166
5.71646	2.68895
5.71017	2.66554
5.70389	2.75157
5.69762	2.75236
5.69136	2.76949
5.68513	2.77302
5.6789	2.80137
5.67268	2.83606
5.66648	2.87796
5.6603	2.95914
5.65413	2.97694
5.64797	2.90579
5.64182	2.8663
5.63569	3.02267
5.62957	3.09053
5.62347	3.08497
5.61737	3.08656
5.61129	3.03589
5.60522	2.97411
5.59917	3.07088
5.59313	3.20483
5.5871	3.12975
5.58109	3.0161
5.57509	3.05939
5.5691	3.07728
5.56312	3.11476
5.55716	3.1557
5.55121	3.15451
5.54528	3.20068
5.53935	3.18365
5.53344	3.14109
5.52754	3.17038
5.52166	3.18464
5.51578	3.26096
5.50992	3.3423
5.50407	3.38115
5.49823	3.31216
5.49241	3.24211
5.4866	3.26711
5.4808	3.27773
5.47501	3.33756
5.46923	3.35579
5.46347	3.36752
5.45772	3.42082
5.45198	3.40784
5.44625	3.41081
5.44054	3.44679
5.43484	3.39114
5.42914	3.29849
5.42347	3.37762
5.4178	3.47139
5.41214	3.47975
5.4065	3.43081
5.40087	3.46285
5.39525	3.51487
5.38964	3.53916
5.38404	3.6234
5.37846	3.65334
5.37288	3.63004
5.36732	3.5956
5.36177	3.6517
5.35623	3.69427
5.35071	3.7671
5.34519	3.81585
5.33968	3.7712
5.33419	3.7698
5.32871	3.88041
5.32324	3.93081
5.31778	3.92556
5.31233	3.91851
5.30689	3.88377
5.30147	3.91722
5.29605	3.91082
5.29065	3.93532
5.28525	4.02597
5.27987	3.98691
5.2745	3.95202
5.26914	4.02145
5.26379	4.11403
5.25845	4.16102
5.25312	4.18961
5.24781	4.18248
5.2425	4.1679
5.23721	4.1423
5.23192	4.20531
5.22665	4.30636
5.22138	4.32425
5.21613	4.25364
5.21089	4.21096
5.20566	4.27471
5.20044	4.30936
5.19522	4.23745
5.19002	4.23614
5.18483	4.22093
5.17965	4.20956
5.17448	4.21833
5.16933	4.20691
5.16418	4.15188
5.15904	4.08557
5.15391	4.07181
5.14879	4.09935
5.14368	4.16481
5.13859	4.21237
5.1335	4.18328
5.12842	4.12537
5.12335	4.17029
5.1183	4.21129
5.11325	4.1736
5.10821	4.11325
5.10318	4.11441
5.09817	4.20969
5.09316	4.2878
5.08816	4.27623
5.08317	4.34244
5.07819	4.5311
5.07322	4.6299
5.06826	4.67626
5.06331	4.62488
5.05837	4.55768
5.05344	4.74952
5.04852	4.89545
5.04361	4.92747
5.03871	4.93307
5.03382	4.90807
5.02894	4.90883
5.02406	4.99576
5.0192	5.06455
5.01435	5.17923
5.0095	5.23544
5.00467	5.29364
4.99984	5.428
4.99502	5.50122
4.99021	5.55292
4.98542	5.56163
4.98063	5.63512
4.97585	5.74007
4.97108	5.73071
4.96632	5.69595
4.96156	5.76592
4.95682	5.84456
4.95209	5.8542
4.94736	5.84684
4.94264	5.8676
4.93794	5.87652
4.93324	5.86145
4.92855	5.9533
4.92387	6.05362
4.9192	6.04432
4.91453	6.0283
4.90988	5.9981
4.90524	6.03752
4.9006	6.07419
4.89597	6.10658
4.89135	6.07177
4.88674	6.01604
4.88214	6.02526
4.87755	6.06971
4.87296	6.09882
4.86839	6.12191
4.86382	6.14812
4.85926	6.15167
4.85471	6.14075
4.85017	6.13822
4.84564	6.15163
4.84111	6.19956
4.8366	6.19561
4.83209	6.19449
4.82759	6.18181
4.8231	6.11086
4.81862	6.14933
4.81415	6.21298
4.80968	6.26115
4.80522	6.2261
4.80077	6.20693
4.79633	6.25052
4.7919	6.32074
4.78747	6.34421
4.78306	6.28589
4.77865	6.27462
4.77425	6.36552
4.76986	6.40824
4.76547	6.38508
4.7611	6.38643
4.75673	6.41779
4.75237	6.47945
4.74802	6.44979
4.74367	6.43135
4.73934	6.51366
4.73501	6.56918
4.73069	6.53122
4.72638	6.55737
4.72207	6.5656
4.71777	6.57059
4.71348	6.61146
4.7092	6.62066
4.70493	6.58448
4.70066	6.57734
4.69641	6.7477
4.69216	6.86072
4.68791	6.8432
4.68368	6.88559
4.67945	6.93347
4.67523	7.06796
4.67102	7.19978
4.66682	7.21403
4.66262	7.16085
4.65843	7.11184
4.65425	7.12251
4.65007	7.13339
4.64591	7.19194
4.64175	7.32426
4.6376	7.47491
4.63345	7.49553
4.62932	7.53031
4.62519	7.59251
4.62106	7.57293
4.61695	7.55838
4.61284	7.55765
4.60874	7.67017
4.60465	7.80962
4.60056	7.82312
4.59648	7.86836
4.59241	7.88618
4.58835	7.88347
4.58429	7.90515
4.58024	7.94975
4.5762	8.00039
4.57216	8.04995
4.56814	8.07565
4.56411	8.13515
4.5601	8.24252
4.55609	8.26206
4.55209	8.22516
4.5481	8.24743
4.54411	8.31044
4.54013	8.37806
4.53616	8.43459
4.5322	8.47685
4.52824	8.48606
4.52429	8.59206
4.52034	8.73179
4.51641	8.69712
4.51247	8.56865
4.50855	8.55985
4.50463	8.63132
4.50072	8.7988
4.49682	8.92863
4.49292	8.88213
4.48903	8.85553
4.48515	8.88129
4.48127	8.93435
4.4774	8.99364
4.47354	9.09926
4.46968	9.1177
4.46584	9.08234
4.46199	9.09102
4.45815	9.14664
4.45432	9.21753
4.4505	9.34348
4.44668	9.3503
4.44287	9.35179
4.43907	9.40048
4.43527	9.40976
4.43148	9.4429
4.4277	9.48551
4.42392	9.53271
4.42015	9.69059
4.41638	9.72898
4.41262	9.65273
4.40887	9.76325
4.40513	9.82882
4.40139	9.79099
4.39765	9.78844
4.39393	9.81121
4.39021	9.83739
4.38649	9.93671
4.38278	10.0695
4.37908	10.1662
4.37539	10.1725
4.3717	10.1352
4.36801	10.1648
4.36434	10.2277
4.36067	10.3142
4.357	10.3895
4.35335	10.4048
4.34969	10.4276
4.34605	10.4429
4.34241	10.3733
4.33877	10.5064
4.33514	10.6499
4.33152	10.5929
4.32791	10.556
4.3243	10.6331
4.32069	10.7206
4.3171	10.7711
4.31351	10.8714
4.30992	10.9612
4.30634	11.0514
4.30277	11.1893
4.2992	11.1457
4.29564	11.135
4.29208	11.152
4.28853	11.2271
4.28499	11.3396
4.28145	11.3393
4.27792	11.2812
4.27439	11.3654
4.27087	11.3998
4.26735	11.3637
4.26384	11.4305
4.26034	11.5281
4.25684	11.6052
4.25335	11.6503
4.24986	11.7062
4.24638	11.7053
4.24291	11.7665
4.23944	11.8722
4.23598	11.8986
4.23252	11.8904
4.22906	12.0277
4.22562	12.1233
4.22218	12.0982
4.21874	12.0591
4.21531	12.0509
4.21189	12.0219
4.20847	12.0044
4.20506	12.0375
4.20165	12.0803
4.19825	12.0493
4.19485	12.0422
4.19146	12.0314
4.18807	12.0687
4.18469	12.0713
4.18132	12.1038
4.17795	12.2003
4.17458	12.2191
4.17123	12.2213
4.16787	12.2476
4.16453	12.3347
4.16118	12.3156
4.15785	12.2718
4.15451	12.3105
4.15119	12.2827
4.14787	12.2739
4.14455	12.3112
4.14124	12.3207
4.13794	12.4363
4.13464	12.4611
4.13134	12.4052
4.12805	12.4135
4.12477	12.4734
4.12149	12.4232
4.11822	12.383
4.11495	12.4195
4.11168	12.4495
4.10843	12.4809
4.10517	12.5352
4.10192	12.5295
4.09868	12.593
4.09545	12.6735
4.09221	12.6396
4.08899	12.6351
4.08576	12.5615
4.08255	12.4842
4.07933	12.5405
4.07613	12.6153
4.07292	12.6142
4.06973	12.6166
4.06654	12.5751
4.06335	12.5558
4.06017	12.5902
4.05699	12.6618
4.05382	12.7136
4.05065	12.7873
4.04749	12.7724
4.04433	12.6537
4.04118	12.7171
4.03803	12.7333
4.03489	12.664
4.03175	12.4239
4.02862	11.901
4.02549	11.4552
4.02237	11.5626
4.01925	12.0321
4.01614	12.3916
4.01303	12.622
4.00993	12.7522
4.00683	12.7653
4.00373	12.7172
4.00064	12.7616
3.99756	12.7945
3.99448	12.7736
3.9914	12.7667
3.98833	12.6605
3.98527	12.63
3.98221	12.6368
3.97915	12.6543
3.9761	12.6658
3.97305	12.6041
3.97001	12.4935
3.96697	12.4577
3.96394	12.4689
3.96091	12.389
3.95789	12.3055
3.95487	12.2882
3.95186	12.2345
3.94885	12.1778
3.94584	12.1452
3.94284	12.0191
3.93984	11.994
3.93685	12.0634
3.93386	12.0446
3.93088	11.848
3.9279	11.5706
3.92493	11.4187
3.92196	11.5455
3.919	11.7581
3.91604	11.8608
3.91308	11.8661
3.91013	11.9344
3.90718	12.0651
3.90424	12.1697
3.9013	12.1581
3.89837	12.114
3.89544	12.0836
3.89252	12.0706
3.8896	11.9923
3.88668	11.9183
3.88377	11.9207
3.88086	11.9511
3.87796	11.9813
3.87506	12.018
3.87217	11.9625
3.86928	11.8949
3.86639	11.8842
3.86351	11.8827
3.86064	11.9093
3.85776	11.9021
3.8549	11.8297
3.85203	11.7873
3.84917	11.8322
3.84631	11.77
3.84346	11.7632
3.84062	11.7524
3.83777	11.6653
3.83494	11.5952
3.8321	11.4981
3.82927	11.4515
3.82644	11.4838
3.82362	11.4632
3.82081	11.3931
3.81799	11.4188
3.81518	11.385
3.81238	11.4283
3.80958	11.4488
3.80678	11.4088
3.80399	11.3319
3.8012	11.2451
3.79841	11.2129
3.79563	11.1937
3.79286	11.1329
3.79008	11.0242
3.78731	10.998
3.78455	10.9393
3.78179	10.8213
3.77903	10.7888
3.77628	10.7726
3.77353	10.7726
3.77079	10.6781
3.76805	10.5845
3.76531	10.507
3.76258	10.4015
3.75985	10.3567
3.75713	10.3122
3.7544	10.2189
3.75169	10.1847
3.74898	10.2053
3.74627	10.1657
3.74356	10.1391
3.74086	10.0718
3.73816	9.96947
3.73547	9.88336
3.73278	9.92365
3.7301	9.97826
3.72741	9.85638
3.72474	9.70186
3.72206	9.69924
3.71939	9.67528
3.71673	9.67268
3.71406	9.55802
3.71141	9.42327
3.70875	9.37059
3.7061	9.34139
3.70345	9.29803
3.70081	9.2682
3.69817	9.21886
3.69553	9.11723
3.6929	8.9179
3.69027	8.92162
3.68765	8.88107
3.68503	8.80076
3.68241	8.74567
3.6798	8.66566
3.67719	8.58814
3.67458	8.54105
3.67198	8.49186
3.66938	8.37702
3.66678	8.27338
3.66419	8.19659
3.66161	8.21545
3.65902	8.25611
3.65644	8.20686
3.65387	8.11822
3.65129	7.97267
3.64872	7.9169
3.64616	7.86973
3.64359	7.76841
3.64103	7.62166
3.63848	7.59134
3.63593	7.56989
3.63338	7.51521
3.63084	7.43514
3.6283	7.38789
3.62576	7.35246
3.62322	7.17757
3.62069	7.09633
3.61817	7.13629
3.61564	7.10442
3.61312	7.0107
3.61061	6.9846
3.6081	6.97822
3.60559	7.01893
3.60308	7.05535
3.60058	6.9575
3.59808	6.79105
3.59558	6.69263
3.59309	6.62961
3.59061	6.60908
3.58812	6.54996
3.58564	6.45764
3.58316	6.3636
3.58069	6.35524
3.57822	6.30091
3.57575	6.25721
3.57328	6.2499
3.57082	6.24207
3.56836	6.05085
3.56591	5.88142
3.56346	5.90515
3.56101	5.87738
3.55857	5.7805
3.55613	5.66811
3.55369	5.52815
3.55126	5.4377
3.54883	5.2783
3.5464	5.1069
3.54397	5.05265
3.54155	5.01502
3.53914	5.0801
3.53672	4.96425
3.53431	4.72108
3.5319	4.70825
3.5295	4.66629
3.5271	4.56343
3.5247	4.50898
3.52231	4.38969
3.51991	4.36595
3.51753	4.34734
3.51514	4.25455
3.51276	4.17613
3.51038	4.19751
3.50801	4.17506
3.50563	4.14916
3.50327	4.17066
3.5009	4.162
3.49854	4.12566
3.49618	4.13439
3.49382	4.15728
3.49147	4.19756
3.48912	4.17495
3.48677	4.05104
3.48443	4.06082
3.48209	4.13525
3.47975	4.17507
3.47742	4.15946
3.47509	4.12277
3.47276	4.1256
3.47044	3.99641
3.46812	3.94238
3.4658	4.04273
