Name: Gypsum CaSO_4.2H_2O
Type: Mineral
Class: Sulfates
Subclass: 
Particle Size: 125-500um
Sample No.: SO-2B
Owner: JPL
Wavelength range: IR
Origin: USA, Utah
Collected by Ward's
Description: 





Measurement: Hemispherical reflectance
First Column: X
Second Column: Y
X Units:  Wavelength (micrometers)
Y Units:  Reflectance (percent)
First X Value: 15.3853
Last X Value: 2.00032
Number of X Values: 2256
Additional information: so02ba.txt
 
15.3853	2.41893
15.3397	2.80274
15.2945	2.81796
15.2495	3.10211
15.2048	3.54688
15.1603	4.05669
15.1161	4.52275
15.0722	5.68439
15.0285	7.20608
14.9851	8.65284
14.9419	9.73263
14.8989	10.705
14.8563	11.0405
14.8138	11.0769
14.7716	10.8314
14.7296	10.4208
14.6879	9.74584
14.6464	8.73803
14.6052	7.37566
14.5641	6.15038
14.5233	5.13806
14.4828	4.00197
14.4424	3.11282
14.4023	2.698
14.3624	2.36119
14.3227	2.09833
14.2833	1.823
14.244	1.64366
14.205	1.49198
14.1662	1.5819
14.1276	1.62374
14.0892	1.42564
14.051	1.34163
14.0131	1.62669
13.9753	1.5577
13.9377	1.44059
13.9004	1.52672
13.8632	1.62758
13.8262	1.54241
13.7895	1.52245
13.7529	1.61301
13.7165	1.51623
13.6803	1.36946
13.6443	1.58958
13.6085	1.64992
13.5729	1.64039
13.5374	1.62353
13.5022	1.65585
13.4671	1.6756
13.4322	1.77206
13.3975	1.92708
13.363	1.89503
13.3286	1.77924
13.2944	1.76061
13.2604	1.90682
13.2266	2.08364
13.193	1.94752
13.1595	1.78208
13.1262	1.76337
13.093	1.90408
13.06	2.01479
13.0272	2.04699
12.9946	2.09876
12.9621	2.1471
12.9298	2.11913
12.8976	2.16723
12.8656	2.12179
12.8337	2.11134
12.8021	2.16722
12.7705	2.21285
12.7391	2.21084
12.7079	2.2273
12.6769	2.28196
12.6459	2.40406
12.6152	2.41233
12.5845	2.43315
12.5541	2.33534
12.5238	2.32756
12.4936	2.37719
12.4635	2.41343
12.4337	2.33514
12.4039	2.31048
12.3743	2.37439
12.3448	2.44177
12.3155	2.4433
12.2863	2.54462
12.2573	2.58447
12.2284	2.47859
12.1996	2.39466
12.171	2.55044
12.1425	2.60744
12.1141	2.49246
12.0859	2.41252
12.0578	2.63146
12.0298	2.62499
12.0019	2.55358
11.9742	2.75285
11.9466	2.87515
11.9192	2.8356
11.8918	2.62239
11.8646	2.5785
11.8375	2.64466
11.8106	2.62814
11.7837	2.76005
11.757	2.85055
11.7304	2.77571
11.7039	2.77045
11.6776	2.8663
11.6513	2.88365
11.6252	2.91425
11.5992	2.91107
11.5733	2.95596
11.5475	2.94564
11.5219	2.83008
11.4963	2.82185
11.4709	2.85278
11.4455	2.8764
11.4203	2.91411
11.3952	2.99557
11.3702	3.08522
11.3454	3.08964
11.3206	3.12825
11.2959	3.02429
11.2714	2.96178
11.2469	3.0604
11.2226	3.127
11.1983	3.1004
11.1742	2.97968
11.1502	2.9162
11.1263	2.99643
11.1024	3.05317
11.0787	3.17023
11.0551	3.20211
11.0316	3.24379
11.0081	3.21111
10.9848	3.10278
10.9616	3.17246
10.9385	3.35616
10.9154	3.38254
10.8925	3.35773
10.8697	3.41857
10.8469	3.26943
10.8243	3.198
10.8017	3.33349
10.7793	3.2911
10.7569	3.28442
10.7346	3.33674
10.7125	3.24924
10.6904	3.2063
10.6684	3.38215
10.6465	3.50075
10.6247	3.44113
10.6029	3.43059
10.5813	3.46369
10.5597	3.50165
10.5383	3.63923
10.5169	3.68958
10.4956	3.63637
10.4744	3.61745
10.4533	3.59617
10.4323	3.50692
10.4113	3.54232
10.3904	3.62916
10.3697	3.73522
10.349	3.64496
10.3284	3.56413
10.3078	3.58129
10.2874	3.60273
10.267	3.72551
10.2467	3.90634
10.2265	3.96963
10.2064	3.89302
10.1863	3.86913
10.1663	3.80276
10.1464	3.86772
10.1266	3.8447
10.1069	3.81569
10.0872	3.89808
10.0676	3.95524
10.0481	4.05073
10.0287	4.10757
10.0093	4.10095
9.99005	4.02146
9.97084	4.00225
9.95169	4.1381
9.93263	4.282
9.91364	4.25353
9.89472	4.23057
9.87587	4.27178
9.8571	4.35114
9.83839	4.39637
9.81976	4.46355
9.80119	4.53369
9.78271	4.60958
9.76428	4.65796
9.74592	4.75116
9.72764	4.81363
9.70943	4.79592
9.69128	4.76595
9.6732	4.73939
9.65518	4.85981
9.63724	5.03548
9.61935	5.10785
9.60155	5.10651
9.5838	5.07503
9.56611	5.24344
9.5485	5.38373
9.53094	5.50084
9.51345	5.60363
9.49604	5.64676
9.47867	5.63749
9.46137	5.71745
9.44414	5.89931
9.42697	6.14001
9.40986	6.36588
9.39281	6.5076
9.37583	6.52422
9.35891	6.5895
9.34204	6.77911
9.32524	7.0076
9.3085	7.21792
9.29182	7.37687
9.27519	7.52252
9.25863	7.84174
9.24213	8.07575
9.22568	8.42856
9.2093	8.88811
9.19297	9.32526
9.17669	9.67775
9.16048	10.0062
9.14433	10.5351
9.12823	11.1941
9.11218	11.8575
9.0962	12.5699
9.08027	13.1927
9.06439	14.004
9.04858	15.1407
9.03281	16.3306
9.0171	17.6664
9.00145	18.9325
8.98585	20.1343
8.9703	21.0563
8.9548	21.8153
8.93937	22.5755
8.92398	23.2089
8.90865	23.8121
8.89337	24.4045
8.87814	24.9568
8.86296	25.6063
8.84784	26.315
8.83277	27.2172
8.81774	27.8891
8.80277	28.451
8.78786	29.3081
8.77298	30.1742
8.75816	30.8466
8.7434	31.3788
8.72868	31.8317
8.714	32.0981
8.69938	32.1051
8.68481	31.9608
8.67029	31.8337
8.65581	31.7134
8.64139	31.4557
8.62701	31.1388
8.61268	30.8361
8.5984	30.5899
8.58416	30.1682
8.56997	29.5315
8.55583	28.6812
8.54174	27.5063
8.52769	26.0394
8.51368	24.4895
8.49973	23.2048
8.48582	22.0886
8.47195	20.9539
8.45813	19.9621
8.44436	19.0607
8.43062	18.1887
8.41693	17.2038
8.4033	16.5343
8.3897	16.0936
8.37614	15.6452
8.36264	15.0803
8.34917	14.3074
8.33574	13.4389
8.32236	12.4578
8.30903	11.4498
8.29573	10.3964
8.28248	9.13014
8.26927	7.86637
8.2561	6.83718
8.24298	5.81342
8.2299	4.83794
8.21685	4.14024
8.20385	3.54008
8.19089	2.90752
8.17797	2.41226
8.16509	2.11093
8.15225	1.82961
8.13946	1.51034
8.1267	1.27913
8.11398	1.15698
8.10131	1.08556
8.08867	0.94307
8.07606	0.878248
8.0635	0.789362
8.05099	0.669484
8.0385	0.6861
8.02606	0.601012
8.01366	0.418313
8.00129	0.330049
7.98896	0.30613
7.97667	0.256744
7.96442	0.320756
7.9522	0.435324
7.94002	0.410234
7.92788	0.443799
7.91578	0.366818
7.90371	0.300977
7.89168	0.370905
7.87969	0.369912
7.86773	0.319308
7.85581	0.32945
7.84392	0.368988
7.83207	0.423411
7.82026	0.36737
7.80849	0.351051
7.79674	0.348512
7.78503	0.383794
7.77337	0.441325
7.76173	0.486647
7.75012	0.483839
7.73856	0.448625
7.72703	0.427871
7.71553	0.423761
7.70406	0.434541
7.69263	0.486841
7.68123	0.521279
7.66987	0.576623
7.65855	0.623551
7.64725	0.624714
7.63598	0.672663
7.62475	0.670789
7.61356	0.61464
7.60239	0.641277
7.59126	0.726079
7.58017	0.76688
7.5691	0.78928
7.55806	0.766466
7.54707	0.800873
7.5361	0.838754
7.52516	0.837585
7.51425	0.975666
7.50338	1.05098
7.49253	1.08055
7.48172	0.996944
7.47094	0.971247
7.46019	1.13166
7.44947	1.1395
7.43879	1.09624
7.42813	1.20797
7.4175	1.22143
7.4069	1.27005
7.39634	1.33513
7.3858	1.36153
7.37529	1.31286
7.36482	1.26645
7.35437	1.36803
7.34396	1.53177
7.33357	1.57438
7.32321	1.55335
7.31288	1.59406
7.30258	1.58175
7.29231	1.59047
7.28207	1.71214
7.27185	1.85429
7.26167	1.88822
7.25152	1.93722
7.24139	1.97254
7.23129	2.00328
7.22122	1.96577
7.21117	1.9334
7.20116	1.98189
7.19117	2.02756
7.18121	2.14105
7.17128	2.1634
7.16137	2.16663
7.1515	2.26201
7.14164	2.32451
7.13182	2.2713
7.12203	2.33512
7.11225	2.46075
7.10251	2.52251
7.0928	2.48263
7.08311	2.49693
7.07344	2.52898
7.06381	2.5711
7.0542	2.67847
7.04461	2.71152
7.03506	2.71766
7.02552	2.82036
7.01601	2.82659
7.00653	2.88039
6.99708	2.99537
6.98765	3.12511
6.97824	3.14106
6.96886	3.09311
6.95951	3.12398
6.95018	3.1478
6.94087	3.13406
6.9316	3.10406
6.92234	3.11812
6.91311	3.1987
6.90391	3.27537
6.89473	3.27668
6.88557	3.28797
6.87644	3.3049
6.86733	3.39157
6.85824	3.46271
6.84918	3.43578
6.84015	3.50272
6.83114	3.56689
6.82215	3.47119
6.81319	3.38855
6.80424	3.39166
6.79532	3.42351
6.78643	3.49295
6.77756	3.53372
6.76871	3.64117
6.75989	3.64597
6.75109	3.66577
6.74231	3.70331
6.73355	3.66228
6.72482	3.56203
6.71611	3.58646
6.70742	3.64344
6.69875	3.61576
6.69011	3.66974
6.68149	3.759
6.67289	3.65001
6.66431	3.53089
6.65576	3.58619
6.64722	3.66171
6.63871	3.76141
6.63022	3.73875
6.62175	3.62189
6.61331	3.60081
6.60488	3.55212
6.59648	3.48013
6.5881	3.44473
6.57974	3.40324
6.5714	3.3439
6.56308	3.30351
6.55478	3.33661
6.54651	3.35474
6.53825	3.28527
6.53001	3.27819
6.5218	3.3937
6.51361	3.32816
6.50544	3.29812
6.49729	3.37662
6.48915	3.34653
6.48104	3.28964
6.47295	3.23711
6.46488	3.21468
6.45683	3.2102
6.4488	3.20781
6.44079	3.24445
6.4328	3.31208
6.42482	3.32369
6.41687	3.35689
6.40894	3.37464
6.40103	3.30924
6.39314	3.27926
6.38526	3.26854
6.37741	3.25829
6.36957	3.20535
6.36176	3.1584
6.35396	3.14783
6.34618	3.25731
6.33843	3.29873
6.33069	3.24152
6.32297	3.16099
6.31527	3.22138
6.30758	3.27947
6.29992	3.20052
6.29227	3.22208
6.28465	3.2474
6.27704	3.27112
6.26945	3.36014
6.26188	3.30098
6.25432	3.28324
6.24679	3.30305
6.23927	3.35222
6.23177	3.42653
6.22429	3.41962
6.21683	3.52537
6.20938	3.70493
6.20195	3.83588
6.19454	4.04361
6.18715	4.4212
6.17978	4.72314
6.17242	4.77262
6.16508	4.66469
6.15776	4.35332
6.15045	3.68617
6.14317	2.90533
6.1359	2.35601
6.12864	2.06451
6.12141	1.83949
6.11419	1.74048
6.10699	1.69676
6.0998	1.7049
6.09263	1.78392
6.08549	1.84222
6.07835	1.92371
6.07123	2.01419
6.06413	2.08031
6.05705	2.14669
6.04998	2.31519
6.04293	2.28328
6.0359	2.21488
6.02888	2.24804
6.02187	2.40886
6.01489	2.55009
6.00792	2.49016
6.00096	2.41334
5.99403	2.36231
5.98711	2.35267
5.9802	2.2887
5.97331	2.26192
5.96644	2.27216
5.95958	2.24379
5.95274	2.17561
5.94591	2.121
5.9391	2.06138
5.9323	1.99815
5.92552	2.00764
5.91876	2.05575
5.91201	2.29638
5.90528	2.51029
5.89856	2.70335
5.89186	2.83369
5.88517	2.96629
5.8785	3.0478
5.87184	3.06478
5.8652	3.17961
5.85857	3.2114
5.85196	3.25923
5.84536	3.44612
5.83878	3.6236
5.83221	3.7139
5.82566	3.80796
5.81912	3.78738
5.81259	3.71672
5.80608	3.77336
5.79959	3.88234
5.79311	4.00021
5.78665	4.16011
5.78019	4.26102
5.77376	4.31811
5.76734	4.37623
5.76093	4.36221
5.75453	4.41378
5.74815	4.45725
5.74179	4.43835
5.73543	4.53338
5.7291	4.67544
5.72277	4.77028
5.71646	4.89992
5.71017	5.01862
5.70389	5.036
5.69762	5.07725
5.69136	5.14692
5.68513	5.2578
5.6789	5.39359
5.67268	5.53677
5.66648	5.61391
5.6603	5.7188
5.65413	5.75255
5.64797	5.79417
5.64182	5.94758
5.63569	6.10316
5.62957	6.15526
5.62347	6.16472
5.61737	6.17255
5.61129	6.23657
5.60522	6.37357
5.59917	6.48312
5.59313	6.54524
5.5871	6.61861
5.58109	6.75403
5.57509	6.81661
5.5691	6.83154
5.56312	6.89159
5.55716	6.97189
5.55121	7.07258
5.54528	7.22381
5.53935	7.33031
5.53344	7.50266
5.52754	7.69647
5.52166	7.79152
5.51578	7.92911
5.50992	8.09521
5.50407	8.25293
5.49823	8.38841
5.49241	8.54278
5.4866	8.69112
5.4808	8.82978
5.47501	8.98641
5.46923	9.12811
5.46347	9.21411
5.45772	9.21337
5.45198	9.27458
5.44625	9.37489
5.44054	9.44585
5.43484	9.46771
5.42914	9.56406
5.42347	9.78645
5.4178	9.8056
5.41214	9.80622
5.4065	9.82789
5.40087	9.86975
5.39525	9.95168
5.38964	9.96972
5.38404	9.9262
5.37846	9.95663
5.37288	9.99772
5.36732	10.0675
5.36177	10.1057
5.35623	10.1963
5.35071	10.2893
5.34519	10.3016
5.33968	10.3251
5.33419	10.3356
5.32871	10.3852
5.32324	10.4578
5.31778	10.4567
5.31233	10.4838
5.30689	10.5874
5.30147	10.6979
5.29605	10.6996
5.29065	10.7275
5.28525	10.7842
5.27987	10.8538
5.2745	10.9259
5.26914	10.8742
5.26379	10.8986
5.25845	10.9588
5.25312	11.0182
5.24781	11.1161
5.2425	11.1418
5.23721	11.1424
5.23192	11.1203
5.22665	11.1541
5.22138	11.2032
5.21613	11.1904
5.21089	11.2022
5.20566	11.1742
5.20044	11.1897
5.19522	11.2387
5.19002	11.153
5.18483	11.0654
5.17965	11.0316
5.17448	10.9528
5.16933	10.9222
5.16418	10.919
5.15904	10.8242
5.15391	10.8236
5.14879	10.8734
5.14368	10.7611
5.13859	10.6331
5.1335	10.5897
5.12842	10.5901
5.12335	10.5994
5.1183	10.5294
5.11325	10.4502
5.10821	10.4278
5.10318	10.4023
5.09817	10.4322
5.09316	10.4294
5.08816	10.4019
5.08317	10.4504
5.07819	10.4038
5.07322	10.3728
5.06826	10.3306
5.06331	10.2573
5.05837	10.1737
5.05344	10.1806
5.04852	10.2235
5.04361	10.2661
5.03871	10.2155
5.03382	10.1652
5.02894	10.1324
5.02406	10.1627
5.0192	10.2278
5.01435	10.19
5.0095	10.1778
5.00467	10.1938
4.99984	10.2125
4.99502	10.1275
4.99021	9.97783
4.98542	9.8299
4.98063	9.66771
4.97585	9.5569
4.97108	9.57991
4.96632	9.68987
4.96156	9.83314
4.95682	9.82672
4.95209	9.85049
4.94736	9.89473
4.94264	9.85539
4.93794	9.78078
4.93324	9.70227
4.92855	9.6359
4.92387	9.56187
4.9192	9.50033
4.91453	9.53724
4.90988	9.49208
4.90524	9.34155
4.9006	9.27846
4.89597	9.17356
4.89135	9.0441
4.88674	8.985
4.88214	8.95014
4.87755	8.80223
4.87296	8.69011
4.86839	8.63579
4.86382	8.5276
4.85926	8.402
4.85471	8.39327
4.85017	8.3212
4.84564	8.25925
4.84111	8.16699
4.8366	7.9491
4.83209	7.75393
4.82759	7.62699
4.8231	7.44666
4.81862	7.33147
4.81415	7.24265
4.80968	7.1019
4.80522	6.89997
4.80077	6.7183
4.79633	6.57509
4.7919	6.38247
4.78747	6.09823
4.78306	5.84378
4.77865	5.5041
4.77425	5.18039
4.76986	4.98389
4.76547	4.81233
4.7611	4.52379
4.75673	4.22113
4.75237	3.99816
4.74802	3.79792
4.74367	3.58647
4.73934	3.47482
4.73501	3.43622
4.73069	3.34257
4.72638	3.28775
4.72207	3.31602
4.71777	3.3404
4.71348	3.36128
4.7092	3.32027
4.70493	3.35248
4.70066	3.36554
4.69641	3.38102
4.69216	3.42502
4.68791	3.4235
4.68368	3.42451
4.67945	3.49534
4.67523	3.51162
4.67102	3.54411
4.66682	3.60485
4.66262	3.65216
4.65843	3.68309
4.65425	3.70909
4.65007	3.70475
4.64591	3.68613
4.64175	3.74663
4.6376	3.88072
4.63345	3.90881
4.62932	3.83464
4.62519	3.71372
4.62106	3.68938
4.61695	3.71098
4.61284	3.73773
4.60874	3.70693
4.60465	3.63773
4.60056	3.62447
4.59648	3.64024
4.59241	3.64724
4.58835	3.59863
4.58429	3.50317
4.58024	3.42527
4.5762	3.36372
4.57216	3.2321
4.56814	3.15558
4.56411	3.13761
4.5601	3.1645
4.55609	3.15445
4.55209	3.11446
4.5481	3.11998
4.54411	3.04268
4.54013	2.91255
4.53616	2.92102
4.5322	3.00951
4.52824	3.09164
4.52429	3.07698
4.52034	2.99277
4.51641	2.9623
4.51247	3.02146
4.50855	3.03364
4.50463	3.02799
4.50072	2.96888
4.49682	2.94683
4.49292	2.97513
4.48903	3.02671
4.48515	3.07551
4.48127	3.04854
4.4774	2.96991
4.47354	2.99706
4.46968	3.0829
4.46584	3.08452
4.46199	3.07347
4.45815	3.15348
4.45432	3.17759
4.4505	3.11457
4.44668	3.08487
4.44287	3.16331
4.43907	3.23134
4.43527	3.18922
4.43148	3.17046
4.4277	3.2791
4.42392	3.28819
4.42015	3.31419
4.41638	3.38844
4.41262	3.43766
4.40887	3.48987
4.40513	3.57027
4.40139	3.6549
4.39765	3.63964
4.39393	3.67337
4.39021	3.73772
4.38649	3.74261
4.38278	3.84186
4.37908	3.91881
4.37539	3.94941
4.3717	3.92992
4.36801	3.89553
4.36434	3.95575
4.36067	4.07264
4.357	4.21318
4.35335	4.29024
4.34969	4.28448
4.34605	4.34839
4.34241	4.36709
4.33877	4.41224
4.33514	4.50884
4.33152	4.58662
4.32791	4.67926
4.3243	4.76693
4.32069	4.91857
4.3171	5.08638
4.31351	5.16063
4.30992	5.22439
4.30634	5.32969
4.30277	5.4313
4.2992	5.67078
4.29564	5.91322
4.29208	6.00024
4.28853	6.11881
4.28499	6.28012
4.28145	6.4398
4.27792	6.57329
4.27439	6.70729
4.27087	6.86267
4.26735	7.07992
4.26384	7.32049
4.26034	7.46284
4.25684	7.55123
4.25335	7.68916
4.24986	7.88418
4.24638	8.04182
4.24291	8.19858
4.23944	8.3769
4.23598	8.52035
4.23252	8.70889
4.22906	8.86881
4.22562	9.07212
4.22218	9.28961
4.21874	9.4114
4.21531	9.53996
4.21189	9.70643
4.20847	9.88147
4.20506	10.0228
4.20165	10.1573
4.19825	10.4061
4.19485	10.5863
4.19146	10.7059
4.18807	10.8325
4.18469	10.9225
4.18132	11.0697
4.17795	11.2028
4.17458	11.3643
4.17123	11.5948
4.16787	11.8569
4.16453	12.0094
4.16118	12.0766
4.15785	12.2107
4.15451	12.3667
4.15119	12.5777
4.14787	12.7906
4.14455	13.0133
4.14124	13.1662
4.13794	13.2612
4.13464	13.3967
4.13134	13.5586
4.12805	13.6691
4.12477	13.7806
4.12149	13.9501
4.11822	14.172
4.11495	14.3624
4.11168	14.5735
4.10843	14.7163
4.10517	14.827
4.10192	15.0551
4.09868	15.2901
4.09545	15.4527
4.09221	15.6581
4.08899	15.8134
4.08576	15.9174
4.08255	16.0958
4.07933	16.2993
4.07613	16.4695
4.07292	16.6881
4.06973	16.9392
4.06654	17.114
4.06335	17.2522
4.06017	17.3961
4.05699	17.5871
4.05382	17.7731
4.05065	17.9054
4.04749	18.1474
4.04433	18.4949
4.04118	18.6301
4.03803	18.7406
4.03489	18.9433
4.03175	19.1381
4.02862	19.3073
4.02549	19.3541
4.02237	19.5332
4.01925	19.8075
4.01614	19.977
4.01303	20.0774
4.00993	20.2799
4.00683	20.4561
4.00373	20.5076
4.00064	20.6379
3.99756	20.68
3.99448	20.6969
3.9914	20.7484
3.98833	20.7039
3.98527	20.6007
3.98221	20.3812
3.97915	20.1551
3.9761	20.0332
3.97305	20.0081
3.97001	20.2311
3.96697	20.7401
3.96394	21.1923
3.96091	21.6063
3.95789	22.0413
3.95487	22.447
3.95186	22.7044
3.94885	22.9411
3.94584	23.1516
3.94284	23.3167
3.93984	23.5677
3.93685	23.827
3.93386	23.9815
3.93088	24.0905
3.9279	24.2598
3.92493	24.4768
3.92196	24.6452
3.919	24.7163
3.91604	24.8378
3.91308	24.9953
3.91013	24.9773
3.90718	25.0339
3.90424	25.1915
3.9013	25.2618
3.89837	25.3262
3.89544	25.3527
3.89252	25.3273
3.8896	25.2605
3.88668	25.1449
3.88377	24.951
3.88086	24.7171
3.87796	24.364
3.87506	24.0469
3.87217	24.043
3.86928	24.2745
3.86639	24.6915
3.86351	25.1063
3.86064	25.4817
3.85776	25.7832
3.8549	26.0058
3.85203	26.1941
3.84917	26.3
3.84631	26.4321
3.84346	26.5616
3.84062	26.5936
3.83777	26.6107
3.83494	26.6307
3.8321	26.6847
3.82927	26.7343
3.82644	26.8576
3.82362	26.8542
3.82081	26.7278
3.81799	26.7752
3.81518	26.8691
3.81238	26.9186
3.80958	26.8974
3.80678	26.8628
3.80399	26.816
3.8012	26.8076
3.79841	26.8154
3.79563	26.7675
3.79286	26.6609
3.79008	26.676
3.78731	26.7521
3.78455	26.7704
3.78179	26.7446
3.77903	26.7248
3.77628	26.7319
3.77353	26.7627
3.77079	26.7578
3.76805	26.7795
3.76531	26.7968
3.76258	26.7506
3.75985	26.6669
3.75713	26.6014
3.7544	26.6191
3.75169	26.6344
3.74898	26.6277
3.74627	26.6661
3.74356	26.6122
3.74086	26.448
3.73816	26.4186
3.73547	26.4514
3.73278	26.3411
3.7301	26.2418
3.72741	26.188
3.72474	26.2584
3.72206	26.2549
3.71939	26.2823
3.71673	26.3927
3.71406	26.3636
3.71141	26.282
3.70875	26.2577
3.7061	26.2354
3.70345	26.2107
3.70081	26.1912
3.69817	26.1654
3.69553	26.033
3.6929	25.9353
3.69027	25.8803
3.68765	25.8465
3.68503	25.8527
3.68241	25.7676
3.6798	25.6459
3.67719	25.6036
3.67458	25.5053
3.67198	25.346
3.66938	25.2458
3.66678	25.1653
3.66419	25.0382
3.66161	24.9225
3.65902	24.8557
3.65644	24.7969
3.65387	24.6179
3.65129	24.4932
3.64872	24.4886
3.64616	24.3995
3.64359	24.1661
3.64103	24.0288
3.63848	23.8994
3.63593	23.7776
3.63338	23.701
3.63084	23.6296
3.6283	23.4552
3.62576	23.2582
3.62322	23.1857
3.62069	23.2347
3.61817	23.1383
3.61564	22.9973
3.61312	22.8371
3.61061	22.6393
3.6081	22.4115
3.60559	22.2149
3.60308	22.0597
3.60058	21.9518
3.59808	21.8677
3.59558	21.7411
3.59309	21.582
3.59061	21.4604
3.58812	21.2942
3.58564	21.1177
3.58316	21.044
3.58069	21.03
3.57822	20.9054
3.57575	20.7469
3.57328	20.5936
3.57082	20.5718
3.56836	20.4672
3.56591	20.2722
3.56346	20.1787
3.56101	20.0949
3.55857	20.0312
3.55613	19.9469
3.55369	19.8185
3.55126	19.7146
3.54883	19.5985
3.5464	19.5993
3.54397	19.5721
3.54155	19.4391
3.53914	19.4276
3.53672	19.4689
3.53431	19.3988
3.5319	19.2532
3.5295	19.1616
3.5271	19.2085
3.5247	19.1718
3.52231	19.0139
3.51991	18.929
3.51753	18.8406
3.51514	18.7243
3.51276	18.7477
3.51038	18.7623
3.50801	18.6696
3.50563	18.4937
3.50327	18.4121
3.5009	18.2833
3.49854	18.2088
3.49618	18.1281
3.49382	18.0242
3.49147	17.9321
3.48912	17.7782
3.48677	17.7357
3.48443	17.669
3.48209	17.5599
3.47975	17.4111
3.47742	17.2697
3.47509	17.1865
3.47276	17.1216
3.47044	16.9948
3.46812	16.9157
3.4658	16.8046
