Name: Alunite KAl_3(SO_4)_2(OH)_6
Type: Mineral
Class: Sulfates
Subclass: 
Particle Size: 0-45um
Sample No.: SO-4A
Owner: JPL
Wavelength range: IR
Origin: USA, Utah
Collected by Ward's
Description: 





Measurement: Hemispherical reflectance
First Column: X
Second Column: Y
X Units:  Wavelength (micrometers)
Y Units:  Reflectance (percent)
First X Value: 15.3853
Last X Value: 2.00032
Number of X Values: 2256
Additional information: so04aa.txt
 
15.3853	2.51047
15.3397	2.11049
15.2945	2.05859
15.2495	2.348
15.2048	2.68907
15.1603	2.97358
15.1161	3.28999
15.0722	3.44262
15.0285	3.72278
14.9851	4.10607
14.9419	4.58025
14.8989	4.79414
14.8563	4.83785
14.8138	5.08338
14.7716	5.47524
14.7296	5.8505
14.6879	5.95181
14.6464	6.10887
14.6052	6.30842
14.5641	6.39306
14.5233	6.39689
14.4828	6.30536
14.4424	6.26238
14.4023	6.20629
14.3624	6.19828
14.3227	5.98114
14.2833	5.73768
14.244	5.64503
14.205	5.52774
14.1662	5.3625
14.1276	5.27856
14.0892	5.26889
14.051	5.28674
14.0131	4.99445
13.9753	4.65987
13.9377	4.42913
13.9004	4.18014
13.8632	3.71193
13.8262	3.38716
13.7895	3.0834
13.7529	2.80221
13.7165	2.57546
13.6803	2.20696
13.6443	2.04904
13.6085	1.89465
13.5729	1.72768
13.5374	1.42251
13.5022	1.27439
13.4671	1.18778
13.4322	1.04499
13.3975	0.770471
13.363	0.58464
13.3286	0.573517
13.2944	0.391718
13.2604	0.418114
13.2266	0.516726
13.193	0.511317
13.1595	0.723073
13.1262	0.784102
13.093	0.849599
13.06	0.803525
13.0272	0.669504
12.9946	0.666636
12.9621	0.747323
12.9298	1.033
12.8976	1.05309
12.8656	0.943514
12.8337	1.11837
12.8021	1.21815
12.7705	1.20259
12.7391	1.40295
12.7079	1.66473
12.6769	1.83803
12.6459	1.95292
12.6152	1.96867
12.5845	2.0634
12.5541	2.10843
12.5238	2.18321
12.4936	2.37395
12.4635	2.43981
12.4337	2.45158
12.4039	2.57937
12.3743	2.82157
12.3448	2.97964
12.3155	3.07234
12.2863	3.27469
12.2573	3.4017
12.2284	3.62515
12.1996	3.90221
12.171	3.91029
12.1425	3.95777
12.1141	4.30553
12.0859	4.50128
12.0578	4.51094
12.0298	4.64517
12.0019	4.95358
11.9742	5.23649
11.9466	5.41046
11.9192	5.58886
11.8918	5.82193
11.8646	5.94833
11.8375	6.0695
11.8106	6.12951
11.7837	6.376
11.757	6.60023
11.7304	6.70052
11.7039	6.80869
11.6776	6.93581
11.6513	6.99009
11.6252	7.02535
11.5992	7.10597
11.5733	7.40745
11.5475	7.63881
11.5219	7.80525
11.4963	7.96067
11.4709	8.01628
11.4455	7.96624
11.4203	8.105
11.3952	8.30847
11.3702	8.29443
11.3454	8.13681
11.3206	8.10255
11.2959	8.06168
11.2714	7.99584
11.2469	8.0262
11.2226	8.12067
11.1983	8.20649
11.1742	8.42033
11.1502	8.57558
11.1263	8.62694
11.1024	8.64455
11.0787	8.67085
11.0551	8.87308
11.0316	9.13766
11.0081	9.19453
10.9848	9.26284
10.9616	9.3296
10.9385	9.54649
10.9154	9.9255
10.8925	10.1284
10.8697	10.3004
10.8469	10.4877
10.8243	10.5451
10.8017	10.6985
10.7793	10.8709
10.7569	10.9728
10.7346	11.0398
10.7125	11.1793
10.6904	11.342
10.6684	11.4807
10.6465	11.5643
10.6247	11.6356
10.6029	11.704
10.5813	11.7858
10.5597	11.8258
10.5383	11.972
10.5169	12.0696
10.4956	12.1768
10.4744	12.3511
10.4533	12.605
10.4323	12.7688
10.4113	12.8568
10.3904	12.8712
10.3697	12.8961
10.349	12.9778
10.3284	12.8696
10.3078	12.8319
10.2874	12.7846
10.267	12.6395
10.2467	12.4841
10.2265	12.3043
10.2064	12.1399
10.1863	12.0204
10.1663	11.9157
10.1464	11.7127
10.1266	11.6425
10.1069	11.6979
10.0872	11.7302
10.0676	11.7621
10.0481	11.7332
10.0287	11.4885
10.0093	11.2804
9.99005	11.1682
9.97084	10.9878
9.95169	10.6289
9.93263	10.3002
9.91364	10.3991
9.89472	10.3251
9.87587	9.90117
9.8571	9.38014
9.83839	8.89274
9.81976	8.37015
9.80119	7.81639
9.78271	7.37529
9.76428	6.85033
9.74592	6.38373
9.72764	6.24648
9.70943	6.43731
9.69128	6.95945
9.6732	7.54953
9.65518	7.96778
9.63724	8.00631
9.61935	8.12669
9.60155	8.30181
9.5838	8.34248
9.56611	8.37625
9.5485	8.41537
9.53094	8.24165
9.51345	7.99281
9.49604	7.94087
9.47867	8.03808
9.46137	7.97159
9.44414	7.92329
9.42697	7.96591
9.40986	8.04672
9.39281	8.32014
9.37583	8.66659
9.35891	8.95971
9.34204	9.52175
9.32524	10.2078
9.3085	10.765
9.29182	11.1263
9.27519	11.2188
9.25863	11.2093
9.24213	11.2791
9.22568	11.3295
9.2093	11.2836
9.19297	11.1787
9.17669	11.1322
9.16048	11.0891
9.14433	11.0721
9.12823	11.2261
9.11218	11.1452
9.0962	10.9794
9.08027	10.9803
9.06439	10.9619
9.04858	10.9212
9.03281	11.0012
9.0171	10.922
9.00145	10.9005
8.98585	10.9702
8.9703	10.9471
8.9548	10.9064
8.93937	10.8169
8.92398	10.8611
8.90865	10.8175
8.89337	10.6214
8.87814	10.481
8.86296	10.5551
8.84784	10.713
8.83277	10.5488
8.81774	10.2045
8.80277	10.038
8.78786	9.95976
8.77298	9.81718
8.75816	9.65814
8.7434	9.37985
8.72868	8.87776
8.714	8.47446
8.69938	8.13215
8.68481	7.65082
8.67029	7.10904
8.65581	6.48122
8.64139	6.09168
8.62701	6.25894
8.61268	6.94009
8.5984	7.8943
8.58416	8.58414
8.56997	8.72861
8.55583	8.42652
8.54174	8.04299
8.52769	7.46446
8.51368	6.69626
8.49973	6.05258
8.48582	5.50935
8.47195	4.98451
8.45813	4.53353
8.44436	4.12702
8.43062	3.77906
8.41693	3.56527
8.4033	3.38408
8.3897	3.16349
8.37614	3.06667
8.36264	2.96655
8.34917	2.77496
8.33574	2.6918
8.32236	2.62098
8.30903	2.57121
8.29573	2.58218
8.28248	2.44958
8.26927	2.20697
8.2561	2.18617
8.24298	2.21495
8.2299	2.23557
8.21685	2.28209
8.20385	2.35382
8.19089	2.44437
8.17797	2.43293
8.16509	2.37106
8.15225	2.28179
8.13946	2.18906
8.1267	2.25601
8.11398	2.37077
8.10131	2.46397
8.08867	2.42832
8.07606	2.41406
8.0635	2.45461
8.05099	2.52267
8.0385	2.52259
8.02606	2.55047
8.01366	2.6821
8.00129	2.80238
7.98896	2.78531
7.97667	2.86976
7.96442	3.02303
7.9522	3.14725
7.94002	3.19867
7.92788	3.2613
7.91578	3.43387
7.90371	3.4675
7.89168	3.41576
7.87969	3.44633
7.86773	3.4329
7.85581	3.39409
7.84392	3.43631
7.83207	3.51497
7.82026	3.48345
7.80849	3.36308
7.79674	3.19857
7.78503	2.98343
7.77337	2.81207
7.76173	2.62981
7.75012	2.52377
7.73856	2.37143
7.72703	2.25577
7.71553	2.20038
7.70406	2.14419
7.69263	2.03897
7.68123	1.98807
7.66987	2.0311
7.65855	1.99659
7.64725	2.02954
7.63598	2.09966
7.62475	2.18201
7.61356	2.21836
7.60239	2.24135
7.59126	2.35747
7.58017	2.50059
7.5691	2.63653
7.55806	2.73958
7.54707	2.83112
7.5361	2.89341
7.52516	2.98537
7.51425	3.12011
7.50338	3.22035
7.49253	3.29802
7.48172	3.50939
7.47094	3.7652
7.46019	3.96434
7.44947	4.10035
7.43879	4.22453
7.42813	4.45684
7.4175	4.63599
7.4069	4.82355
7.39634	5.07243
7.3858	5.28195
7.37529	5.42675
7.36482	5.65342
7.35437	5.85172
7.34396	5.94136
7.33357	6.05709
7.32321	6.16977
7.31288	6.23847
7.30258	6.34768
7.29231	6.53442
7.28207	6.76566
7.27185	6.88754
7.26167	6.91907
7.25152	7.02615
7.24139	7.12013
7.23129	7.29012
7.22122	7.44042
7.21117	7.55369
7.20116	7.68234
7.19117	7.86219
7.18121	8.01978
7.17128	8.07761
7.16137	8.08351
7.1515	8.15585
7.14164	8.18786
7.13182	8.22896
7.12203	8.2154
7.11225	8.15619
7.10251	8.15744
7.0928	8.14455
7.08311	8.07065
7.07344	7.99439
7.06381	7.83022
7.0542	7.75112
7.04461	7.76318
7.03506	7.68885
7.02552	7.63768
7.01601	7.57949
7.00653	7.63507
6.99708	7.69801
6.98765	7.74007
6.97824	7.80788
6.96886	7.95454
6.95951	8.10057
6.95018	8.14472
6.94087	8.28589
6.9316	8.45588
6.92234	8.61649
6.91311	8.80128
6.90391	9.00653
6.89473	9.05873
6.88557	9.08805
6.87644	9.26234
6.86733	9.52235
6.85824	9.54023
6.84918	9.3771
6.84015	9.27788
6.83114	9.29899
6.82215	9.25937
6.81319	9.14036
6.80424	9.07671
6.79532	9.10852
6.78643	9.06647
6.77756	8.9624
6.76871	8.9187
6.75989	8.93688
6.75109	8.955
6.74231	8.98017
6.73355	9.08987
6.72482	9.25429
6.71611	9.34831
6.70742	9.475
6.69875	9.64214
6.69011	9.83282
6.68149	10.0673
6.67289	10.291
6.66431	10.4487
6.65576	10.6424
6.64722	10.9309
6.63871	11.2327
6.63022	11.3752
6.62175	11.5118
6.61331	11.7605
6.60488	11.986
6.59648	12.1878
6.5881	12.4043
6.57974	12.6547
6.5714	12.9866
6.56308	13.2609
6.55478	13.511
6.54651	13.7405
6.53825	14.0304
6.53001	14.3509
6.5218	14.5818
6.51361	14.6978
6.50544	14.9062
6.49729	15.2831
6.48915	15.6103
6.48104	15.7343
6.47295	15.8089
6.46488	15.8293
6.45683	15.9219
6.4488	16.0149
6.44079	16.1471
6.4328	16.3075
6.42482	16.3617
6.41687	16.4584
6.40894	16.3449
6.40103	16.0585
6.39314	15.9514
6.38526	15.8668
6.37741	15.7236
6.36957	15.6857
6.36176	15.5992
6.35396	15.4347
6.34618	15.3564
6.33843	15.3008
6.33069	15.0699
6.32297	14.9413
6.31527	14.9379
6.30758	14.9408
6.29992	14.9402
6.29227	14.9124
6.28465	14.7821
6.27704	14.7466
6.26945	14.7284
6.26188	14.6872
6.25432	14.7014
6.24679	14.7285
6.23927	14.6517
6.23177	14.4313
6.22429	14.2442
6.21683	14.1204
6.20938	13.9511
6.20195	13.8538
6.19454	13.8191
6.18715	13.7584
6.17978	13.5979
6.17242	13.4119
6.16508	13.2696
6.15776	13.2281
6.15045	13.1106
6.14317	12.9386
6.1359	12.8986
6.12864	12.915
6.12141	12.8867
6.11419	12.8854
6.10699	12.8139
6.0998	12.7135
6.09263	12.6668
6.08549	12.6825
6.07835	12.8071
6.07123	12.8725
6.06413	12.856
6.05705	12.9891
6.04998	13.2537
6.04293	13.2814
6.0359	13.2438
6.02888	13.2481
6.02187	13.3969
6.01489	13.6335
6.00792	13.7382
6.00096	13.8211
5.99403	13.991
5.98711	14.1073
5.9802	14.1981
5.97331	14.3238
5.96644	14.381
5.95958	14.3768
5.95274	14.4185
5.94591	14.6163
5.9391	14.8905
5.9323	14.9889
5.92552	15.0174
5.91876	15.2037
5.91201	15.4168
5.90528	15.7378
5.89856	16.3283
5.89186	16.9316
5.88517	17.5437
5.8785	18.08
5.87184	18.4348
5.8652	18.95
5.85857	19.3529
5.85196	19.7208
5.84536	20.1863
5.83878	20.7496
5.83221	21.2635
5.82566	21.8234
5.81912	22.2916
5.81259	22.5225
5.80608	22.8067
5.79959	23.2115
5.79311	23.6031
5.78665	23.9876
5.78019	24.3762
5.77376	24.8631
5.76734	25.3384
5.76093	25.5488
5.75453	25.7276
5.74815	26.1489
5.74179	26.4614
5.73543	26.6981
5.7291	26.9809
5.72277	27.3023
5.71646	27.6063
5.71017	27.8405
5.70389	27.9134
5.69762	28.1276
5.69136	28.4009
5.68513	28.5751
5.6789	28.7994
5.67268	28.9569
5.66648	29.1122
5.6603	29.3362
5.65413	29.5827
5.64797	29.866
5.64182	30.123
5.63569	30.2113
5.62957	30.2554
5.62347	30.3892
5.61737	30.6471
5.61129	30.8458
5.60522	30.8601
5.59917	30.8496
5.59313	30.9234
5.5871	31.0461
5.58109	31.2732
5.57509	31.3756
5.5691	31.3317
5.56312	31.4252
5.55716	31.577
5.55121	31.6525
5.54528	31.7271
5.53935	31.8853
5.53344	32.0636
5.52754	32.239
5.52166	32.3615
5.51578	32.4447
5.50992	32.5571
5.50407	32.7489
5.49823	32.9992
5.49241	33.3118
5.4866	33.6685
5.4808	34.0954
5.47501	34.48
5.46923	34.8428
5.46347	35.1711
5.45772	35.4527
5.45198	35.7581
5.44625	36.1151
5.44054	36.4242
5.43484	36.7358
5.42914	37.0695
5.42347	37.4194
5.4178	37.5744
5.41214	37.7344
5.4065	37.9074
5.40087	38.0343
5.39525	38.1426
5.38964	38.2452
5.38404	38.3667
5.37846	38.5062
5.37288	38.5876
5.36732	38.6673
5.36177	38.7631
5.35623	38.8617
5.35071	38.927
5.34519	38.9294
5.33968	38.962
5.33419	39.0712
5.32871	39.1157
5.32324	39.1072
5.31778	39.1413
5.31233	39.2193
5.30689	39.3424
5.30147	39.3966
5.29605	39.4943
5.29065	39.6256
5.28525	39.6908
5.27987	39.7859
5.2745	39.8543
5.26914	39.9613
5.26379	40.1024
5.25845	40.2302
5.25312	40.3294
5.24781	40.3848
5.2425	40.4726
5.23721	40.6585
5.23192	40.7801
5.22665	40.8166
5.22138	40.8542
5.21613	40.9529
5.21089	41.0271
5.20566	41.0682
5.20044	41.0873
5.19522	41.1356
5.19002	41.1707
5.18483	41.2293
5.17965	41.2485
5.17448	41.2861
5.16933	41.3726
5.16418	41.3875
5.15904	41.4393
5.15391	41.5246
5.14879	41.5697
5.14368	41.5964
5.13859	41.675
5.1335	41.7457
5.12842	41.7969
5.12335	41.9276
5.1183	41.9947
5.11325	42.0187
5.10821	42.0979
5.10318	42.1913
5.09817	42.201
5.09316	42.2861
5.08816	42.3372
5.08317	42.3691
5.07819	42.4176
5.07322	42.4281
5.06826	42.4714
5.06331	42.5656
5.05837	42.6104
5.05344	42.6117
5.04852	42.725
5.04361	42.794
5.03871	42.7677
5.03382	42.7943
5.02894	42.7843
5.02406	42.8141
5.0192	42.8245
5.01435	42.792
5.0095	42.803
5.00467	42.8934
4.99984	42.8518
4.99502	42.7827
4.99021	42.7068
4.98542	42.6637
4.98063	42.6427
4.97585	42.5778
4.97108	42.4965
4.96632	42.512
4.96156	42.5081
4.95682	42.4318
4.95209	42.3283
4.94736	42.226
4.94264	42.1301
4.93794	42.034
4.93324	41.8877
4.92855	41.7216
4.92387	41.5055
4.9192	41.3
4.91453	41.0843
4.90988	40.7856
4.90524	40.4582
4.9006	40.0854
4.89597	39.6002
4.89135	39.0255
4.88674	38.4706
4.88214	38.1555
4.87755	38.0547
4.87296	37.8378
4.86839	37.2988
4.86382	36.4956
4.85926	35.4367
4.85471	34.4256
4.85017	33.7933
4.84564	33.6553
4.84111	33.9699
4.8366	34.5845
4.83209	35.1528
4.82759	35.6161
4.8231	35.8666
4.81862	35.8251
4.81415	35.6088
4.80968	35.2545
4.80522	34.8689
4.80077	34.3819
4.79633	33.7575
4.7919	33.0489
4.78747	32.0645
4.78306	30.83
4.77865	29.3814
4.77425	27.7021
4.76986	25.8944
4.76547	24.1656
4.7611	22.6378
4.75673	21.3382
4.75237	20.142
4.74802	18.9428
4.74367	17.6969
4.73934	16.5026
4.73501	15.6301
4.73069	15.1199
4.72638	14.8475
4.72207	14.8181
4.71777	15.0555
4.71348	15.4792
4.7092	15.881
4.70493	16.2019
4.70066	16.3854
4.69641	16.58
4.69216	16.7289
4.68791	16.736
4.68368	16.7543
4.67945	16.827
4.67523	16.9224
4.67102	17.1016
4.66682	17.3119
4.66262	17.5916
4.65843	17.7668
4.65425	17.7186
4.65007	17.4747
4.64591	17.0146
4.64175	16.3547
4.6376	15.7186
4.63345	15.2159
4.62932	14.7575
4.62519	14.3608
4.62106	14.0062
4.61695	13.6984
4.61284	13.3715
4.60874	12.9526
4.60465	12.6045
4.60056	12.2722
4.59648	12.0358
4.59241	11.885
4.58835	11.9149
4.58429	12.1389
4.58024	12.4412
4.5762	12.7989
4.57216	13.2032
4.56814	13.6311
4.56411	13.9891
4.5601	14.199
4.55609	14.287
4.55209	14.2595
4.5481	14.2599
4.54411	14.3624
4.54013	14.4589
4.53616	14.5974
4.5322	14.7469
4.52824	14.8763
4.52429	14.9475
4.52034	14.9702
4.51641	14.9398
4.51247	14.9179
4.50855	14.9116
4.50463	14.9014
4.50072	14.8124
4.49682	14.7645
4.49292	14.8335
4.48903	14.9889
4.48515	15.149
4.48127	15.4027
4.4774	15.7478
4.47354	16.0492
4.46968	16.2829
4.46584	16.4157
4.46199	16.5595
4.45815	16.6658
4.45432	16.7507
4.4505	16.8697
4.44668	16.9577
4.44287	17.1025
4.43907	17.2608
4.43527	17.3364
4.43148	17.4856
4.4277	17.6935
4.42392	17.8781
4.42015	18.0511
4.41638	18.2704
4.41262	18.498
4.40887	18.5647
4.40513	18.5396
4.40139	18.5598
4.39765	18.5511
4.39393	18.4595
4.39021	18.3366
4.38649	18.1819
4.38278	18.0148
4.37908	17.8204
4.37539	17.7036
4.3717	17.6656
4.36801	17.624
4.36434	17.615
4.36067	17.6829
4.357	17.8357
4.35335	18.0395
4.34969	18.2636
4.34605	18.5148
4.34241	18.7906
4.33877	19.0875
4.33514	19.4402
4.33152	19.7818
4.32791	20.2188
4.3243	20.7976
4.32069	21.4599
4.3171	22.1488
4.31351	22.7254
4.30992	23.1734
4.30634	23.5376
4.30277	23.9118
4.2992	24.1672
4.29564	24.306
4.29208	24.4766
4.28853	24.6955
4.28499	24.886
4.28145	25.0673
4.27792	25.196
4.27439	25.3065
4.27087	25.4729
4.26735	25.7289
4.26384	26.0511
4.26034	26.404
4.25684	26.7166
4.25335	26.8608
4.24986	26.9487
4.24638	27.0765
4.24291	27.1893
4.23944	27.3194
4.23598	27.5575
4.23252	27.7663
4.22906	28.0157
4.22562	28.31
4.22218	28.633
4.21874	28.9112
4.21531	29.0961
4.21189	29.3727
4.20847	29.6927
4.20506	29.847
4.20165	29.9199
4.19825	29.9788
4.19485	30.1061
4.19146	30.1846
4.18807	30.1786
4.18469	30.2385
4.18132	30.2765
4.17795	30.2588
4.17458	30.2905
4.17123	30.2502
4.16787	30.2262
4.16453	30.2421
4.16118	30.1642
4.15785	30.0898
4.15451	30.0143
4.15119	29.9533
4.14787	29.9219
4.14455	29.9337
4.14124	29.9071
4.13794	29.9151
4.13464	29.9668
4.13134	30.0169
4.12805	30.0463
4.12477	30.0938
4.12149	30.1799
4.11822	30.2202
4.11495	30.2414
4.11168	30.2982
4.10843	30.3458
4.10517	30.3641
4.10192	30.4476
4.09868	30.4655
4.09545	30.5168
4.09221	30.5835
4.08899	30.6174
4.08576	30.7043
4.08255	30.8341
4.07933	30.8742
4.07613	30.8549
4.07292	30.9238
4.06973	31.0247
4.06654	31.077
4.06335	31.1766
4.06017	31.2475
4.05699	31.3229
4.05382	31.2849
4.05065	31.2704
4.04749	31.3858
4.04433	31.4663
4.04118	31.5172
4.03803	31.538
4.03489	31.6066
4.03175	31.6755
4.02862	31.7153
4.02549	31.7228
4.02237	31.7579
4.01925	31.7766
4.01614	31.8713
4.01303	31.8796
4.00993	31.9155
4.00683	32.0292
4.00373	32.0857
4.00064	32.1053
3.99756	32.1133
3.99448	32.1182
3.9914	32.2043
3.98833	32.2623
3.98527	32.3502
3.98221	32.3667
3.97915	32.2866
3.9761	32.2462
3.97305	32.3267
3.97001	32.386
3.96697	32.4544
3.96394	32.5257
3.96091	32.497
3.95789	32.4651
3.95487	32.4975
3.95186	32.5554
3.94885	32.5957
3.94584	32.6264
3.94284	32.6939
3.93984	32.7425
3.93685	32.7567
3.93386	32.7884
3.93088	32.8319
3.9279	32.8998
3.92493	32.8953
3.92196	32.8624
3.919	32.9451
3.91604	33.0615
3.91308	33.0899
3.91013	33.1155
3.90718	33.0925
3.90424	33.1525
3.9013	33.156
3.89837	33.1187
3.89544	33.1127
3.89252	33.111
3.8896	33.1316
3.88668	33.0907
3.88377	32.9207
3.88086	32.7104
3.87796	32.4409
3.87506	32.1431
3.87217	31.9746
3.86928	32.1258
3.86639	32.4869
3.86351	32.7801
3.86064	32.972
3.85776	33.1482
3.8549	33.2957
3.85203	33.3218
3.84917	33.2677
3.84631	33.3383
3.84346	33.3923
3.84062	33.3854
3.83777	33.3616
3.83494	33.3357
3.8321	33.3518
3.82927	33.3362
3.82644	33.2528
3.82362	33.2663
3.82081	33.2928
3.81799	33.1849
3.81518	33.1583
3.81238	33.2321
3.80958	33.2569
3.80678	33.2165
3.80399	33.1246
3.8012	32.9851
3.79841	32.989
3.79563	33.0798
3.79286	33.1179
3.79008	33.0298
3.78731	32.8968
3.78455	32.8766
3.78179	32.8618
3.77903	32.8338
3.77628	32.7117
3.77353	32.6199
3.77079	32.5566
3.76805	32.4773
3.76531	32.4089
3.76258	32.3747
3.75985	32.3175
3.75713	32.2174
3.7544	32.1902
3.75169	32.1293
3.74898	31.9448
3.74627	31.8323
3.74356	31.8171
3.74086	31.7702
3.73816	31.6822
3.73547	31.6443
3.73278	31.5612
3.7301	31.4066
3.72741	31.2666
3.72474	31.1855
3.72206	31.0577
3.71939	30.9408
3.71673	30.8804
3.71406	30.8501
3.71141	30.7653
3.70875	30.6096
3.7061	30.4951
3.70345	30.484
3.70081	30.4039
3.69817	30.3089
3.69553	30.2153
3.6929	30.0384
3.69027	29.8885
3.68765	29.8052
3.68503	29.7896
3.68241	29.6809
3.6798	29.5262
3.67719	29.4723
3.67458	29.3707
3.67198	29.258
3.66938	29.1171
3.66678	28.9452
3.66419	28.833
3.66161	28.7054
3.65902	28.5797
3.65644	28.4857
3.65387	28.3927
3.65129	28.2617
3.64872	28.0753
3.64616	27.9765
3.64359	27.9729
3.64103	27.9337
3.63848	27.8022
3.63593	27.669
3.63338	27.5597
3.63084	27.4211
3.6283	27.3723
3.62576	27.3371
3.62322	27.0747
3.62069	26.9057
3.61817	26.7427
3.61564	26.6479
3.61312	26.5587
3.61061	26.4602
3.6081	26.3699
3.60559	26.2006
3.60308	26.0596
3.60058	25.9829
3.59808	25.9038
3.59558	25.7973
3.59309	25.7257
3.59061	25.5172
3.58812	25.3202
3.58564	25.2437
3.58316	25.135
3.58069	24.9697
3.57822	24.8296
3.57575	24.7478
3.57328	24.7127
3.57082	24.6161
3.56836	24.4879
3.56591	24.351
3.56346	24.2454
3.56101	24.1463
3.55857	24.0434
3.55613	23.9556
3.55369	23.8026
3.55126	23.6233
3.54883	23.4287
3.5464	23.3103
3.54397	23.2771
3.54155	23.1913
3.53914	23.0725
3.53672	23.0188
3.53431	22.9649
3.5319	22.8047
3.5295	22.645
3.5271	22.5923
3.5247	22.5377
3.52231	22.3948
3.51991	22.2204
3.51753	22.1033
3.51514	21.9579
3.51276	21.8509
3.51038	21.6996
3.50801	21.5241
3.50563	21.4502
3.50327	21.3873
3.5009	21.2941
3.49854	21.1748
3.49618	21.0955
3.49382	21.045
3.49147	20.9615
3.48912	20.824
3.48677	20.7477
3.48443	20.7221
3.48209	20.5347
3.47975	20.4615
3.47742	20.4154
3.47509	20.2625
3.47276	20.1234
3.47044	20.0693
3.46812	20.0224
3.4658	19.8745
3.46348	19.683
