Name: Siderite Fe^2+CO_3
Type: Mineral
Class: Carbonates
Subclass: 
Particle Size: 45-125um
Sample No.: C-9A
Owner: JPL
Wavelength range: IR
Origin: 
Collected by JPL
Description: 





Measurement: Hemispherical reflectance
First Column: X
Second Column: Y
X Units:  Wavelength (micrometers)
Y Units:  Reflectance (percent)
First X Value: 15.3853
Last X Value: 2.00032
Number of X Values: 2256
Additional information: c09aa.txt
 
15.3853	10.7059
15.3397	10.7518
15.2945	10.8518
15.2495	10.5639
15.2048	10.4213
15.1603	10.6895
15.1161	10.6909
15.0722	10.6974
15.0285	10.8834
14.9851	10.8726
14.9419	10.4313
14.8989	10.2236
14.8563	10.4158
14.8138	10.6055
14.7716	10.6061
14.7296	10.56
14.6879	10.3013
14.6464	10.0391
14.6052	9.68791
14.5641	9.55981
14.5233	9.6149
14.4828	9.64378
14.4424	9.49318
14.4023	9.25442
14.3624	8.93903
14.3227	8.52092
14.2833	8.31075
14.244	8.12367
14.205	8.02215
14.1662	8.06245
14.1276	7.9437
14.0892	7.57626
14.051	7.0577
14.0131	6.64066
13.9753	6.29163
13.9377	5.95022
13.9004	5.74308
13.8632	5.50232
13.8262	5.13757
13.7895	4.9968
13.7529	5.09643
13.7165	4.92912
13.6803	4.89699
13.6443	5.1143
13.6085	5.29208
13.5729	5.55292
13.5374	5.40014
13.5022	4.23399
13.4671	2.99032
13.4322	2.7698
13.3975	2.9077
13.363	3.21614
13.3286	3.86669
13.2944	4.51342
13.2604	5.15621
13.2266	5.80231
13.193	6.39684
13.1595	7.00558
13.1262	7.56036
13.093	8.04522
13.06	8.61758
13.0272	9.25821
12.9946	9.75586
12.9621	10.2129
12.9298	10.8319
12.8976	11.5839
12.8656	12.2831
12.8337	12.7813
12.8021	13.2186
12.7705	13.5487
12.7391	13.6076
12.7079	13.4767
12.6769	13.4025
12.6459	13.4929
12.6152	13.655
12.5845	13.9534
12.5541	14.3926
12.5238	14.7385
12.4936	14.827
12.4635	14.7961
12.4337	14.7453
12.4039	14.4119
12.3743	13.9508
12.3448	13.4285
12.3155	13.0526
12.2863	12.9156
12.2573	12.7719
12.2284	12.5333
12.1996	12.395
12.171	12.2402
12.1425	12.1484
12.1141	11.9792
12.0859	11.4131
12.0578	10.6735
12.0298	9.59461
12.0019	8.11613
11.9742	6.96049
11.9466	6.59687
11.9192	6.74084
11.8918	7.05667
11.8646	7.46813
11.8375	7.81774
11.8106	7.72862
11.7837	7.39309
11.757	7.18617
11.7304	7.24128
11.7039	7.37088
11.6776	7.39976
11.6513	7.4697
11.6252	7.79341
11.5992	8.26682
11.5733	8.72031
11.5475	9.61859
11.5219	11.2011
11.4963	13.0472
11.4709	14.5322
11.4455	15.76
11.4203	16.8302
11.3952	17.6714
11.3702	18.0717
11.3454	17.1437
11.3206	14.2274
11.2959	10.8526
11.2714	8.81536
11.2469	7.99073
11.2226	7.72822
11.1983	7.49824
11.1742	7.38594
11.1502	7.64207
11.1263	7.72533
11.1024	7.64613
11.0787	7.76816
11.0551	7.86718
11.0316	7.89912
11.0081	7.97723
10.9848	8.12728
10.9616	8.22138
10.9385	8.3808
10.9154	8.5384
10.8925	8.61779
10.8697	8.6774
10.8469	8.67281
10.8243	8.7525
10.8017	8.83128
10.7793	8.88278
10.7569	8.93558
10.7346	9.02118
10.7125	9.21503
10.6904	9.36208
10.6684	9.33103
10.6465	9.39722
10.6247	9.54693
10.6029	9.60138
10.5813	9.69309
10.5597	9.88806
10.5383	9.89697
10.5169	9.88296
10.4956	9.99427
10.4744	9.96976
10.4533	9.89647
10.4323	9.95818
10.4113	10.0464
10.3904	10.0435
10.3697	10.004
10.349	9.95177
10.3284	10.1276
10.3078	10.2229
10.2874	10.2305
10.267	10.3497
10.2467	10.3598
10.2265	10.2337
10.2064	10.2242
10.1863	10.3865
10.1663	10.5459
10.1464	10.5706
10.1266	10.4704
10.1069	10.2877
10.0872	10.2872
10.0676	10.3835
10.0481	10.45
10.0287	10.4922
10.0093	10.6004
9.99005	10.7812
9.97084	10.9061
9.95169	10.9776
9.93263	11.1975
9.91364	11.3013
9.89472	11.1906
9.87587	11.0157
9.8571	10.9133
9.83839	10.9312
9.81976	11.0099
9.80119	11.0035
9.78271	10.9296
9.76428	10.8819
9.74592	10.6824
9.72764	10.4684
9.70943	10.3276
9.69128	10.335
9.6732	10.3207
9.65518	10.1833
9.63724	10.1365
9.61935	10.175
9.60155	10.2153
9.5838	10.091
9.56611	10.0478
9.5485	10.0599
9.53094	10.1789
9.51345	10.4778
9.49604	10.7374
9.47867	10.8909
9.46137	11.1503
9.44414	11.5495
9.42697	11.9352
9.40986	12.43
9.39281	12.926
9.37583	13.3987
9.35891	13.9335
9.34204	14.33
9.32524	14.7099
9.3085	15.0642
9.29182	15.2343
9.27519	15.3044
9.25863	15.3223
9.24213	15.098
9.22568	14.8907
9.2093	14.8077
9.19297	14.8685
9.17669	14.9651
9.16048	15.0618
9.14433	15.1909
9.12823	15.3748
9.11218	15.4664
9.0962	15.5208
9.08027	15.6235
9.06439	15.6905
9.04858	15.7058
9.03281	15.6105
9.0171	15.5174
9.00145	15.3832
8.98585	15.3585
8.9703	15.3331
8.9548	15.5253
8.93937	15.5992
8.92398	15.3764
8.90865	15.238
8.89337	15.106
8.87814	14.9399
8.86296	14.9386
8.84784	14.9399
8.83277	14.8239
8.81774	14.8011
8.80277	14.7234
8.78786	14.5083
8.77298	14.2626
8.75816	14.1261
8.7434	13.9399
8.72868	13.621
8.714	13.4023
8.69938	13.2385
8.68481	12.8376
8.67029	12.2954
8.65581	11.6959
8.64139	10.9502
8.62701	10.584
8.61268	10.8881
8.5984	11.3975
8.58416	11.8303
8.56997	12.1609
8.55583	12.4276
8.54174	12.5687
8.52769	12.5548
8.51368	12.5666
8.49973	12.6211
8.48582	12.5896
8.47195	12.4972
8.45813	12.4951
8.44436	12.5736
8.43062	12.4846
8.41693	12.4917
8.4033	12.5475
8.3897	12.6566
8.37614	12.6709
8.36264	12.5932
8.34917	12.4837
8.33574	12.4489
8.32236	12.4657
8.30903	12.4695
8.29573	12.4649
8.28248	12.5279
8.26927	12.5239
8.2561	12.4294
8.24298	12.3984
8.2299	12.4457
8.21685	12.3099
8.20385	12.1599
8.19089	12.0518
8.17797	11.9207
8.16509	11.6435
8.15225	11.2781
8.13946	10.9606
8.1267	10.6098
8.11398	10.2444
8.10131	9.95928
8.08867	9.62085
8.07606	9.34989
8.0635	9.11348
8.05099	8.90942
8.0385	8.71338
8.02606	8.48682
8.01366	8.29927
8.00129	8.1133
7.98896	7.88829
7.97667	7.73941
7.96442	7.61066
7.9522	7.38971
7.94002	7.2055
7.92788	7.0969
7.91578	6.96257
7.90371	6.9568
7.89168	6.92039
7.87969	6.78398
7.86773	6.73292
7.85581	6.78973
7.84392	6.69854
7.83207	6.6421
7.82026	6.67113
7.80849	6.62317
7.79674	6.53896
7.78503	6.52896
7.77337	6.54032
7.76173	6.61827
7.75012	6.64566
7.73856	6.62426
7.72703	6.60928
7.71553	6.63972
7.70406	6.67499
7.69263	6.72026
7.68123	6.7944
7.66987	6.77664
7.65855	6.68125
7.64725	6.69209
7.63598	6.7259
7.62475	6.79212
7.61356	6.87465
7.60239	6.87587
7.59126	6.85262
7.58017	6.93458
7.5691	6.99557
7.55806	7.06611
7.54707	7.13181
7.5361	7.19356
7.52516	7.27366
7.51425	7.32006
7.50338	7.38295
7.49253	7.4618
7.48172	7.6181
7.47094	7.75741
7.46019	7.79679
7.44947	7.72415
7.43879	7.76579
7.42813	8.00282
7.4175	8.16091
7.4069	8.24763
7.39634	8.38732
7.3858	8.62232
7.37529	8.73399
7.36482	8.77452
7.35437	8.90639
7.34396	9.15637
7.33357	9.38714
7.32321	9.61829
7.31288	9.82561
7.30258	9.98244
7.29231	10.2083
7.28207	10.5394
7.27185	10.9035
7.26167	11.2633
7.25152	11.6084
7.24139	12.0251
7.23129	12.5352
7.22122	13.0641
7.21117	13.7389
7.20116	14.4871
7.19117	15.2059
7.18121	15.9101
7.17128	16.6007
7.16137	17.3222
7.1515	17.8845
7.14164	18.1826
7.13182	18.3786
7.12203	18.5443
7.11225	18.7228
7.10251	18.9172
7.0928	19.0072
7.08311	19.021
7.07344	19.0314
7.06381	19.1316
7.0542	19.2331
7.04461	19.2712
7.03506	19.3078
7.02552	19.3572
7.01601	19.3778
7.00653	19.4644
6.99708	19.5936
6.98765	19.6456
6.97824	19.7149
6.96886	19.8553
6.95951	20.0001
6.95018	20.115
6.94087	20.1729
6.9316	20.2405
6.92234	20.3921
6.91311	20.5611
6.90391	20.7092
6.89473	20.8475
6.88557	21.0123
6.87644	21.1656
6.86733	21.419
6.85824	21.532
6.84918	21.6122
6.84015	21.7478
6.83114	21.9661
6.82215	22.2231
6.81319	22.3371
6.80424	22.6
6.79532	22.9666
6.78643	23.2906
6.77756	23.6048
6.76871	23.8986
6.75989	24.1874
6.75109	24.5933
6.74231	25.1728
6.73355	25.7568
6.72482	26.3646
6.71611	27.0326
6.70742	27.7268
6.69875	28.3022
6.69011	28.901
6.68149	29.5075
6.67289	29.9667
6.66431	30.4559
6.65576	30.9884
6.64722	31.4588
6.63871	31.8723
6.63022	32.1397
6.62175	32.3461
6.61331	32.5381
6.60488	32.7115
6.59648	32.824
6.5881	32.9675
6.57974	33.1346
6.5714	33.2619
6.56308	33.2827
6.55478	33.3755
6.54651	33.4713
6.53825	33.4804
6.53001	33.5336
6.5218	33.6801
6.51361	33.7336
6.50544	33.7967
6.49729	33.9971
6.48915	33.9552
6.48104	33.5827
6.47295	33.2005
6.46488	32.8132
6.45683	32.2207
6.4488	31.2755
6.44079	30.1072
6.4328	28.5089
6.42482	26.3915
6.41687	23.7693
6.40894	20.5814
6.40103	17.3851
6.39314	14.6768
6.38526	12.4647
6.37741	10.6848
6.36957	9.11777
6.36176	7.67159
6.35396	6.41295
6.34618	5.38649
6.33843	4.4629
6.33069	3.76445
6.32297	3.26523
6.31527	2.79147
6.30758	2.33153
6.29992	1.93301
6.29227	1.6436
6.28465	1.50557
6.27704	1.30604
6.26945	1.06542
6.26188	0.968406
6.25432	0.912283
6.24679	0.839179
6.23927	0.85456
6.23177	0.76783
6.22429	0.745256
6.21683	0.664092
6.20938	0.58967
6.20195	0.530395
6.19454	0.516123
6.18715	0.538187
6.17978	0.605767
6.17242	0.695141
6.16508	0.710778
6.15776	0.702601
6.15045	0.719
6.14317	0.687282
6.1359	0.696023
6.12864	0.727346
6.12141	0.74203
6.11419	0.716054
6.10699	0.741461
6.0998	0.806776
6.09263	0.849162
6.08549	0.873758
6.07835	0.990528
6.07123	0.9919
6.06413	0.994774
6.05705	1.0423
6.04998	1.03854
6.04293	1.0678
6.0359	1.09976
6.02888	1.05074
6.02187	1.03322
6.01489	1.13299
6.00792	1.15891
6.00096	1.16756
5.99403	1.20189
5.98711	1.08276
5.9802	1.03278
5.97331	1.17769
5.96644	1.23277
5.95958	1.21515
5.95274	1.2084
5.94591	1.27288
5.9391	1.26834
5.9323	1.29326
5.92552	1.3174
5.91876	1.45064
5.91201	1.545
5.90528	1.57448
5.89856	1.61565
5.89186	1.65535
5.88517	1.74796
5.8785	1.84844
5.87184	1.93853
5.8652	2.05734
5.85857	2.15633
5.85196	2.19938
5.84536	2.32242
5.83878	2.46906
5.83221	2.53851
5.82566	2.60817
5.81912	2.679
5.81259	2.72474
5.80608	2.82679
5.79959	2.9151
5.79311	2.99299
5.78665	3.03926
5.78019	3.10639
5.77376	3.17948
5.76734	3.21902
5.76093	3.30136
5.75453	3.39498
5.74815	3.49553
5.74179	3.52801
5.73543	3.51111
5.7291	3.62549
5.72277	3.70081
5.71646	3.61233
5.71017	3.53734
5.70389	3.52826
5.69762	3.56727
5.69136	3.59936
5.68513	3.57236
5.6789	3.52526
5.67268	3.46859
5.66648	3.37132
5.6603	3.29049
5.65413	3.22188
5.64797	3.10893
5.64182	3.02163
5.63569	2.90197
5.62957	2.76675
5.62347	2.7064
5.61737	2.65752
5.61129	2.63165
5.60522	2.54264
5.59917	2.46454
5.59313	2.42568
5.5871	2.3152
5.58109	2.22097
5.57509	2.13271
5.5691	2.09217
5.56312	2.02066
5.55716	1.9087
5.55121	1.83056
5.54528	1.7644
5.53935	1.80449
5.53344	1.82068
5.52754	1.77909
5.52166	1.79035
5.51578	1.81917
5.50992	1.91926
5.50407	1.99396
5.49823	2.04509
5.49241	2.11013
5.4866	2.19845
5.4808	2.28078
5.47501	2.3905
5.46923	2.57564
5.46347	2.78525
5.45772	3.06522
5.45198	3.46179
5.44625	4.02055
5.44054	4.50955
5.43484	4.96448
5.42914	5.55778
5.42347	6.22488
5.4178	6.85154
5.41214	7.36155
5.4065	7.80164
5.40087	8.22792
5.39525	8.77512
5.38964	9.24684
5.38404	9.59643
5.37846	9.91748
5.37288	10.2743
5.36732	10.5964
5.36177	10.8959
5.35623	11.2728
5.35071	11.7064
5.34519	12.1134
5.33968	12.4485
5.33419	12.7961
5.32871	13.2105
5.32324	13.5289
5.31778	13.7977
5.31233	14.0144
5.30689	14.2628
5.30147	14.5646
5.29605	14.9416
5.29065	15.2824
5.28525	15.5213
5.27987	15.822
5.2745	16.145
5.26914	16.4297
5.26379	16.7603
5.25845	17.1564
5.25312	17.4557
5.24781	17.776
5.2425	18.2089
5.23721	18.6605
5.23192	19.0761
5.22665	19.4971
5.22138	19.8535
5.21613	20.1645
5.21089	20.4911
5.20566	20.7555
5.20044	20.9334
5.19522	21.0094
5.19002	20.9963
5.18483	21.0967
5.17965	21.1531
5.17448	21.058
5.16933	20.9558
5.16418	20.8225
5.15904	20.5702
5.15391	20.3378
5.14879	20.0122
5.14368	19.6387
5.13859	19.3925
5.1335	19.3078
5.12842	19.4047
5.12335	19.6687
5.1183	19.9844
5.11325	20.3304
5.10821	20.7343
5.10318	21.0989
5.09817	21.3167
5.09316	21.4538
5.08816	21.4774
5.08317	21.4725
5.07819	21.458
5.07322	21.4992
5.06826	21.534
5.06331	21.5441
5.05837	21.5485
5.05344	21.6101
5.04852	21.7131
5.04361	21.7803
5.03871	21.8104
5.03382	21.8028
5.02894	21.9069
5.02406	22.0102
5.0192	22.0341
5.01435	22.0634
5.0095	22.1181
5.00467	22.2061
4.99984	22.3265
4.99502	22.4101
4.99021	22.5506
4.98542	22.7689
4.98063	22.917
4.97585	23.0811
4.97108	23.3986
4.96632	23.7894
4.96156	24.2042
4.95682	24.5718
4.95209	24.8723
4.94736	25.0528
4.94264	25.1533
4.93794	25.3159
4.93324	25.5566
4.92855	25.7735
4.92387	25.9632
4.9192	26.2781
4.91453	26.6459
4.90988	27.0785
4.90524	27.6604
4.9006	28.2504
4.89597	28.7853
4.89135	29.2964
4.88674	29.7353
4.88214	30.182
4.87755	30.6183
4.87296	30.9997
4.86839	31.297
4.86382	31.5028
4.85926	31.7044
4.85471	31.8228
4.85017	31.9052
4.84564	32.0615
4.84111	32.1982
4.8366	32.2602
4.83209	32.3446
4.82759	32.4875
4.8231	32.5115
4.81862	32.4671
4.81415	32.5134
4.80968	32.5076
4.80522	32.4524
4.80077	32.4554
4.79633	32.4521
4.7919	32.4535
4.78747	32.4155
4.78306	32.3375
4.77865	32.2563
4.77425	32.1008
4.76986	31.948
4.76547	31.7566
4.7611	31.548
4.75673	31.3977
4.75237	31.1989
4.74802	30.9262
4.74367	30.5934
4.73934	30.2465
4.73501	29.8797
4.73069	29.5267
4.72638	29.1797
4.72207	28.7395
4.71777	28.1773
4.71348	27.5808
4.7092	27.0093
4.70493	26.4578
4.70066	25.8053
4.69641	25.0504
4.69216	24.3135
4.68791	23.7032
4.68368	23.1711
4.67945	22.6637
4.67523	22.1439
4.67102	21.7124
4.66682	21.408
4.66262	21.117
4.65843	20.8807
4.65425	20.7556
4.65007	20.6831
4.64591	20.644
4.64175	20.6712
4.6376	20.776
4.63345	20.9287
4.62932	21.0531
4.62519	21.2772
4.62106	21.5813
4.61695	21.7758
4.61284	21.9517
4.60874	22.3248
4.60465	22.6782
4.60056	22.9296
4.59648	23.2338
4.59241	23.5438
4.58835	23.8486
4.58429	24.1494
4.58024	24.3982
4.5762	24.5652
4.57216	24.7514
4.56814	24.9728
4.56411	25.2292
4.5601	25.3703
4.55609	25.404
4.55209	25.5033
4.5481	25.5258
4.54411	25.5455
4.54013	25.6587
4.53616	25.7012
4.5322	25.6803
4.52824	25.6557
4.52429	25.6544
4.52034	25.5999
4.51641	25.553
4.51247	25.508
4.50855	25.3853
4.50463	25.3363
4.50072	25.2683
4.49682	25.1828
4.49292	25.1635
4.48903	25.1401
4.48515	25.0707
4.48127	25.0016
4.4774	24.9598
4.47354	24.9598
4.46968	24.9773
4.46584	25.0276
4.46199	25.1349
4.45815	25.2235
4.45432	25.2186
4.4505	25.1672
4.44668	25.2758
4.44287	25.3408
4.43907	25.4164
4.43527	25.4502
4.43148	25.5113
4.4277	25.5807
4.42392	25.6455
4.42015	25.7029
4.41638	25.7985
4.41262	25.9126
4.40887	26.0415
4.40513	26.0661
4.40139	26.0809
4.39765	26.1361
4.39393	26.2084
4.39021	26.2651
4.38649	26.354
4.38278	26.3441
4.37908	26.3389
4.37539	26.4036
4.3717	26.4287
4.36801	26.468
4.36434	26.4779
4.36067	26.4298
4.357	26.4662
4.35335	26.476
4.34969	26.3928
4.34605	26.3173
4.34241	26.2448
4.33877	26.1049
4.33514	25.9295
4.33152	25.8467
4.32791	25.6954
4.3243	25.5004
4.32069	25.2282
4.3171	24.8925
4.31351	24.5887
4.30992	24.3046
4.30634	23.9995
4.30277	23.6349
4.2992	23.2571
4.29564	22.9595
4.29208	22.6215
4.28853	22.2754
4.28499	21.9318
4.28145	21.5738
4.27792	21.2292
4.27439	20.9043
4.27087	20.5544
4.26735	20.3747
4.26384	20.4455
4.26034	20.6137
4.25684	20.8278
4.25335	21.0347
4.24986	21.1692
4.24638	21.2225
4.24291	21.2617
4.23944	21.2969
4.23598	21.3249
4.23252	21.3642
4.22906	21.2852
4.22562	21.2204
4.22218	21.238
4.21874	21.2713
4.21531	21.2725
4.21189	21.2627
4.20847	21.2224
4.20506	21.1312
4.20165	21.0871
4.19825	20.9975
4.19485	20.8164
4.19146	20.6914
4.18807	20.5385
4.18469	20.3839
4.18132	20.2118
4.17795	19.9813
4.17458	19.7675
4.17123	19.5613
4.16787	19.4367
4.16453	19.258
4.16118	19.0406
4.15785	18.8995
4.15451	18.7931
4.15119	18.6125
4.14787	18.4215
4.14455	18.1879
4.14124	18.0528
4.13794	17.8549
4.13464	17.5701
4.13134	17.2758
4.12805	17.0704
4.12477	16.8507
4.12149	16.5482
4.11822	16.2675
4.11495	15.9673
4.11168	15.6295
4.10843	15.2653
4.10517	14.8818
4.10192	14.571
4.09868	14.2278
4.09545	13.8036
4.09221	13.4008
4.08899	12.9342
4.08576	12.523
4.08255	12.3286
4.07933	11.9763
4.07613	11.4664
4.07292	11.0479
4.06973	10.6808
4.06654	10.1799
4.06335	9.69693
4.06017	9.37419
4.05699	9.02568
4.05382	8.65328
4.05065	8.27479
4.04749	7.93895
4.04433	7.56671
4.04118	7.31742
4.03803	7.1823
4.03489	6.98493
4.03175	6.70878
4.02862	6.42575
4.02549	6.27035
4.02237	6.14144
4.01925	6.02998
4.01614	5.84438
4.01303	5.7361
4.00993	5.70152
4.00683	5.60775
4.00373	5.5957
4.00064	5.67746
3.99756	5.5908
3.99448	5.55187
3.9914	5.59684
3.98833	5.61637
3.98527	5.52425
3.98221	5.3726
3.97915	5.35509
3.9761	5.38214
3.97305	5.41703
3.97001	5.51893
3.96697	5.62623
3.96394	5.71578
3.96091	5.86411
3.95789	5.94814
3.95487	6.02822
3.95186	6.04211
3.94885	5.94931
3.94584	5.99933
3.94284	6.0785
3.93984	6.13647
3.93685	6.2003
3.93386	6.28267
3.93088	6.44649
3.9279	6.55639
3.92493	6.49346
3.92196	6.50597
3.919	6.61774
3.91604	6.64199
3.91308	6.73989
3.91013	6.79095
3.90718	6.85625
3.90424	7.00306
3.9013	7.06789
3.89837	7.01134
3.89544	6.95741
3.89252	6.96891
3.8896	7.03603
3.88668	7.17997
3.88377	7.31674
3.88086	7.40157
3.87796	7.45491
3.87506	7.47577
3.87217	7.58905
3.86928	7.62747
3.86639	7.61988
3.86351	7.67021
3.86064	7.75294
3.85776	7.90946
3.8549	7.93946
3.85203	7.87971
3.84917	7.91498
3.84631	8.01438
3.84346	8.17347
3.84062	8.21957
3.83777	8.2942
3.83494	8.48886
3.8321	8.64384
3.82927	8.71807
3.82644	8.7719
3.82362	8.92886
3.82081	9.08368
3.81799	9.27429
3.81518	9.47983
3.81238	9.75205
3.80958	10.0874
3.80678	10.367
3.80399	10.5996
3.8012	10.9979
3.79841	11.4515
3.79563	11.8806
3.79286	12.4381
3.79008	12.9971
3.78731	13.5188
3.78455	14.2045
3.78179	14.9573
3.77903	15.7266
3.77628	16.4693
3.77353	17.1092
3.77079	17.7055
3.76805	18.2071
3.76531	18.6696
3.76258	19.0945
3.75985	19.5224
3.75713	19.77
3.7544	19.9567
3.75169	20.249
3.74898	20.4644
3.74627	20.6497
3.74356	20.8458
3.74086	20.9976
3.73816	21.0254
3.73547	21.1229
3.73278	21.2671
3.7301	21.2951
3.72741	21.3714
3.72474	21.5143
3.72206	21.5948
3.71939	21.6639
3.71673	21.7203
3.71406	21.7725
3.71141	21.7748
3.70875	21.8213
3.7061	21.872
3.70345	21.8126
3.70081	21.8015
3.69817	21.8455
3.69553	21.7897
3.6929	21.6927
3.69027	21.7392
3.68765	21.7566
3.68503	21.6913
3.68241	21.6175
3.6798	21.6045
3.67719	21.5406
3.67458	21.469
3.67198	21.3469
3.66938	21.2168
3.66678	21.2227
3.66419	21.2776
3.66161	21.1801
3.65902	21.0355
3.65644	20.9317
3.65387	20.9023
3.65129	20.7903
3.64872	20.6492
3.64616	20.5721
3.64359	20.4974
3.64103	20.4181
3.63848	20.3395
3.63593	20.1764
3.63338	19.9645
3.63084	19.7975
3.6283	19.7075
3.62576	19.5833
3.62322	19.4147
3.62069	19.306
3.61817	19.2312
3.61564	19.1027
3.61312	18.8882
3.61061	18.7135
3.6081	18.5723
3.60559	18.3432
3.60308	18.1234
3.60058	17.9473
3.59808	17.7778
3.59558	17.6073
3.59309	17.3127
3.59061	17.0822
3.58812	16.883
3.58564	16.6358
3.58316	16.3689
3.58069	16.075
3.57822	15.8601
3.57575	15.6689
3.57328	15.4047
3.57082	15.0757
3.56836	14.7216
3.56591	14.4802
3.56346	14.2606
3.56101	14.0005
3.55857	13.7771
3.55613	13.5074
3.55369	13.1092
3.55126	12.8272
3.54883	12.5701
3.5464	12.3567
3.54397	12.0358
3.54155	11.7247
3.53914	11.4376
3.53672	11.2398
3.53431	11.0992
3.5319	10.7584
3.5295	10.4548
3.5271	10.2682
3.5247	9.99844
3.52231	9.77806
3.51991	9.61769
3.51753	9.40279
3.51514	9.20481
3.51276	9.08023
3.51038	8.99394
3.50801	8.8494
3.50563	8.72795
3.50327	8.67197
3.5009	8.58371
3.49854	8.48181
3.49618	8.36989
3.49382	8.31692
3.49147	8.31163
3.48912	8.33232
3.48677	8.29391
3.48443	8.27943
3.48209	8.40307
3.47975	8.38109
3.47742	8.26265
3.47509	8.31781
3.47276	8.37645
3.47044	8.33804
3.46812	8.33994
3.4658	8.37707
3.46348	8.42613
