Name: Quartz Conglomerate
Type: Rock
Class: Sedimentary
Subclass:  Conglomerate 
Particle Size: Solid surface
Sample No.: Ward49.txt
Owner: JPL
Wavelength range:  VNIR SWIR IR
Origin: Ward's Collection of American Rocks.  Sample locality - near Olean, Cattaraugus County, New York.
Collected by:  Ward's Natural Science
Description: The rock is composed principally of sub-angular and rounded
pebbles of milky quartz of various size, cemented by a siliceous cement
which is usually coated with clay material.
Geologic age - Pennsylvanian.


Measurement: Hemispherical reflectance
First Column: X
Second Column: Y
X Units: Wavelength (micrometers)
Y Units: Reflectance (percent)
First X Value: 2.500
Last X Value: 0.400
Number of X Values: 2101
Additional information: None

2.500  47.623239
2.499  47.745269
2.498  47.422678
2.497  47.787058
2.496  47.435015
2.495  47.895914
2.494  47.825120
2.493  47.970415
2.492  47.763674
2.491  48.093768
2.490  47.913858
2.489  48.322851
2.488  47.940183
2.487  48.206533
2.486  48.108326
2.485  48.140046
2.484  48.292667
2.483  48.390410
2.482  48.329511
2.481  48.517696
2.480  48.467443
2.479  48.708331
2.478  48.463002
2.477  48.714491
2.476  48.739150
2.475  48.766631
2.474  48.843297
2.473  49.031173
2.472  48.990836
2.471  49.056260
2.470  49.138668
2.469  49.316431
2.468  49.300633
2.467  49.328210
2.466  49.466172
2.465  49.558231
2.464  49.567910
2.463  49.661950
2.462  49.607936
2.461  49.821801
2.460  49.717713
2.459  49.935338
2.458  49.918320
2.457  49.974851
2.456  50.087016
2.455  50.190208
2.454  50.098734
2.453  50.135254
2.452  50.327885
2.451  50.295254
2.450  50.302754
2.449  50.375663
2.448  50.468181
2.447  50.447081
2.446  50.583571
2.445  50.648545
2.444  50.686509
2.443  50.842226
2.442  50.832545
2.441  50.875379
2.440  50.926108
2.439  51.067113
2.438  51.136987
2.437  51.142158
2.436  51.201312
2.435  51.389664
2.434  51.474818
2.433  51.697293
2.432  51.591877
2.431  51.797616
2.430  51.859365
2.429  51.869344
2.428  51.952044
2.427  52.088527
2.426  52.129343
2.425  52.384666
2.424  52.351134
2.423  52.420315
2.422  52.528006
2.421  52.604755
2.420  52.656770
2.419  52.744829
2.418  52.783205
2.417  52.934730
2.416  52.999762
2.415  53.021086
2.414  53.074040
2.413  53.247486
2.412  53.289985
2.411  53.282620
2.410  53.370822
2.409  53.315029
2.408  53.444614
2.407  53.634406
2.406  53.617000
2.405  53.573809
2.404  53.672006
2.403  53.793908
2.402  53.723470
2.401  53.737824
2.400  53.727056
2.399  53.857420
2.398  53.789659
2.397  53.873409
2.396  53.841753
2.395  53.933442
2.394  53.943944
2.393  53.944951
2.392  53.995075
2.391  54.021813
2.390  54.040830
2.389  54.104243
2.388  54.105933
2.387  54.096519
2.386  54.052728
2.385  54.156975
2.384  54.197410
2.383  54.227943
2.382  54.344738
2.381  54.347254
2.380  54.384161
2.379  54.460135
2.378  54.553317
2.377  54.654637
2.376  54.608742
2.375  54.650533
2.374  54.790342
2.373  54.891583
2.372  54.963764
2.371  55.045273
2.370  55.085456
2.369  55.102436
2.368  55.172662
2.367  55.276408
2.366  55.297849
2.365  55.349154
2.364  55.435950
2.363  55.476250
2.362  55.449679
2.361  55.470507
2.360  55.570594
2.359  55.621445
2.358  55.675144
2.357  55.726892
2.356  55.720890
2.355  55.724563
2.354  55.802286
2.353  55.878110
2.352  55.949049
2.351  56.055665
2.350  56.081308
2.349  56.108358
2.348  56.103381
2.347  56.177422
2.346  56.257349
2.345  56.297221
2.344  56.369290
2.343  56.393309
2.342  56.493066
2.341  56.574370
2.340  56.566883
2.339  56.649178
2.338  56.774076
2.337  56.798297
2.336  56.850488
2.335  56.939717
2.334  56.996943
2.333  57.061483
2.332  57.109669
2.331  57.129117
2.330  57.218765
2.329  57.278616
2.328  57.291595
2.327  57.325383
2.326  57.423812
2.325  57.451315
2.324  57.516747
2.323  57.627544
2.322  57.689011
2.321  57.685145
2.320  57.777402
2.319  57.842939
2.318  57.851016
2.317  57.906834
2.316  57.982287
2.315  57.974883
2.314  58.042920
2.313  58.068924
2.312  58.118274
2.311  58.158197
2.310  58.208558
2.309  58.223702
2.308  58.315359
2.307  58.373646
2.306  58.394153
2.305  58.419900
2.304  58.500800
2.303  58.529220
2.302  58.626954
2.301  58.688438
2.300  58.746380
2.299  58.841421
2.298  58.912237
2.297  58.956987
2.296  58.991291
2.295  59.072678
2.294  59.185773
2.293  59.231065
2.292  59.290579
2.291  59.290622
2.290  59.482261
2.289  59.423745
2.288  59.582299
2.287  59.655828
2.286  59.760248
2.285  59.769789
2.284  59.823156
2.283  59.883306
2.282  59.958320
2.281  60.039367
2.280  60.069582
2.279  60.121836
2.278  60.199477
2.277  60.226604
2.276  60.212493
2.275  60.229100
2.274  60.271181
2.273  60.357788
2.272  60.385190
2.271  60.412388
2.270  60.416656
2.269  60.422642
2.268  60.414398
2.267  60.584588
2.266  60.600192
2.265  60.476404
2.264  60.548075
2.263  60.488842
2.262  60.959637
2.261  60.574869
2.260  60.600098
2.259  60.542942
2.258  60.567582
2.257  60.638249
2.256  60.622866
2.255  60.606691
2.254  60.702915
2.253  60.716354
2.252  60.809209
2.251  60.748965
2.250  60.705077
2.249  60.723269
2.248  60.805577
2.247  60.909976
2.246  60.894247
2.245  60.878648
2.244  60.834149
2.243  60.848791
2.242  60.982574
2.241  60.886810
2.240  60.898191
2.239  60.879638
2.238  60.908265
2.237  60.865623
2.236  60.877698
2.235  60.778858
2.234  60.731776
2.233  60.769619
2.232  60.766406
2.231  60.655258
2.230  60.640782
2.229  60.464748
2.228  60.422760
2.227  60.322888
2.226  60.244881
2.225  60.138144
2.224  59.994788
2.223  59.781149
2.222  59.678652
2.221  59.576643
2.220  59.422666
2.219  59.184947
2.218  59.125787
2.217  58.771927
2.216  58.563619
2.215  58.282062
2.214  58.069753
2.213  57.851388
2.212  57.705397
2.211  57.485721
2.210  57.455559
2.209  57.312518
2.208  57.340705
2.207  57.353480
2.206  57.409094
2.205  57.442555
2.204  57.722293
2.203  57.693840
2.202  57.974056
2.201  58.087414
2.200  58.301842
2.199  58.442812
2.198  58.677243
2.197  58.746731
2.196  59.019590
2.195  58.919476
2.194  59.016374
2.193  59.129975
2.192  59.251620
2.191  59.155748
2.190  59.237256
2.189  59.197873
2.188  59.314395
2.187  59.269162
2.186  59.301925
2.185  59.375997
2.184  59.430664
2.183  59.386672
2.182  59.591123
2.181  59.537187
2.180  59.595295
2.179  59.676133
2.178  59.725207
2.177  59.785229
2.176  59.928099
2.175  59.993852
2.174  60.073045
2.173  60.208836
2.172  60.351880
2.171  60.385568
2.170  60.535176
2.169  60.541049
2.168  60.780175
2.167  60.863680
2.166  60.972306
2.165  61.107518
2.164  61.278594
2.163  61.374742
2.162  61.519230
2.161  61.620447
2.160  61.736276
2.159  61.750118
2.158  61.863207
2.157  62.027340
2.156  62.105972
2.155  62.215040
2.154  62.446047
2.153  62.434776
2.152  62.557281
2.151  62.553578
2.150  62.725118
2.149  62.706347
2.148  62.781905
2.147  62.869972
2.146  62.982616
2.145  63.015080
2.144  63.092710
2.143  63.165184
2.142  63.254677
2.141  63.253795
2.140  63.336390
2.139  63.411307
2.138  63.399734
2.137  63.391398
2.136  63.443322
2.135  63.483637
2.134  63.525669
2.133  63.500610
2.132  63.493545
2.131  63.558185
2.130  63.546627
2.129  63.589081
2.128  63.618230
2.127  63.538609
2.126  63.562045
2.125  63.559581
2.124  63.537855
2.123  63.553280
2.122  63.483825
2.121  63.397701
2.120  63.368663
2.119  63.331298
2.118  63.297403
2.117  63.160513
2.116  63.125306
2.115  63.094621
2.114  63.109245
2.113  63.071211
2.112  63.025978
2.111  62.983488
2.110  63.024936
2.109  62.973270
2.108  62.972321
2.107  62.898934
2.106  62.902294
2.105  62.892768
2.104  62.856416
2.103  62.823187
2.102  62.785600
2.101  62.812951
2.100  62.765513
2.099  62.671372
2.098  62.724781
2.097  62.781946
2.096  62.801918
2.095  62.757687
2.094  62.698009
2.093  62.726915
2.092  62.719701
2.091  62.732957
2.090  62.774869
2.089  62.809188
2.088  62.783538
2.087  62.756671
2.086  62.711980
2.085  62.649810
2.084  62.682143
2.083  62.671572
2.082  62.711237
2.081  62.728508
2.080  62.700004
2.079  62.760347
2.078  62.714222
2.077  62.660806
2.076  62.666227
2.075  62.666837
2.074  62.650450
2.073  62.609773
2.072  62.544115
2.071  62.514792
2.070  62.562039
2.069  62.550550
2.068  62.504005
2.067  62.467874
2.066  62.496836
2.065  62.478826
2.064  62.423713
2.063  62.385313
2.062  62.370750
2.061  62.379585
2.060  62.392119
2.059  62.390749
2.058  62.284166
2.057  62.269185
2.056  62.249685
2.055  62.207431
2.054  62.126394
2.053  62.110583
2.052  62.171406
2.051  62.162119
2.050  62.077376
2.049  61.980124
2.048  61.951973
2.047  61.956517
2.046  61.959826
2.045  61.968713
2.044  61.937472
2.043  61.881932
2.042  61.755082
2.041  61.747367
2.040  61.714481
2.039  61.695794
2.038  61.656723
2.037  61.554852
2.036  61.475028
2.035  61.506022
2.034  61.444211
2.033  61.384183
2.032  61.382341
2.031  61.298604
2.030  61.241951
2.029  61.212091
2.028  61.082053
2.027  61.115729
2.026  61.082376
2.025  60.986278
2.024  60.847056
2.023  60.833074
2.022  60.769539
2.021  60.721333
2.020  60.656191
2.019  60.638028
2.018  60.510691
2.017  60.448265
2.016  60.418423
2.015  60.265790
2.014  60.202694
2.013  60.214489
2.012  60.116256
2.011  60.069135
2.010  59.956451
2.009  59.942448
2.008  59.818811
2.007  59.726349
2.006  59.668434
2.005  59.655590
2.004  59.530915
2.003  59.493084
2.002  59.322868
2.001  59.238641
2.000  59.192359
1.999  59.112757
1.998  59.037817
1.997  58.934311
1.996  58.906656
1.995  58.872873
1.994  58.802257
1.993  58.654177
1.992  58.439881
1.991  58.396299
1.990  58.304020
1.989  58.266087
1.988  58.169163
1.987  58.084000
1.986  57.948763
1.985  57.846149
1.984  57.745936
1.983  57.619840
1.982  57.521298
1.981  57.493587
1.980  57.369247
1.979  57.409804
1.978  57.204479
1.977  57.117030
1.976  57.004463
1.975  56.933160
1.974  56.813237
1.973  56.709266
1.972  56.606981
1.971  56.488618
1.970  56.334112
1.969  56.363210
1.968  56.239442
1.967  56.187028
1.966  56.063902
1.965  56.039579
1.964  55.871627
1.963  55.826447
1.962  55.673846
1.961  55.646908
1.960  55.529970
1.959  55.582029
1.958  55.432969
1.957  55.329720
1.956  55.281443
1.955  55.131064
1.954  55.077121
1.953  55.065279
1.952  54.877936
1.951  54.879322
1.950  54.796362
1.949  54.715052
1.948  54.642777
1.947  54.684214
1.946  54.477476
1.945  54.520991
1.944  54.412947
1.943  54.425227
1.942  54.275585
1.941  54.276035
1.940  54.211321
1.939  54.142333
1.938  54.165245
1.937  54.113267
1.936  54.158600
1.935  54.109627
1.934  54.176412
1.933  54.115230
1.932  54.020346
1.931  54.089372
1.930  54.112445
1.929  54.121546
1.928  54.199842
1.927  54.213900
1.926  54.070663
1.925  54.317462
1.924  54.119190
1.923  54.359737
1.922  54.292825
1.921  54.456468
1.920  54.319560
1.919  54.593500
1.918  54.607559
1.917  54.676140
1.916  54.787728
1.915  54.843907
1.914  55.048746
1.913  55.305626
1.912  55.257403
1.911  55.636787
1.910  55.603205
1.909  55.833965
1.908  56.070795
1.907  56.261817
1.906  56.426169
1.905  56.729815
1.904  56.929309
1.903  57.286198
1.902  57.511581
1.901  57.922329
1.900  58.213867
1.899  58.533517
1.898  58.818894
1.897  59.271945
1.896  59.589973
1.895  60.139532
1.894  60.452190
1.893  60.901126
1.892  61.252008
1.891  61.643181
1.890  62.112304
1.889  62.504752
1.888  62.915553
1.887  63.297653
1.886  63.579141
1.885  64.002294
1.884  64.315999
1.883  64.647477
1.882  64.991326
1.881  65.335983
1.880  65.624578
1.879  65.924961
1.878  66.201383
1.877  66.489753
1.876  66.614267
1.875  66.785710
1.874  66.978625
1.873  67.197401
1.872  67.274554
1.871  67.412591
1.870  67.577163
1.869  67.686067
1.868  67.838581
1.867  67.965607
1.866  68.207556
1.865  68.356396
1.864  68.516605
1.863  68.672914
1.862  68.657718
1.861  68.763535
1.860  68.903094
1.859  68.933296
1.858  68.984325
1.857  69.034332
1.856  69.074764
1.855  69.125705
1.854  69.215781
1.853  69.286862
1.852  69.232287
1.851  69.371155
1.850  69.439983
1.849  69.348235
1.848  69.296562
1.847  69.340421
1.846  69.296531
1.845  69.295035
1.844  69.349475
1.843  69.455765
1.842  69.519104
1.841  69.439671
1.840  69.446694
1.839  69.529308
1.838  69.450867
1.837  69.406875
1.836  69.440961
1.835  69.469622
1.834  69.528515
1.833  69.640108
1.832  69.600212
1.831  69.569422
1.830  69.548347
1.829  69.548654
1.828  69.492380
1.827  69.496019
1.826  69.522646
1.825  69.553166
1.824  69.597361
1.823  69.692856
1.822  69.694608
1.821  69.649127
1.820  69.619620
1.819  69.606358
1.818  69.661435
1.817  69.720191
1.816  69.617369
1.815  69.635432
1.814  69.686798
1.813  69.698411
1.812  69.741169
1.811  69.688283
1.810  69.636672
1.809  69.758478
1.808  69.738373
1.807  69.766520
1.806  69.727058
1.805  69.666932
1.804  69.692846
1.803  69.715122
1.802  69.697278
1.801  69.762232
1.800  69.735361
1.799  69.736328
1.798  69.751667
1.797  69.729844
1.796  69.770685
1.795  69.793637
1.794  69.785028
1.793  69.788495
1.792  69.801102
1.791  69.795588
1.790  69.804902
1.789  69.793384
1.788  69.832413
1.787  69.888796
1.786  69.850272
1.785  69.868049
1.784  69.862083
1.783  69.857340
1.782  69.902415
1.781  69.932122
1.780  69.954309
1.779  69.882970
1.778  69.934094
1.777  70.008994
1.776  69.906875
1.775  69.869621
1.774  69.940113
1.773  69.972097
1.772  69.988139
1.771  69.918855
1.770  69.924180
1.769  70.000119
1.768  70.055864
1.767  70.053152
1.766  70.041218
1.765  70.080889
1.764  70.133920
1.763  70.112019
1.762  70.100865
1.761  70.082948
1.760  70.109753
1.759  70.131303
1.758  70.165133
1.757  70.212425
1.756  70.208976
1.755  70.173996
1.754  70.239621
1.753  70.295972
1.752  70.341235
1.751  70.287476
1.750  70.309469
1.749  70.303841
1.748  70.327502
1.747  70.262734
1.746  70.346754
1.745  70.403975
1.744  70.348461
1.743  70.371718
1.742  70.473214
1.741  70.486816
1.740  70.415790
1.739  70.442122
1.738  70.497123
1.737  70.503327
1.736  70.514732
1.735  70.444216
1.734  70.483334
1.733  70.487216
1.732  70.572894
1.731  70.608661
1.730  70.572152
1.729  70.598312
1.728  70.616145
1.727  70.580134
1.726  70.604322
1.725  70.624162
1.724  70.604768
1.723  70.674474
1.722  70.704038
1.721  70.684407
1.720  70.748787
1.719  70.652548
1.718  70.718872
1.717  70.671422
1.716  70.711229
1.715  70.678148
1.714  70.774649
1.713  70.833807
1.712  70.749291
1.711  70.767994
1.710  70.788991
1.709  70.696620
1.708  70.800473
1.707  70.786120
1.706  70.797521
1.705  70.747204
1.704  70.749345
1.703  70.686565
1.702  70.723747
1.701  70.741745
1.700  70.223424
1.699  70.572638
1.698  70.866562
1.697  70.854885
1.696  70.904846
1.695  70.785663
1.694  70.778160
1.693  70.752432
1.692  70.806270
1.691  70.841872
1.690  70.880637
1.689  70.738124
1.688  70.753747
1.687  70.771544
1.686  70.813395
1.685  70.823697
1.684  70.865799
1.683  70.879690
1.682  70.790522
1.681  70.764853
1.680  70.825983
1.679  70.889348
1.678  70.892394
1.677  70.871483
1.676  70.865637
1.675  70.840270
1.674  70.860095
1.673  70.882545
1.672  70.796230
1.671  70.900973
1.670  70.911837
1.669  70.839854
1.668  70.870879
1.667  70.957779
1.666  70.897065
1.665  70.845467
1.664  70.832371
1.663  70.867461
1.662  70.814797
1.661  70.865589
1.660  70.896614
1.659  70.908565
1.658  70.888784
1.657  70.855107
1.656  70.914479
1.655  70.892060
1.654  70.914223
1.653  70.774667
1.652  70.954320
1.651  71.045326
1.650  70.927241
1.649  70.808769
1.648  70.901800
1.647  70.811433
1.646  70.819629
1.645  70.854789
1.644  70.915446
1.643  70.799645
1.642  70.927781
1.641  70.815648
1.640  70.904122
1.639  71.028758
1.638  70.894689
1.637  70.814910
1.636  70.915410
1.635  70.872415
1.634  70.823139
1.633  70.913432
1.632  70.887116
1.631  70.816841
1.630  70.830499
1.629  70.835097
1.628  70.775817
1.627  70.793325
1.626  70.829512
1.625  70.808682
1.624  70.842314
1.623  70.867248
1.622  70.847579
1.621  70.806040
1.620  70.909303
1.619  70.846750
1.618  70.890114
1.617  70.844633
1.616  70.867122
1.615  70.748691
1.614  70.878501
1.613  70.832106
1.612  70.877671
1.611  70.834421
1.610  70.832988
1.609  70.786308
1.608  70.740965
1.607  70.785917
1.606  70.779756
1.605  70.765678
1.604  70.829298
1.603  70.776155
1.602  70.790673
1.601  70.805504
1.600  70.804501
1.599  70.723160
1.598  70.710148
1.597  70.684467
1.596  70.790334
1.595  70.665453
1.594  70.688011
1.593  70.685353
1.592  70.699083
1.591  70.602511
1.590  70.686474
1.589  70.589549
1.588  70.666346
1.587  70.551689
1.586  70.603508
1.585  70.560933
1.584  70.569901
1.583  70.535647
1.582  70.558241
1.581  70.586658
1.580  70.577959
1.579  70.531380
1.578  70.485713
1.577  70.486375
1.576  70.480407
1.575  70.447033
1.574  70.464407
1.573  70.389926
1.572  70.418043
1.571  70.425739
1.570  70.430538
1.569  70.435937
1.568  70.426097
1.567  70.333166
1.566  70.314748
1.565  70.236722
1.564  70.329497
1.563  70.330139
1.562  70.362567
1.561  70.293371
1.560  70.279478
1.559  70.209386
1.558  70.223546
1.557  70.114067
1.556  70.204929
1.555  70.122206
1.554  70.166099
1.553  70.100544
1.552  70.077496
1.551  70.087456
1.550  70.115462
1.549  70.045685
1.548  69.977732
1.547  69.957217
1.546  69.951286
1.545  69.936303
1.544  69.929836
1.543  69.921554
1.542  69.946486
1.541  69.852479
1.540  69.826025
1.539  69.834589
1.538  69.831379
1.537  69.781161
1.536  69.767887
1.535  69.684117
1.534  69.618308
1.533  69.551690
1.532  69.557893
1.531  69.582188
1.530  69.569102
1.529  69.530088
1.528  69.453107
1.527  69.422521
1.526  69.461629
1.525  69.434460
1.524  69.419694
1.523  69.359878
1.522  69.264874
1.521  69.230642
1.520  69.185879
1.519  69.123048
1.518  69.115684
1.517  69.140389
1.516  69.097745
1.515  69.078809
1.514  69.081091
1.513  69.053213
1.512  68.965472
1.511  68.912478
1.510  68.890415
1.509  68.840052
1.508  68.792649
1.507  68.764830
1.506  68.730720
1.505  68.692567
1.504  68.668139
1.503  68.616313
1.502  68.551252
1.501  68.498676
1.500  68.484707
1.499  68.437101
1.498  68.422365
1.497  68.335466
1.496  68.259325
1.495  68.230779
1.494  68.215342
1.493  68.271789
1.492  68.234540
1.491  68.163792
1.490  68.115293
1.489  68.042831
1.488  67.950495
1.487  67.926646
1.486  67.901295
1.485  67.891907
1.484  67.862092
1.483  67.806266
1.482  67.771083
1.481  67.710865
1.480  67.655654
1.479  67.638387
1.478  67.587160
1.477  67.601995
1.476  67.529311
1.475  67.481568
1.474  67.395744
1.473  67.356184
1.472  67.377861
1.471  67.447451
1.470  67.365907
1.469  67.271610
1.468  67.234245
1.467  67.259786
1.466  67.176831
1.465  67.183129
1.464  67.193980
1.463  67.120531
1.462  67.078688
1.461  67.136783
1.460  67.088167
1.459  67.005411
1.458  66.952277
1.457  67.014396
1.456  66.980366
1.455  66.947806
1.454  67.007143
1.453  67.003283
1.452  67.013895
1.451  66.986179
1.450  66.901355
1.449  66.976221
1.448  66.983134
1.447  66.951482
1.446  66.927423
1.445  66.961726
1.444  66.898673
1.443  66.914012
1.442  66.946820
1.441  66.926607
1.440  66.930300
1.439  66.964745
1.438  66.927253
1.437  66.904169
1.436  66.880431
1.435  66.789442
