Name: Celestite SrSO_4
Type: Mineral
Class: Sulfates
Subclass: 
Particle Size: 45-125um
Sample No.: SO-5A
Owner: JPL
Wavelength range: IR
Origin: USA, Utah, Emery County
Collected by Grieger's Inc.
Description: 





Measurement: Hemispherical reflectance
First Column: X
Second Column: Y
X Units:  Wavelength (micrometers)
Y Units:  Reflectance (percent)
First X Value: 15.3853
Last X Value: 2.00032
Number of X Values: 2256
Additional information: so05aa.txt
 
15.3853	8.83203
15.3397	8.69231
15.2945	8.35107
15.2495	7.3582
15.2048	6.12785
15.1603	5.02198
15.1161	3.9021
15.0722	2.68673
15.0285	1.96167
14.9851	1.88387
14.9419	2.06533
14.8989	2.13587
14.8563	2.02614
14.8138	2.17352
14.7716	2.48959
14.7296	2.92128
14.6879	3.40617
14.6464	3.99757
14.6052	4.56971
14.5641	5.01676
14.5233	5.47198
14.4828	6.34629
14.4424	6.94821
14.4023	7.56882
14.3624	8.16114
14.3227	8.42866
14.2833	8.57611
14.244	8.59869
14.205	8.66466
14.1662	8.83694
14.1276	9.18257
14.0892	9.39044
14.051	9.42067
14.0131	9.48838
13.9753	9.90514
13.9377	10.4777
13.9004	11.0051
13.8632	11.5585
13.8262	11.8964
13.7895	12.2654
13.7529	12.5356
13.7165	12.7035
13.6803	13.0113
13.6443	13.1492
13.6085	13.3327
13.5729	13.6174
13.5374	14.1146
13.5022	14.5566
13.4671	14.8606
13.4322	15.0964
13.3975	15.2375
13.363	15.3182
13.3286	15.0998
13.2944	14.9747
13.2604	14.9306
13.2266	14.7989
13.193	14.8575
13.1595	14.9464
13.1262	14.7302
13.093	14.6887
13.06	14.716
13.0272	14.571
12.9946	14.5019
12.9621	14.6644
12.9298	14.9462
12.8976	15.0277
12.8656	15.0341
12.8337	15.1517
12.8021	15.1393
12.7705	15.1518
12.7391	15.0961
12.7079	14.9772
12.6769	15.0259
12.6459	15.0084
12.6152	14.9027
12.5845	14.8227
12.5541	14.9409
12.5238	14.9899
12.4936	14.8513
12.4635	14.6486
12.4337	14.6187
12.4039	14.6337
12.3743	14.6279
12.3448	14.6678
12.3155	14.8125
12.2863	14.9713
12.2573	15.0109
12.2284	15.0586
12.1996	15.1688
12.171	15.3225
12.1425	15.3879
12.1141	15.4588
12.0859	15.4588
12.0578	15.4476
12.0298	15.5419
12.0019	15.7145
11.9742	15.8353
11.9466	15.8386
11.9192	15.9793
11.8918	16.1528
11.8646	16.2608
11.8375	16.4712
11.8106	16.6839
11.7837	16.7249
11.757	16.7549
11.7304	16.9459
11.7039	17.1362
11.6776	17.3512
11.6513	17.6724
11.6252	17.9437
11.5992	18.115
11.5733	18.2868
11.5475	18.3895
11.5219	18.4477
11.4963	18.4991
11.4709	18.7627
11.4455	18.9003
11.4203	18.7273
11.3952	18.8107
11.3702	19.1138
11.3454	19.2851
11.3206	19.2983
11.2959	19.2461
11.2714	19.1891
11.2469	19.2185
11.2226	19.2686
11.1983	19.1142
11.1742	18.8267
11.1502	18.538
11.1263	18.195
11.1024	17.7516
11.0787	17.3639
11.0551	17.0459
11.0316	16.6528
11.0081	16.1477
10.9848	15.7975
10.9616	15.4
10.9385	14.8621
10.9154	14.2952
10.8925	13.7987
10.8697	13.3681
10.8469	13.0762
10.8243	12.8489
10.8017	12.5278
10.7793	12.3299
10.7569	12.2962
10.7346	12.2714
10.7125	12.1854
10.6904	12.1317
10.6684	11.9095
10.6465	11.6385
10.6247	11.4818
10.6029	11.2818
10.5813	11.0955
10.5597	11.0143
10.5383	10.8888
10.5169	10.729
10.4956	10.4986
10.4744	10.149
10.4533	9.87052
10.4323	9.65025
10.4113	9.40252
10.3904	9.23736
10.3697	8.98572
10.349	8.66033
10.3284	8.42855
10.3078	8.06243
10.2874	7.44085
10.267	6.8519
10.2467	6.77276
10.2265	6.79192
10.2064	6.64574
10.1863	6.57302
10.1663	6.4566
10.1464	6.26469
10.1266	6.21396
10.1069	6.31477
10.0872	6.29255
10.0676	6.08698
10.0481	5.84948
10.0287	5.27097
10.0093	5.29891
9.99005	5.82775
9.97084	6.3272
9.95169	6.60131
9.93263	6.78678
9.91364	6.96912
9.89472	7.05684
9.87587	7.14037
9.8571	7.27308
9.83839	7.2832
9.81976	7.13313
9.80119	7.09181
9.78271	7.26241
9.76428	7.34688
9.74592	7.324
9.72764	7.38576
9.70943	7.48103
9.69128	7.63507
9.6732	7.76667
9.65518	7.83666
9.63724	8.04989
9.61935	8.23739
9.60155	8.42994
9.5838	8.73077
9.56611	8.93367
9.5485	9.10195
9.53094	9.4615
9.51345	9.79727
9.49604	10.0657
9.47867	10.3803
9.46137	10.9612
9.44414	11.4857
9.42697	12.0634
9.40986	12.6624
9.39281	13.397
9.37583	14.138
9.35891	14.925
9.34204	15.7052
9.32524	16.4152
9.3085	17.1696
9.29182	17.9388
9.27519	18.632
9.25863	19.1308
9.24213	19.5815
9.22568	20.1589
9.2093	20.6799
9.19297	21.1589
9.17669	21.7078
9.16048	22.2553
9.14433	22.8177
9.12823	23.4528
9.11218	24.0381
9.0962	24.5
9.08027	24.9066
9.06439	25.3333
9.04858	25.707
9.03281	26.0896
9.0171	26.478
9.00145	27.0338
8.98585	27.5374
8.9703	27.879
8.9548	28.1466
8.93937	28.5464
8.92398	29.0778
8.90865	29.5643
8.89337	29.8778
8.87814	30.2908
8.86296	30.6537
8.84784	30.8365
8.83277	30.9817
8.81774	31.1472
8.80277	31.2736
8.78786	31.4275
8.77298	31.5592
8.75816	31.6515
8.7434	31.6718
8.72868	31.5474
8.714	31.3653
8.69938	31.2845
8.68481	30.8783
8.67029	30.3564
8.65581	29.6844
8.64139	28.7941
8.62701	27.7858
8.61268	26.4654
8.5984	24.8327
8.58416	23.1582
8.56997	21.5361
8.55583	20.362
8.54174	19.6623
8.52769	19.1938
8.51368	18.8943
8.49973	18.6123
8.48582	18.4128
8.47195	18.2512
8.45813	17.866
8.44436	17.4263
8.43062	16.8604
8.41693	16.2745
8.4033	15.6913
8.3897	15.0002
8.37614	14.3693
8.36264	13.8307
8.34917	13.5305
8.33574	13.3194
8.32236	13.1037
8.30903	12.9509
8.29573	12.803
8.28248	12.758
8.26927	12.7737
8.2561	12.7923
8.24298	12.8359
8.2299	12.9414
8.21685	12.9893
8.20385	13.0116
8.19089	12.9701
8.17797	12.8319
8.16509	12.94
8.15225	13.1588
8.13946	13.256
8.1267	13.1436
8.11398	13.013
8.10131	13.034
8.08867	13.0015
8.07606	13.0164
8.0635	12.9348
8.05099	12.9224
8.0385	12.9109
8.02606	12.8084
8.01366	12.5481
8.00129	12.1299
7.98896	11.66
7.97667	11.2465
7.96442	10.7399
7.9522	10.084
7.94002	9.29249
7.92788	8.39179
7.91578	7.35789
7.90371	6.17286
7.89168	5.02127
7.87969	4.12283
7.86773	3.34278
7.85581	2.76049
7.84392	2.30888
7.83207	1.93558
7.82026	1.63994
7.80849	1.30785
7.79674	1.04696
7.78503	0.896463
7.77337	0.751189
7.76173	0.686668
7.75012	0.642883
7.73856	0.619887
7.72703	0.622846
7.71553	0.570606
7.70406	0.555187
7.69263	0.525436
7.68123	0.534358
7.66987	0.634304
7.65855	0.678718
7.64725	0.678547
7.63598	0.616501
7.62475	0.691487
7.61356	0.862873
7.60239	0.965733
7.59126	1.04723
7.58017	1.16355
7.5691	1.26598
7.55806	1.46814
7.54707	1.57085
7.5361	1.59506
7.52516	1.70756
7.51425	1.89424
7.50338	2.07476
7.49253	2.28879
7.48172	2.51068
7.47094	2.69164
7.46019	2.92186
7.44947	3.21564
7.43879	3.42318
7.42813	3.69024
7.4175	3.93426
7.4069	4.16555
7.39634	4.38387
7.3858	4.63617
7.37529	4.86548
7.36482	5.12306
7.35437	5.31636
7.34396	5.46268
7.33357	5.61377
7.32321	5.7331
7.31288	5.83611
7.30258	6.06812
7.29231	6.43353
7.28207	6.80445
7.27185	7.04785
7.26167	7.27257
7.25152	7.52003
7.24139	7.78182
7.23129	8.05267
7.22122	8.46773
7.21117	8.96583
7.20116	9.36297
7.19117	9.73649
7.18121	10.213
7.17128	10.5839
7.16137	10.9563
7.1515	11.4057
7.14164	11.9426
7.13182	12.371
7.12203	12.7992
7.11225	13.2321
7.10251	13.6305
7.0928	14.0705
7.08311	14.5477
7.07344	14.9968
7.06381	15.0382
7.0542	14.5118
7.04461	13.9727
7.03506	14.817
7.02552	17.1588
7.01601	19.5169
7.00653	21.4221
6.99708	22.9973
6.98765	24.3984
6.97824	25.6058
6.96886	26.7922
6.95951	28.0051
6.95018	28.835
6.94087	29.5509
6.9316	30.259
6.92234	30.7557
6.91311	30.8908
6.90391	30.613
6.89473	29.6533
6.88557	27.4414
6.87644	24.4609
6.86733	23.8153
6.85824	26.7741
6.84918	30.2453
6.84015	32.8893
6.83114	34.942
6.82215	36.3979
6.81319	37.2836
6.80424	38.0122
6.79532	38.777
6.78643	39.5266
6.77756	40.2034
6.76871	40.9704
6.75989	41.758
6.75109	42.5113
6.74231	43.0725
6.73355	43.6093
6.72482	44.1163
6.71611	44.4856
6.70742	44.6706
6.69875	44.7185
6.69011	44.9636
6.68149	45.2308
6.67289	45.2417
6.66431	45.1447
6.65576	45.0161
6.64722	44.9929
6.63871	44.9488
6.63022	44.3001
6.62175	43.253
6.61331	42.2521
6.60488	41.1595
6.59648	39.8999
6.5881	38.3789
6.57974	36.8326
6.5714	35.1329
6.56308	33.1944
6.55478	31.3775
6.54651	29.4634
6.53825	27.6357
6.53001	26.0941
6.5218	24.7105
6.51361	23.2739
6.50544	22.0501
6.49729	20.9332
6.48915	19.5999
6.48104	18.2892
6.47295	17.2508
6.46488	16.4612
6.45683	15.9652
6.4488	15.7016
6.44079	15.6969
6.4328	15.9227
6.42482	16.1359
6.41687	16.4664
6.40894	16.5477
6.40103	16.4112
6.39314	16.4208
6.38526	16.6153
6.37741	17.0026
6.36957	17.5887
6.36176	18.0472
6.35396	18.4509
6.34618	18.9747
6.33843	19.4794
6.33069	19.9703
6.32297	20.5218
6.31527	20.9824
6.30758	21.3996
6.29992	21.6842
6.29227	21.8735
6.28465	21.8527
6.27704	21.5096
6.26945	20.8029
6.26188	19.6932
6.25432	18.3452
6.24679	17.1726
6.23927	16.6736
6.23177	17.009
6.22429	17.7912
6.21683	18.579
6.20938	19.1424
6.20195	19.1617
6.19454	18.4932
6.18715	17.4474
6.17978	16.6527
6.17242	17.0593
6.16508	18.3364
6.15776	20.084
6.15045	22.0675
6.14317	24.0614
6.1359	25.399
6.12864	26.0233
6.12141	26.4086
6.11419	26.7152
6.10699	26.874
6.0998	27.0904
6.09263	27.4449
6.08549	27.9358
6.07835	28.8129
6.07123	30.0074
6.06413	31.2502
6.05705	32.8283
6.04998	34.7397
6.04293	36.0996
6.0359	37.3199
6.02888	38.8583
6.02187	40.3407
6.01489	41.7306
6.00792	42.7604
6.00096	43.6918
5.99403	44.7582
5.98711	45.4386
5.9802	45.6484
5.97331	45.8319
5.96644	45.5897
5.95958	44.5282
5.95274	43.1419
5.94591	42.2521
5.9391	43.1895
5.9323	45.2927
5.92552	46.8868
5.91876	47.9249
5.91201	48.424
5.90528	48.8069
5.89856	49.2826
5.89186	49.3557
5.88517	49.6465
5.8785	49.9684
5.87184	49.7971
5.8652	49.8904
5.85857	49.9614
5.85196	49.8968
5.84536	49.7532
5.83878	49.6528
5.83221	49.6466
5.82566	49.7049
5.81912	49.4167
5.81259	48.8504
5.80608	48.4651
5.79959	48.2396
5.79311	48.1718
5.78665	48.4077
5.78019	48.8458
5.77376	49.5004
5.76734	50.2047
5.76093	50.2878
5.75453	50.2519
5.74815	50.5513
5.74179	50.7214
5.73543	50.8164
5.7291	50.9584
5.72277	51.1487
5.71646	51.3236
5.71017	51.4903
5.70389	51.4855
5.69762	51.58
5.69136	51.5935
5.68513	51.4458
5.6789	51.7145
5.67268	52.0245
5.66648	52.0059
5.6603	52.0741
5.65413	52.2765
5.64797	52.5238
5.64182	52.7344
5.63569	52.7261
5.62957	52.7301
5.62347	52.8755
5.61737	53.1623
5.61129	53.3882
5.60522	53.5594
5.59917	53.7524
5.59313	53.9626
5.5871	54.264
5.58109	54.596
5.57509	54.7665
5.5691	54.7567
5.56312	54.8899
5.55716	55.0908
5.55121	55.2779
5.54528	55.3389
5.53935	55.4586
5.53344	55.6013
5.52754	55.8065
5.52166	56.0806
5.51578	56.2116
5.50992	56.2303
5.50407	56.2668
5.49823	56.2856
5.49241	56.218
5.4866	56.0172
5.4808	55.8386
5.47501	55.7212
5.46923	55.6625
5.46347	55.6063
5.45772	55.3987
5.45198	55.3261
5.44625	55.3758
5.44054	55.3781
5.43484	55.4082
5.42914	55.4852
5.42347	55.6654
5.4178	55.5953
5.41214	55.4833
5.4065	55.4174
5.40087	55.3832
5.39525	55.3553
5.38964	55.3692
5.38404	55.4691
5.37846	55.6056
5.37288	55.797
5.36732	56
5.36177	56.3433
5.35623	56.816
5.35071	57.2936
5.34519	57.7045
5.33968	58.1795
5.33419	58.7518
5.32871	59.323
5.32324	59.9048
5.31778	60.5171
5.31233	61.0705
5.30689	61.5043
5.30147	61.8877
5.29605	62.3197
5.29065	62.7397
5.28525	63.0139
5.27987	63.3536
5.2745	63.6312
5.26914	63.8457
5.26379	64.0292
5.25845	64.2299
5.25312	64.3993
5.24781	64.5559
5.2425	64.6968
5.23721	64.7956
5.23192	64.8239
5.22665	64.7778
5.22138	64.7578
5.21613	64.8538
5.21089	64.8372
5.20566	64.7702
5.20044	64.7169
5.19522	64.5923
5.19002	64.4354
5.18483	64.3813
5.17965	64.2842
5.17448	64.0833
5.16933	63.7697
5.16418	63.347
5.15904	62.8298
5.15391	62.1837
5.14879	61.3131
5.14368	60.326
5.13859	59.9033
5.1335	60.2249
5.12842	60.4413
5.12335	60.2719
5.1183	59.7696
5.11325	59.1822
5.10821	58.5157
5.10318	57.8067
5.09817	57.0268
5.09316	56.0503
5.08816	54.8668
5.08317	53.4667
5.07819	51.8242
5.07322	49.8141
5.06826	47.0646
5.06331	43.6487
5.05837	39.4188
5.05344	34.0178
5.04852	27.6121
5.04361	21.2473
5.03871	17.2758
5.03382	17.829
5.02894	21.8565
5.02406	26.8037
5.0192	31.8774
5.01435	36.8075
5.0095	41.1925
5.00467	44.7349
4.99984	47.1596
4.99502	48.5339
4.99021	49.1954
4.98542	49.3636
4.98063	49.194
4.97585	48.8782
4.97108	48.4068
4.96632	47.8454
4.96156	47.2071
4.95682	46.3932
4.95209	45.4833
4.94736	44.5235
4.94264	43.4724
4.93794	42.327
4.93324	41.0839
4.92855	39.7709
4.92387	38.3336
4.9192	36.7494
4.91453	35.0921
4.90988	33.432
4.90524	31.6686
4.9006	29.8182
4.89597	27.9278
4.89135	25.9861
4.88674	23.9516
4.88214	21.8144
4.87755	19.6973
4.87296	17.6113
4.86839	15.6073
4.86382	13.7242
4.85926	12.0486
4.85471	10.5686
4.85017	9.28665
4.84564	8.3189
4.84111	7.71231
4.8366	7.44394
4.83209	7.37762
4.82759	7.355
4.8231	7.27679
4.81862	7.10563
4.81415	6.86076
4.80968	6.53284
4.80522	6.16755
4.80077	5.76313
4.79633	5.48599
4.7919	5.44731
4.78747	5.49999
4.78306	5.64866
4.77865	6.05838
4.77425	6.52017
4.76986	7.04748
4.76547	7.52917
4.7611	7.87954
4.75673	8.18481
4.75237	8.39242
4.74802	8.39383
4.74367	8.41036
4.73934	8.49563
4.73501	8.60035
4.73069	8.68101
4.72638	8.68797
4.72207	8.78183
4.71777	8.90313
4.71348	8.98789
4.7092	9.10035
4.70493	9.27793
4.70066	9.4571
4.69641	9.56341
4.69216	9.53528
4.68791	9.4336
4.68368	9.31554
4.67945	9.13504
4.67523	8.92131
4.67102	8.71136
4.66682	8.56067
4.66262	8.40235
4.65843	8.14308
4.65425	7.81218
4.65007	7.5786
4.64591	7.39488
4.64175	7.25742
4.6376	7.19007
4.63345	7.12386
4.62932	7.12049
4.62519	7.13381
4.62106	7.17665
4.61695	7.36541
4.61284	7.50414
4.60874	7.68538
4.60465	7.96515
4.60056	8.28122
4.59648	8.69348
4.59241	9.12348
4.58835	9.53123
4.58429	9.86642
4.58024	10.2392
4.5762	10.5593
4.57216	10.6476
4.56814	10.5974
4.56411	10.508
4.5601	10.3579
4.55609	10.3207
4.55209	10.2745
4.5481	10.2098
4.54411	10.1752
4.54013	9.94103
4.53616	9.69263
4.5322	9.60351
4.52824	9.51655
4.52429	9.40666
4.52034	9.35209
4.51641	9.22105
4.51247	9.09328
4.50855	9.02198
4.50463	8.96716
4.50072	8.93411
4.49682	8.95802
4.49292	9.05769
4.48903	9.16512
4.48515	9.22531
4.48127	9.36881
4.4774	9.57777
4.47354	9.78621
4.46968	10.2022
4.46584	10.6778
4.46199	10.9944
4.45815	11.3339
4.45432	11.8077
4.4505	12.3163
4.44668	12.7475
4.44287	13.146
4.43907	13.555
4.43527	13.8733
4.43148	14.1829
4.4277	14.5227
4.42392	14.8512
4.42015	15.1351
4.41638	15.3258
4.41262	15.3688
4.40887	15.4568
4.40513	15.7464
4.40139	15.9253
4.39765	16.0119
4.39393	16.1614
4.39021	16.3206
4.38649	16.5054
4.38278	16.7264
4.37908	16.8834
4.37539	17.0409
4.3717	17.1527
4.36801	17.2452
4.36434	17.4109
4.36067	17.5164
4.357	17.5358
4.35335	17.6492
4.34969	17.9047
4.34605	18.2409
4.34241	18.5675
4.33877	18.7772
4.33514	18.9239
4.33152	19.0448
4.32791	19.183
4.3243	19.2887
4.32069	19.3146
4.3171	19.3192
4.31351	19.4023
4.30992	19.5602
4.30634	19.7087
4.30277	19.9
4.2992	20.1462
4.29564	20.3688
4.29208	20.577
4.28853	20.7979
4.28499	20.9949
4.28145	21.2816
4.27792	21.558
4.27439	21.8198
4.27087	22.0775
4.26735	22.3843
4.26384	22.7796
4.26034	23.1093
4.25684	23.243
4.25335	23.1509
4.24986	22.9347
4.24638	22.6774
4.24291	22.2445
4.23944	21.8245
4.23598	21.5642
4.23252	21.3549
4.22906	21.0421
4.22562	20.7726
4.22218	20.6512
4.21874	20.5868
4.21531	20.5267
4.21189	20.4296
4.20847	20.3245
4.20506	20.3324
4.20165	20.4367
4.19825	20.4658
4.19485	20.4651
4.19146	20.5363
4.18807	20.598
4.18469	20.6593
4.18132	20.7663
4.17795	21.0026
4.17458	21.2134
4.17123	21.3338
4.16787	21.5463
4.16453	21.8375
4.16118	22.1453
4.15785	22.5129
4.15451	23.0845
4.15119	23.6461
4.14787	24.0975
4.14455	24.6887
4.14124	25.3607
4.13794	26.0459
4.13464	26.8331
4.13134	27.6047
4.12805	28.5427
4.12477	29.4794
4.12149	30.3585
4.11822	31.4007
4.11495	32.5517
4.11168	33.8209
4.10843	35.2026
4.10517	36.6307
4.10192	38.0352
4.09868	39.42
4.09545	40.7802
4.09221	42.0717
4.08899	43.236
4.08576	44.4963
4.08255	45.7635
4.07933	46.8349
4.07613	47.8373
4.07292	48.8313
4.06973	49.8026
4.06654	50.6939
4.06335	51.6
4.06017	52.4743
4.05699	53.2304
4.05382	53.9767
4.05065	54.6553
4.04749	55.3591
4.04433	56.0189
4.04118	56.5794
4.03803	57.1523
4.03489	57.861
4.03175	58.6243
4.02862	59.3472
4.02549	60.0471
4.02237	60.7072
4.01925	61.2685
4.01614	61.7618
4.01303	62.3195
4.00993	62.8553
4.00683	63.379
4.00373	63.9202
4.00064	64.3757
3.99756	64.7704
3.99448	65.1995
3.9914	65.6419
3.98833	65.9481
3.98527	66.163
3.98221	66.3014
3.97915	66.5084
3.9761	66.8775
3.97305	67.2761
3.97001	67.661
3.96697	68.0392
3.96394	68.3533
3.96091	68.5429
3.95789	68.7435
3.95487	68.9611
3.95186	69.1153
3.94885	69.2899
3.94584	69.5357
3.94284	69.7202
3.93984	69.9053
3.93685	70.1175
3.93386	70.3549
3.93088	70.5444
3.9279	70.7755
3.92493	71.0514
3.92196	71.2525
3.919	71.5708
3.91604	71.8862
3.91308	72.1117
3.91013	72.4359
3.90718	72.7135
3.90424	72.9773
3.9013	73.215
3.89837	73.5017
3.89544	73.7403
3.89252	73.9729
3.8896	74.2118
3.88668	74.4269
3.88377	74.6678
3.88086	74.8978
3.87796	74.9542
3.87506	74.835
3.87217	74.682
3.86928	74.5064
3.86639	74.1926
3.86351	73.8543
3.86064	73.6289
3.85776	73.4975
3.8549	73.485
3.85203	73.6948
3.84917	74.0521
3.84631	74.3907
3.84346	74.5289
3.84062	74.5056
3.83777	74.3617
3.83494	74.191
3.8321	74.1673
3.82927	74.3977
3.82644	74.8342
3.82362	75.3701
3.82081	75.9093
3.81799	76.3884
3.81518	76.7404
3.81238	77.0023
3.80958	77.1753
3.80678	77.3652
3.80399	77.5968
3.8012	77.7217
3.79841	77.9242
3.79563	78.2096
3.79286	78.3642
3.79008	78.5735
3.78731	78.9155
3.78455	79.29
3.78179	79.6415
3.77903	79.9561
3.77628	80.178
3.77353	80.3508
3.77079	80.531
3.76805	80.6802
3.76531	80.8245
3.76258	80.8846
3.75985	80.8967
3.75713	80.9507
3.7544	80.9736
3.75169	80.9168
3.74898	80.8252
3.74627	80.7575
3.74356	80.7353
3.74086	80.6992
3.73816	80.6291
3.73547	80.5765
3.73278	80.4911
3.7301	80.4319
3.72741	80.358
3.72474	80.2588
3.72206	80.1972
3.71939	80.1326
3.71673	80.166
3.71406	80.3927
3.71141	80.5238
3.70875	80.6252
3.7061	80.8421
3.70345	80.8842
3.70081	80.8149
3.69817	80.7842
3.69553	80.7641
3.6929	80.7854
3.69027	80.8185
3.68765	80.9247
3.68503	81.0553
3.68241	81.1685
3.6798	81.2493
3.67719	81.3512
3.67458	81.4829
3.67198	81.6216
3.66938	81.7312
3.66678	81.8411
3.66419	81.9822
3.66161	82.1553
3.65902	82.3656
3.65644	82.5243
3.65387	82.5923
3.65129	82.7272
3.64872	82.8598
3.64616	82.9296
3.64359	83.0109
3.64103	83.1918
3.63848	83.3116
3.63593	83.3209
3.63338	83.3716
3.63084	83.4226
3.6283	83.5249
3.62576	83.5751
3.62322	83.5499
3.62069	83.4877
3.61817	83.4399
3.61564	83.4216
3.61312	83.4122
3.61061	83.3913
3.6081	83.3703
3.60559	83.306
3.60308	83.295
3.60058	83.2704
3.59808	83.1731
3.59558	83.0691
3.59309	83.0127
3.59061	82.9234
3.58812	82.8647
3.58564	82.8144
3.58316	82.6906
3.58069	82.5599
3.57822	82.5325
3.57575	82.5124
3.57328	82.4024
3.57082	82.3172
3.56836	82.2956
3.56591	82.2743
3.56346	82.2472
3.56101	82.1107
3.55857	82.0628
3.55613	82.0754
3.55369	81.9433
3.55126	81.8528
3.54883	81.7719
3.5464	81.7097
3.54397	81.6639
3.54155	81.703
3.53914	81.6882
3.53672	81.6036
3.53431	81.5318
3.5319	81.4846
3.5295	81.5068
3.5271	81.531
3.5247	81.5351
3.52231	81.5317
3.51991	81.439
3.51753	81.3236
3.51514	81.206
3.51276	80.997
3.51038	80.7561
3.50801	80.5902
3.50563	80.5241
3.50327	80.362
3.5009	80.187
3.49854	80.1226
3.49618	80.1585
3.49382	80.2433
3.49147	80.307
3.48912	80.3246
3.48677	80.2296
3.48443	80.1584
3.48209	80.153
3.47975	80.1538
3.47742	80.1268
3.47509	80.0982
3.47276	80.1684
3.47044	80.2354
3.46812	80.2102
3.4658	80.2405
