Name: Syenite
Type: Rock
Class: Igneous
Subclass:  Alkalic 
Particle Size: Solid surface
Sample No.: Ward18.txt
Owner: JPL
Wavelength range:  VNIR SWIR IR
Origin: Ward's Collection of American Rocks.  Sample locality - Golden Cycle Mine, near Victor, Teller County, Colorado.
Collected by:  Ward's Natural Science
Description: A gray, medium-grained rock spotted with black prismatic
crystals.
Geologic age - Post-Oligocene.



Measurement: Hemispherical reflectance
First Column: X
Second Column: Y
X Units: Wavelength (micrometers)
Y Units: Reflectance (percent)
First X Value: 2.500
Last X Value: 0.400
Number of X Values: 2101
Additional information: None

2.500  12.879445
2.499  12.801276
2.498  13.018394
2.497  13.256547
2.496  12.455296
2.495  13.268582
2.494  12.755426
2.493  13.162899
2.492  12.824489
2.491  13.255608
2.490  12.757300
2.489  13.336439
2.488  12.835499
2.487  13.258198
2.486  13.014527
2.485  13.201447
2.484  13.114694
2.483  13.231315
2.482  13.169605
2.481  13.354033
2.480  13.283851
2.479  13.520117
2.478  13.245434
2.477  13.565977
2.476  13.328187
2.475  13.682903
2.474  13.452141
2.473  13.677503
2.472  13.590114
2.471  13.703038
2.470  13.750431
2.469  13.918048
2.468  13.713266
2.467  14.006603
2.466  13.800050
2.465  13.961772
2.464  13.836330
2.463  14.118917
2.462  14.032515
2.461  14.164226
2.460  14.259800
2.459  14.257860
2.458  14.314813
2.457  14.556207
2.456  14.371168
2.455  14.566123
2.454  14.465857
2.453  14.621629
2.452  14.601056
2.451  14.782439
2.450  14.732665
2.449  14.844511
2.448  14.844103
2.447  15.010620
2.446  14.943380
2.445  15.082110
2.444  14.995008
2.443  15.215545
2.442  15.166000
2.441  15.286303
2.440  15.274180
2.439  15.347494
2.438  15.291218
2.437  15.496901
2.436  15.505028
2.435  15.629320
2.434  15.688337
2.433  15.763203
2.432  15.778185
2.431  15.892093
2.430  15.882773
2.429  15.966685
2.428  15.970019
2.427  16.082852
2.426  16.114910
2.425  16.185372
2.424  16.156378
2.423  16.330599
2.422  16.287855
2.421  16.355443
2.420  16.385540
2.419  16.525375
2.418  16.464908
2.417  16.593898
2.416  16.574687
2.415  16.744691
2.414  16.729923
2.413  16.697205
2.412  16.709747
2.411  16.810863
2.410  16.752070
2.409  16.870990
2.408  16.898567
2.407  16.940056
2.406  16.910682
2.405  16.999963
2.404  16.989838
2.403  17.019535
2.402  17.004334
2.401  17.034554
2.400  17.038625
2.399  17.136946
2.398  17.019072
2.397  17.185119
2.396  17.228776
2.395  17.239784
2.394  17.247860
2.393  17.278207
2.392  17.264325
2.391  17.331967
2.390  17.349278
2.389  17.378714
2.388  17.329164
2.387  17.377417
2.386  17.401763
2.385  17.409700
2.384  17.451849
2.383  17.538301
2.382  17.487456
2.381  17.529460
2.380  17.543284
2.379  17.540444
2.378  17.585471
2.377  17.620486
2.376  17.577464
2.375  17.598300
2.374  17.576102
2.373  17.591474
2.372  17.599967
2.371  17.618564
2.370  17.634338
2.369  17.666281
2.368  17.698958
2.367  17.680681
2.366  17.683651
2.365  17.767791
2.364  17.734668
2.363  17.695190
2.362  17.695081
2.361  17.710929
2.360  17.683326
2.359  17.670863
2.358  17.709880
2.357  17.740305
2.356  17.732147
2.355  17.727747
2.354  17.712966
2.353  17.674388
2.352  17.695566
2.351  17.709943
2.350  17.673736
2.349  17.644550
2.348  17.680954
2.347  17.721055
2.346  17.753838
2.345  17.714223
2.344  17.745237
2.343  17.770733
2.342  17.749059
2.341  17.739469
2.340  17.823063
2.339  17.817194
2.338  17.805017
2.337  17.754226
2.336  17.810722
2.335  17.855590
2.334  17.931572
2.333  17.898341
2.332  17.937653
2.331  17.917100
2.330  17.944976
2.329  17.938835
2.328  18.008260
2.327  18.004413
2.326  18.044021
2.325  18.014976
2.324  18.070114
2.323  18.059162
2.322  18.058920
2.321  18.096446
2.320  18.187094
2.319  18.224473
2.318  18.279083
2.317  18.237930
2.316  18.264353
2.315  18.287955
2.314  18.306729
2.313  18.313858
2.312  18.366424
2.311  18.331812
2.310  18.404610
2.309  18.361160
2.308  18.483174
2.307  18.463868
2.306  18.497922
2.305  18.477459
2.304  18.494760
2.303  18.552543
2.302  18.577078
2.301  18.580521
2.300  18.652708
2.299  18.605362
2.298  18.640886
2.297  18.638792
2.296  18.746344
2.295  18.703416
2.294  18.763246
2.293  18.763389
2.292  18.837044
2.291  18.784378
2.290  18.818493
2.289  18.810994
2.288  18.890119
2.287  18.840965
2.286  18.856625
2.285  18.816744
2.284  18.896593
2.283  18.869179
2.282  18.889630
2.281  18.874614
2.280  18.999826
2.279  18.883449
2.278  18.910826
2.277  18.876047
2.276  18.910393
2.275  18.934062
2.274  18.981581
2.273  18.953265
2.272  18.957365
2.271  18.924576
2.270  19.066300
2.269  19.000634
2.268  19.021442
2.267  18.967202
2.266  19.034274
2.265  18.936274
2.264  19.059006
2.263  18.992236
2.262  19.062974
2.261  18.959200
2.260  19.044209
2.259  19.037350
2.258  19.099445
2.257  19.022876
2.256  19.130476
2.255  19.085018
2.254  19.091095
2.253  19.111634
2.252  19.119156
2.251  19.130622
2.250  19.156098
2.249  19.144862
2.248  19.146979
2.247  19.150994
2.246  19.266628
2.245  19.212212
2.244  19.271236
2.243  19.205270
2.242  19.402899
2.241  19.214802
2.240  19.420062
2.239  19.262997
2.238  19.394094
2.237  19.308453
2.236  19.465597
2.235  19.268932
2.234  19.442365
2.233  19.301872
2.232  19.377990
2.231  19.390105
2.230  19.492038
2.229  19.383193
2.228  19.477021
2.227  19.351441
2.226  19.480882
2.225  19.456405
2.224  19.534714
2.223  19.505102
2.222  19.526410
2.221  19.395718
2.220  19.509717
2.219  19.373232
2.218  19.565669
2.217  19.361513
2.216  19.606433
2.215  19.344102
2.214  19.578584
2.213  19.355750
2.212  19.643262
2.211  19.380579
2.210  19.684614
2.209  19.394409
2.208  19.589556
2.207  19.417290
2.206  19.581680
2.205  19.498174
2.204  19.525015
2.203  19.459815
2.202  19.523952
2.201  19.503561
2.200  19.586799
2.199  19.444067
2.198  19.513056
2.197  19.573136
2.196  19.581659
2.195  19.606315
2.194  19.605629
2.193  19.671366
2.192  19.795753
2.191  19.611211
2.190  19.679783
2.189  19.642176
2.188  19.732204
2.187  19.673399
2.186  19.775215
2.185  19.736284
2.184  19.808515
2.183  19.803389
2.182  19.895126
2.181  19.770997
2.180  19.884337
2.179  19.824255
2.178  19.924028
2.177  19.805729
2.176  19.894522
2.175  19.924961
2.174  19.914643
2.173  19.867631
2.172  19.977271
2.171  19.906912
2.170  19.991591
2.169  19.939357
2.168  20.073037
2.167  19.967498
2.166  20.021113
2.165  19.955945
2.164  20.066675
2.163  20.050943
2.162  20.103880
2.161  20.000350
2.160  20.089403
2.159  20.063068
2.158  20.090591
2.157  20.026634
2.156  20.105032
2.155  20.094111
2.154  20.103400
2.153  20.121423
2.152  20.106986
2.151  20.079489
2.150  20.155194
2.149  20.141154
2.148  20.258268
2.147  20.172362
2.146  20.213832
2.145  20.163403
2.144  20.199829
2.143  20.155504
2.142  20.185618
2.141  20.140476
2.140  20.198248
2.139  20.218566
2.138  20.286881
2.137  20.174325
2.136  20.240606
2.135  20.153780
2.134  20.231373
2.133  20.165254
2.132  20.268642
2.131  20.213793
2.130  20.281371
2.129  20.195986
2.128  20.203087
2.127  20.157257
2.126  20.272952
2.125  20.199592
2.124  20.108942
2.123  20.172612
2.122  20.278637
2.121  20.252579
2.120  20.231872
2.119  20.164461
2.118  20.167855
2.117  20.164710
2.116  20.242547
2.115  20.252089
2.114  20.227316
2.113  20.152241
2.112  20.176074
2.111  20.180269
2.110  20.248259
2.109  20.194822
2.108  20.210303
2.107  20.174143
2.106  20.278548
2.105  20.208669
2.104  20.169177
2.103  20.222472
2.102  20.244592
2.101  20.219591
2.100  20.238232
2.099  20.257869
2.098  20.265589
2.097  20.215370
2.096  20.303001
2.095  20.263069
2.094  20.233622
2.093  20.208042
2.092  20.274305
2.091  20.281168
2.090  20.266972
2.089  20.310758
2.088  20.353255
2.087  20.319241
2.086  20.300962
2.085  20.344608
2.084  20.393271
2.083  20.354970
2.082  20.335271
2.081  20.315873
2.080  20.377436
2.079  20.425458
2.078  20.358728
2.077  20.387961
2.076  20.402270
2.075  20.409432
2.074  20.412519
2.073  20.360216
2.072  20.387154
2.071  20.404741
2.070  20.424410
2.069  20.485148
2.068  20.463325
2.067  20.425312
2.066  20.451162
2.065  20.480173
2.064  20.435153
2.063  20.424006
2.062  20.434232
2.061  20.472859
2.060  20.441848
2.059  20.414056
2.058  20.422280
2.057  20.449866
2.056  20.437707
2.055  20.415863
2.054  20.445950
2.053  20.517391
2.052  20.474486
2.051  20.488966
2.050  20.480624
2.049  20.490625
2.048  20.485980
2.047  20.519356
2.046  20.450288
2.045  20.477808
2.044  20.502886
2.043  20.527903
2.042  20.524371
2.041  20.468036
2.040  20.428177
2.039  20.460059
2.038  20.416500
2.037  20.457033
2.036  20.458388
2.035  20.453070
2.034  20.476535
2.033  20.526916
2.032  20.461852
2.031  20.440598
2.030  20.431945
2.029  20.474434
2.028  20.411228
2.027  20.405748
2.026  20.416140
2.025  20.417452
2.024  20.345629
2.023  20.415290
2.022  20.338572
2.021  20.421235
2.020  20.392530
2.019  20.425412
2.018  20.340234
2.017  20.371187
2.016  20.320594
2.015  20.329176
2.014  20.328735
2.013  20.343409
2.012  20.325341
2.011  20.354745
2.010  20.273870
2.009  20.279976
2.008  20.215163
2.007  20.262675
2.006  20.209857
2.005  20.245155
2.004  20.149765
2.003  20.154752
2.002  20.110804
2.001  20.146553
2.000  20.121290
1.999  20.164289
1.998  20.105621
1.997  20.131969
1.996  20.036633
1.995  20.034698
1.994  20.004394
1.993  20.006444
1.992  19.958982
1.991  19.929156
1.990  19.913547
1.989  19.821211
1.988  19.720559
1.987  19.787761
1.986  19.808879
1.985  19.798153
1.984  19.682731
1.983  19.695034
1.982  19.598614
1.981  19.688140
1.980  19.592702
1.979  19.606846
1.978  19.446856
1.977  19.435763
1.976  19.420983
1.975  19.418872
1.974  19.314173
1.973  19.397734
1.972  19.203399
1.971  19.280395
1.970  19.105825
1.969  19.134471
1.968  19.060699
1.967  19.117837
1.966  19.018471
1.965  18.951307
1.964  18.896763
1.963  19.000444
1.962  18.889404
1.961  18.850966
1.960  18.731827
1.959  18.795267
1.958  18.681754
1.957  18.699045
1.956  18.555801
1.955  18.528477
1.954  18.469160
1.953  18.442186
1.952  18.408123
1.951  18.357879
1.950  18.259551
1.949  18.323467
1.948  18.156235
1.947  18.060262
1.946  18.061778
1.945  18.008115
1.944  17.955422
1.943  17.926576
1.942  17.829432
1.941  17.888296
1.940  17.566818
1.939  17.646678
1.938  17.491981
1.937  17.435885
1.936  17.322414
1.935  17.277432
1.934  17.161781
1.933  17.075869
1.932  16.888823
1.931  16.967187
1.930  16.805002
1.929  16.645213
1.928  16.436836
1.927  16.452267
1.926  16.069483
1.925  16.216402
1.924  15.785141
1.923  15.809542
1.922  15.497779
1.921  15.319702
1.920  15.081935
1.919  15.038660
1.918  14.740779
1.917  14.754563
1.916  14.452283
1.915  14.454416
1.914  14.287939
1.913  14.283648
1.912  14.236427
1.911  14.292711
1.910  14.337254
1.909  14.508951
1.908  14.678923
1.907  14.909014
1.906  15.123128
1.905  15.518976
1.904  15.747126
1.903  16.188295
1.902  16.400373
1.901  16.880700
1.900  17.010316
1.899  17.477936
1.898  17.648587
1.897  18.002655
1.896  18.122712
1.895  18.496233
1.894  18.575780
1.893  18.834712
1.892  18.937875
1.891  19.081120
1.890  19.250313
1.889  19.359485
1.888  19.493577
1.887  19.617249
1.886  19.687515
1.885  19.866573
1.884  19.840011
1.883  20.028737
1.882  20.050103
1.881  20.235070
1.880  20.284821
1.879  20.430246
1.878  20.445418
1.877  20.554196
1.876  20.522198
1.875  20.581271
1.874  20.555474
1.873  20.608524
1.872  20.541773
1.871  20.569231
1.870  20.489264
1.869  20.594924
1.868  20.551208
1.867  20.653785
1.866  20.696751
1.865  20.842662
1.864  20.856812
1.863  20.963721
1.862  20.967252
1.861  21.112218
1.860  21.061317
1.859  21.027434
1.858  21.009413
1.857  21.064897
1.856  20.940634
1.855  21.075577
1.854  21.099831
1.853  21.155967
1.852  21.096696
1.851  21.096404
1.850  21.087095
1.849  21.133521
1.848  21.053194
1.847  21.125792
1.846  21.100276
1.845  21.178137
1.844  21.089136
1.843  21.161597
1.842  21.143338
1.841  21.157819
1.840  21.187575
1.839  21.156704
1.838  21.063572
1.837  21.045165
1.836  21.077321
1.835  21.092284
1.834  21.090630
1.833  21.175935
1.832  21.148086
1.831  21.149403
1.830  21.111040
1.829  21.134188
1.828  21.080528
1.827  21.172136
1.826  21.065314
1.825  21.132659
1.824  21.136769
1.823  21.169760
1.822  21.172940
1.821  21.163370
1.820  21.101788
1.819  21.072558
1.818  21.054174
1.817  21.097664
1.816  21.028799
1.815  21.041746
1.814  21.063419
1.813  21.085080
1.812  20.996189
1.811  20.999020
1.810  21.044971
1.809  21.090297
1.808  21.070316
1.807  21.013394
1.806  20.937854
1.805  20.963392
1.804  20.973720
1.803  20.952735
1.802  20.952861
1.801  21.002136
1.800  21.008197
1.799  21.028402
1.798  20.979625
1.797  20.999120
1.796  21.007817
1.795  20.995432
1.794  21.018453
1.793  21.015989
1.792  20.934829
1.791  20.943413
1.790  20.963860
1.789  20.973360
1.788  20.997026
1.787  20.974457
1.786  20.948404
1.785  20.977843
1.784  20.990877
1.783  20.998984
1.782  20.979290
1.781  20.969127
1.780  20.990053
1.779  20.986538
1.778  20.960567
1.777  20.960650
1.776  20.953287
1.775  20.959532
1.774  20.980181
1.773  20.983190
1.772  21.020690
1.771  20.951534
1.770  20.958494
1.769  21.001969
1.768  21.048579
1.767  21.037857
1.766  21.043666
1.765  21.037941
1.764  21.059048
1.763  21.043791
1.762  21.084464
1.761  21.129440
1.760  21.145129
1.759  21.105034
1.758  21.115049
1.757  21.109997
1.756  21.119640
1.755  21.149682
1.754  21.150960
1.753  21.127552
1.752  21.173138
1.751  21.136618
1.750  21.147780
1.749  21.167186
1.748  21.166631
1.747  21.162280
1.746  21.235848
1.745  21.223752
1.744  21.229459
1.743  21.189487
1.742  21.188731
1.741  21.168471
1.740  21.190586
1.739  21.158879
1.738  21.247091
1.737  21.232983
1.736  21.283006
1.735  21.252748
1.734  21.253060
1.733  21.238909
1.732  21.291583
1.731  21.243436
1.730  21.302138
1.729  21.271085
1.728  21.241960
1.727  21.243620
1.726  21.316886
1.725  21.281027
1.724  21.352319
1.723  21.290673
1.722  21.280589
1.721  21.247427
1.720  21.280195
1.719  21.211832
1.718  21.294154
1.717  21.217599
1.716  21.271362
1.715  21.248298
1.714  21.226660
1.713  21.205010
1.712  21.218096
1.711  21.201771
1.710  21.256203
1.709  21.273636
1.708  21.285286
1.707  21.191473
1.706  21.269356
1.705  21.194323
1.704  21.213039
1.703  21.196009
1.702  21.315616
1.701  21.246899
1.700  21.239100
1.699  21.250175
1.698  21.258442
1.697  21.153133
1.696  21.239084
1.695  21.190565
1.694  21.191000
1.693  21.177157
1.692  21.299748
1.691  21.277951
1.690  21.252691
1.689  21.178387
1.688  21.260635
1.687  21.163381
1.686  21.223685
1.685  21.176266
1.684  21.281631
1.683  21.155518
1.682  21.220342
1.681  21.183909
1.680  21.222019
1.679  21.120019
1.678  21.202726
1.677  21.101228
1.676  21.240582
1.675  21.192320
1.674  21.197169
1.673  21.133653
1.672  21.217822
1.671  21.118775
1.670  21.297336
1.669  21.309773
1.668  21.108207
1.667  21.212666
1.666  21.197338
1.665  21.108093
1.664  21.243957
1.663  21.102381
1.662  21.180507
1.661  21.138311
1.660  21.237708
1.659  21.117361
1.658  21.185294
1.657  21.065967
1.656  21.252379
1.655  21.059552
1.654  21.157875
1.653  21.152643
1.652  21.181698
1.651  21.134057
1.650  21.188986
1.649  21.147759
1.648  21.156607
1.647  21.108861
1.646  21.250270
1.645  21.140594
1.644  21.169174
1.643  21.115178
1.642  21.263061
1.641  20.922857
1.640  21.290938
1.639  21.068525
1.638  21.180859
1.637  21.105592
1.636  21.182243
1.635  21.030524
1.634  21.140531
1.633  21.050729
1.632  21.138441
1.631  21.012562
1.630  21.099627
1.629  21.108271
1.628  21.150184
1.627  21.013857
1.626  21.150710
1.625  21.056310
1.624  21.129064
1.623  21.020685
1.622  21.071423
1.621  20.996998
1.620  21.115266
1.619  21.059003
1.618  21.132511
1.617  21.031136
1.616  21.173817
1.615  21.007392
1.614  21.037682
1.613  21.048285
1.612  21.051470
1.611  21.004095
1.610  21.104950
1.609  21.040982
1.608  21.080658
1.607  21.012500
1.606  21.117739
1.605  20.997024
1.604  21.042118
1.603  21.030763
1.602  21.063237
1.601  21.019688
1.600  21.061607
1.599  21.021161
1.598  21.063220
1.597  20.974475
1.596  21.032000
1.595  21.003414
1.594  21.005423
1.593  21.025131
1.592  21.045135
1.591  20.992682
1.590  20.998435
1.589  20.925973
1.588  21.073646
1.587  20.981608
1.586  20.999314
1.585  20.962550
1.584  21.004117
1.583  20.885329
1.582  20.941250
1.581  20.911744
1.580  20.968385
1.579  20.917610
1.578  20.960620
1.577  20.869243
1.576  20.900460
1.575  20.904651
1.574  20.938130
1.573  20.898503
1.572  20.906611
1.571  20.853991
1.570  20.947883
1.569  20.837650
1.568  20.941253
1.567  20.875640
1.566  20.924594
1.565  20.851585
1.564  20.894836
1.563  20.856459
1.562  20.863554
1.561  20.849874
1.560  20.885552
1.559  20.851699
1.558  20.877423
1.557  20.835029
1.556  20.843217
1.555  20.835671
1.554  20.888023
1.553  20.792136
1.552  20.809376
1.551  20.785031
1.550  20.817985
1.549  20.797855
1.548  20.813920
1.547  20.784607
1.546  20.817720
1.545  20.820911
1.544  20.800581
1.543  20.766407
1.542  20.805032
1.541  20.713484
1.540  20.741550
1.539  20.705716
1.538  20.737015
1.537  20.719799
1.536  20.725690
1.535  20.727622
1.534  20.750018
1.533  20.739913
1.532  20.693008
1.531  20.664879
1.530  20.736555
1.529  20.708541
1.528  20.707121
1.527  20.712322
1.526  20.752539
1.525  20.690094
1.524  20.664991
1.523  20.637247
1.522  20.642237
1.521  20.643293
1.520  20.675600
1.519  20.639926
1.518  20.601615
1.517  20.628874
1.516  20.612972
1.515  20.601075
1.514  20.609608
1.513  20.597518
1.512  20.604241
1.511  20.612869
1.510  20.614460
1.509  20.580202
1.508  20.589908
1.507  20.560674
1.506  20.523761
1.505  20.527007
1.504  20.540371
1.503  20.555579
1.502  20.507914
1.501  20.478613
1.500  20.495954
1.499  20.498153
1.498  20.509426
1.497  20.455539
1.496  20.384291
1.495  20.374695
1.494  20.349559
1.493  20.349903
1.492  20.372438
1.491  20.355997
1.490  20.317508
1.489  20.362808
1.488  20.325013
1.487  20.306163
1.486  20.287089
1.485  20.300070
1.484  20.244390
1.483  20.212865
1.482  20.193764
1.481  20.117212
1.480  20.064590
1.479  20.098574
1.478  20.131380
1.477  20.122488
1.476  20.041118
1.475  19.992846
1.474  19.900822
1.473  19.906092
1.472  19.840421
1.471  19.829444
1.470  19.740471
1.469  19.665038
1.468  19.705262
1.467  19.769340
1.466  19.763131
1.465  19.834696
1.464  19.845210
1.463  19.874738
1.462  19.805426
1.461  19.852331
1.460  19.897767
1.459  19.946203
1.458  19.866272
1.457  19.906531
1.456  19.866064
1.455  19.902936
1.454  19.817801
1.453  19.829645
1.452  19.804167
1.451  19.798919
1.450  19.696535
1.449  19.693915
1.448  19.622106
1.447  19.647342
1.446  19.578423
1.445  19.571798
1.444  19.448073
1.443  19.474387
1.442  19.387475
1.441  19.399701
1.440  19.254399
1.439  19.254707
1.438  19.116007
1.437  19.090255
1.436  18.956762
1.435  18.926109
1.434  18.725191
1.433  18.719410
1.432  18.532429
1.431  18.486721
1.430  18.405920
1.429  18.353371
