Name: Biotite Gneiss
Type: Rock
Class: Metamorphic
Subclass:  Gneiss 
Particle Size: Solid surface
Sample No.: Ward79.txt
Owner: JPL
Wavelength range:  VNIR SWIR IR 
Origin: Ward's Collection of American Rocks.  Sample locality - Uxbridge, Worcester County, Massachusetts.  Collected by - JPL.
Collected by:  Ward's Natural Science
Description: A banded rock.  Think bands of black mica alternate with
those of quartz and feldspar.  Geologic age - Pre-Cambrian.




Measurement: Hemispherical reflectance
First Column: X
Second Column: Y
X Units: Wavelength (micrometers)
Y Units: Reflectance (percent)
First X Value: 2.500
Last X Value: 0.400
Number of X Values: 2101
Additional information: None

2.500  40.485155
2.499  40.079264
2.498  40.183609
2.497  40.224498
2.496  39.913316
2.495  40.232295
2.494  40.280317
2.493  40.043776
2.492  40.123655
2.491  40.083363
2.490  40.305694
2.489  40.153920
2.488  40.354332
2.487  40.253001
2.486  40.360971
2.485  40.163500
2.484  40.300291
2.483  40.292475
2.482  40.265232
2.481  40.257656
2.480  40.310116
2.479  40.265462
2.478  40.265338
2.477  40.244038
2.476  40.286503
2.475  40.269294
2.474  40.243259
2.473  40.335955
2.472  40.426618
2.471  40.352335
2.470  40.390795
2.469  40.321055
2.468  40.415203
2.467  40.354863
2.466  40.420574
2.465  40.486725
2.464  40.519580
2.463  40.375685
2.462  40.452386
2.461  40.400133
2.460  40.559043
2.459  40.450649
2.458  40.523908
2.457  40.494646
2.456  40.480760
2.455  40.562064
2.454  40.542780
2.453  40.454838
2.452  40.559804
2.451  40.549167
2.450  40.621024
2.449  40.496852
2.448  40.504008
2.447  40.595539
2.446  40.542334
2.445  40.548508
2.444  40.528627
2.443  40.502655
2.442  40.572744
2.441  40.544653
2.440  40.514346
2.439  40.618225
2.438  40.465493
2.437  40.516526
2.436  40.588165
2.435  40.517768
2.434  40.562280
2.433  40.501241
2.432  40.531245
2.431  40.424531
2.430  40.511666
2.429  40.501874
2.428  40.500365
2.427  40.527074
2.426  40.462459
2.425  40.467126
2.424  40.535280
2.423  40.440277
2.422  40.440908
2.421  40.410032
2.420  40.467066
2.419  40.413973
2.418  40.410278
2.417  40.410426
2.416  40.366523
2.415  40.379381
2.414  40.376028
2.413  40.290663
2.412  40.326120
2.411  40.353814
2.410  40.327653
2.409  40.365048
2.408  40.278346
2.407  40.292410
2.406  40.386140
2.405  40.227939
2.404  40.317443
2.403  40.273786
2.402  40.216165
2.401  40.151761
2.400  40.227094
2.399  40.238649
2.398  40.269113
2.397  40.232933
2.396  40.275772
2.395  40.274104
2.394  40.331092
2.393  40.328025
2.392  40.274604
2.391  40.331318
2.390  40.349449
2.389  40.319363
2.388  40.373238
2.387  40.355123
2.386  40.380459
2.385  40.351724
2.384  40.347465
2.383  40.366093
2.382  40.396748
2.381  40.334110
2.380  40.318794
2.379  40.259896
2.378  40.223856
2.377  40.308856
2.376  40.312676
2.375  40.284681
2.374  40.257714
2.373  40.212667
2.372  40.189836
2.371  40.120311
2.370  40.075806
2.369  40.094520
2.368  40.043110
2.367  39.936334
2.366  39.916626
2.365  39.883340
2.364  39.843598
2.363  39.772409
2.362  39.732073
2.361  39.687019
2.360  39.609747
2.359  39.555364
2.358  39.496856
2.357  39.439540
2.356  39.360263
2.355  39.283578
2.354  39.265915
2.353  39.211649
2.352  39.176666
2.351  39.153696
2.350  39.090401
2.349  39.065494
2.348  39.046028
2.347  39.056829
2.346  39.030539
2.345  39.032116
2.344  39.006866
2.343  38.979866
2.342  38.987070
2.341  38.984038
2.340  39.030188
2.339  39.056816
2.338  39.073754
2.337  39.084434
2.336  39.148723
2.335  39.210799
2.334  39.276159
2.333  39.335710
2.332  39.359299
2.331  39.454777
2.330  39.468930
2.329  39.499117
2.328  39.628331
2.327  39.693528
2.326  39.717995
2.325  39.791845
2.324  39.856977
2.323  39.937326
2.322  39.996629
2.321  40.055093
2.320  40.113507
2.319  40.178831
2.318  40.240861
2.317  40.327696
2.316  40.352329
2.315  40.373342
2.314  40.428990
2.313  40.523795
2.312  40.505539
2.311  40.564710
2.310  40.651071
2.309  40.749667
2.308  40.747983
2.307  40.850709
2.306  40.886014
2.305  40.889912
2.304  40.983077
2.303  40.993488
2.302  40.970400
2.301  41.061290
2.300  41.065470
2.299  41.084947
2.298  41.061330
2.297  41.156766
2.296  41.218254
2.295  41.225260
2.294  41.171730
2.293  41.229373
2.292  41.262179
2.291  41.291072
2.290  41.198102
2.289  41.267448
2.288  41.290306
2.287  41.263686
2.286  41.252018
2.285  41.236954
2.284  41.180719
2.283  41.213219
2.282  41.254155
2.281  41.249722
2.280  41.239008
2.279  41.258327
2.278  41.179012
2.277  41.177543
2.276  41.170427
2.275  41.188867
2.274  41.166065
2.273  41.108010
2.272  41.028125
2.271  40.972377
2.270  40.925150
2.269  40.962088
2.268  40.939805
2.267  40.868680
2.266  40.724343
2.265  40.742788
2.264  40.621800
2.263  40.630424
2.262  40.605732
2.261  40.629596
2.260  40.468790
2.259  40.512880
2.258  40.441097
2.257  40.400670
2.256  40.402911
2.255  40.460295
2.254  40.350946
2.253  40.401116
2.252  40.414092
2.251  40.475898
2.250  40.547013
2.249  40.594807
2.248  40.649678
2.247  40.709651
2.246  40.735137
2.245  40.848918
2.244  40.786007
2.243  40.841088
2.242  40.920041
2.241  41.022349
2.240  41.009118
2.239  41.134175
2.238  41.100008
2.237  41.172557
2.236  41.239047
2.235  41.243869
2.234  41.256250
2.233  41.340059
2.232  41.302334
2.231  41.353417
2.230  41.401278
2.229  41.421949
2.228  41.391592
2.227  41.450935
2.226  41.412771
2.225  41.431235
2.224  41.387901
2.223  41.416204
2.222  41.431709
2.221  41.499976
2.220  41.398841
2.219  41.470216
2.218  41.358954
2.217  41.388512
2.216  41.379149
2.215  41.440997
2.214  41.378974
2.213  41.355724
2.212  41.410242
2.211  41.307706
2.210  41.379251
2.209  41.382658
2.208  41.262728
2.207  41.367750
2.206  41.274538
2.205  41.337661
2.204  41.271795
2.203  41.378767
2.202  41.312291
2.201  41.336622
2.200  41.276969
2.199  41.304966
2.198  41.266610
2.197  41.274188
2.196  41.244706
2.195  41.282604
2.194  41.236548
2.193  41.294052
2.192  41.261450
2.191  41.267107
2.190  41.309907
2.189  41.300920
2.188  41.305887
2.187  41.346312
2.186  41.260146
2.185  41.301918
2.184  41.345257
2.183  41.393612
2.182  41.347349
2.181  41.354928
2.180  41.299706
2.179  41.401503
2.178  41.329609
2.177  41.392494
2.176  41.324925
2.175  41.369179
2.174  41.381656
2.173  41.410235
2.172  41.381072
2.171  41.392133
2.170  41.395935
2.169  41.483895
2.168  41.427908
2.167  41.475520
2.166  41.435148
2.165  41.455546
2.164  41.449258
2.163  41.445944
2.162  41.451876
2.161  41.535115
2.160  41.442857
2.159  41.454634
2.158  41.434475
2.157  41.469047
2.156  41.468377
2.155  41.421379
2.154  41.440788
2.153  41.610433
2.152  41.545542
2.151  41.497020
2.150  41.490070
2.149  41.519370
2.148  41.451020
2.147  41.443405
2.146  41.428173
2.145  41.433948
2.144  41.388877
2.143  41.418149
2.142  41.397829
2.141  41.393544
2.140  41.329615
2.139  41.283028
2.138  41.338531
2.137  41.314943
2.136  41.275825
2.135  41.233619
2.134  41.252977
2.133  41.216919
2.132  41.183263
2.131  41.169875
2.130  41.125079
2.129  41.153889
2.128  41.092104
2.127  41.062064
2.126  40.998718
2.125  40.979079
2.124  40.951337
2.123  40.900993
2.122  40.834513
2.121  40.831850
2.120  40.785846
2.119  40.787777
2.118  40.640637
2.117  40.668329
2.116  40.646147
2.115  40.611643
2.114  40.571479
2.113  40.527166
2.112  40.484409
2.111  40.468831
2.110  40.450192
2.109  40.383721
2.108  40.333893
2.107  40.308274
2.106  40.220806
2.105  40.232228
2.104  40.194387
2.103  40.172822
2.102  40.138926
2.101  40.124603
2.100  40.018787
2.099  39.982525
2.098  40.007425
2.097  40.044312
2.096  39.990480
2.095  39.991439
2.094  40.023490
2.093  40.006128
2.092  39.990257
2.091  40.027510
2.090  39.990538
2.089  39.998717
2.088  40.033882
2.087  40.022379
2.086  39.943469
2.085  39.958165
2.084  39.972930
2.083  40.000852
2.082  40.002858
2.081  39.975918
2.080  39.958445
2.079  39.939988
2.078  39.892751
2.077  39.906276
2.076  39.888175
2.075  39.841053
2.074  39.853318
2.073  39.844170
2.072  39.805510
2.071  39.757294
2.070  39.783897
2.069  39.818721
2.068  39.772295
2.067  39.736996
2.066  39.726465
2.065  39.710320
2.064  39.736466
2.063  39.748844
2.062  39.736407
2.061  39.753470
2.060  39.733989
2.059  39.685365
2.058  39.654700
2.057  39.652530
2.056  39.683150
2.055  39.661154
2.054  39.634330
2.053  39.623760
2.052  39.603741
2.051  39.592645
2.050  39.585006
2.049  39.571880
2.048  39.604554
2.047  39.534056
2.046  39.538891
2.045  39.494121
2.044  39.523119
2.043  39.497743
2.042  39.503084
2.041  39.460168
2.040  39.499720
2.039  39.468581
2.038  39.430779
2.037  39.359954
2.036  39.364030
2.035  39.404148
2.034  39.472076
2.033  39.408086
2.032  39.352224
2.031  39.353661
2.030  39.340128
2.029  39.275717
2.028  39.259978
2.027  39.221548
2.026  39.213641
2.025  39.208502
2.024  39.234567
2.023  39.185161
2.022  39.139200
2.021  39.126457
2.020  39.120985
2.019  39.071462
2.018  39.098034
2.017  39.077560
2.016  39.078147
2.015  39.051735
2.014  39.051348
2.013  39.047625
2.012  39.074193
2.011  39.020994
2.010  38.985675
2.009  38.880053
2.008  38.928195
2.007  38.908033
2.006  38.875038
2.005  38.892513
2.004  38.937976
2.003  38.843434
2.002  38.839121
2.001  38.802457
2.000  38.789398
1.999  38.816113
1.998  38.780744
1.997  38.736611
1.996  38.764093
1.995  38.676241
1.994  38.685764
1.993  38.666181
1.992  38.644388
1.991  38.566991
1.990  38.637600
1.989  38.516904
1.988  38.533474
1.987  38.513093
1.986  38.519150
1.985  38.506194
1.984  38.496859
1.983  38.382632
1.982  38.458744
1.981  38.348073
1.980  38.382335
1.979  38.353731
1.978  38.320649
1.977  38.291998
1.976  38.330823
1.975  38.258025
1.974  38.251981
1.973  38.192440
1.972  38.194490
1.971  38.226351
1.970  38.245277
1.969  38.190185
1.968  38.192517
1.967  38.189691
1.966  38.167759
1.965  38.075343
1.964  38.128571
1.963  38.025942
1.962  38.078527
1.961  38.107470
1.960  38.029242
1.959  38.070190
1.958  37.987262
1.957  37.978540
1.956  38.021724
1.955  37.932695
1.954  38.037493
1.953  37.942972
1.952  37.948275
1.951  37.909087
1.950  37.939421
1.949  37.824344
1.948  37.942753
1.947  37.751885
1.946  37.904154
1.945  37.775744
1.944  37.844840
1.943  37.832237
1.942  37.838739
1.941  37.766809
1.940  37.776475
1.939  37.785402
1.938  37.808714
1.937  37.750146
1.936  37.759978
1.935  37.685513
1.934  37.820390
1.933  37.835488
1.932  37.738206
1.931  37.726326
1.930  37.661265
1.929  37.772224
1.928  37.825709
1.927  37.839235
1.926  37.658000
1.925  37.718362
1.924  37.736863
1.923  37.759600
1.922  37.735880
1.921  37.685758
1.920  37.803116
1.919  37.684107
1.918  37.749036
1.917  37.724908
1.916  37.740964
1.915  37.664011
1.914  37.701505
1.913  37.628083
1.912  37.654029
1.911  37.674168
1.910  37.692924
1.909  37.612356
1.908  37.703620
1.907  37.628897
1.906  37.752365
1.905  37.647474
1.904  37.752056
1.903  37.718696
1.902  37.749161
1.901  37.714015
1.900  37.795959
1.899  37.659048
1.898  37.792746
1.897  37.676539
1.896  37.719069
1.895  37.652306
1.894  37.675890
1.893  37.641514
1.892  37.698535
1.891  37.585143
1.890  37.675983
1.889  37.688154
1.888  37.645638
1.887  37.621170
1.886  37.661516
1.885  37.535148
1.884  37.615424
1.883  37.570927
1.882  37.640457
1.881  37.561179
1.880  37.569300
1.879  37.541498
1.878  37.520358
1.877  37.559612
1.876  37.554033
1.875  37.456678
1.874  37.518989
1.873  37.578096
1.872  37.557063
1.871  37.499307
1.870  37.588498
1.869  37.625060
1.868  37.598847
1.867  37.576225
1.866  37.595376
1.865  37.486847
1.864  37.430637
1.863  37.401653
1.862  37.446803
1.861  37.353260
1.860  37.409326
1.859  37.327246
1.858  37.358215
1.857  37.307336
1.856  37.283933
1.855  37.269565
1.854  37.296102
1.853  37.283914
1.852  37.314560
1.851  37.252460
1.850  37.256220
1.849  37.228801
1.848  37.214886
1.847  37.216644
1.846  37.175954
1.845  37.140271
1.844  37.182754
1.843  37.119065
1.842  37.103213
1.841  37.060973
1.840  37.075148
1.839  37.050867
1.838  37.039242
1.837  37.022503
1.836  37.039314
1.835  37.059064
1.834  37.111940
1.833  36.998296
1.832  36.988615
1.831  36.932186
1.830  36.932166
1.829  36.941683
1.828  36.909408
1.827  36.892534
1.826  36.838994
1.825  36.870370
1.824  36.858572
1.823  36.804414
1.822  36.839375
1.821  36.792632
1.820  36.766975
1.819  36.778421
1.818  36.817680
1.817  36.765895
1.816  36.716714
1.815  36.703192
1.814  36.730295
1.813  36.702459
1.812  36.652609
1.811  36.647446
1.810  36.634744
1.809  36.606208
1.808  36.639664
1.807  36.639808
1.806  36.603290
1.805  36.588858
1.804  36.586975
1.803  36.570437
1.802  36.546351
1.801  36.532365
1.800  36.544465
1.799  36.495301
1.798  36.501881
1.797  36.480517
1.796  36.485154
1.795  36.509119
1.794  36.507330
1.793  36.453546
1.792  36.396488
1.791  36.398794
1.790  36.394657
1.789  36.367401
1.788  36.356791
1.787  36.327892
1.786  36.295456
1.785  36.312094
1.784  36.304049
1.783  36.296196
1.782  36.286430
1.781  36.241088
1.780  36.231275
1.779  36.235210
1.778  36.232717
1.777  36.261600
1.776  36.218890
1.775  36.198674
1.774  36.194069
1.773  36.151903
1.772  36.113680
1.771  36.129070
1.770  36.108385
1.769  36.074827
1.768  36.012612
1.767  36.051680
1.766  36.071576
1.765  36.045790
1.764  36.029697
1.763  36.024420
1.762  35.989906
1.761  35.962633
1.760  35.956152
1.759  35.997897
1.758  35.980475
1.757  35.996091
1.756  35.933741
1.755  35.979313
1.754  35.909474
1.753  35.883810
1.752  35.897893
1.751  35.876977
1.750  35.840965
1.749  35.844345
1.748  35.825462
1.747  35.801949
1.746  35.797936
1.745  35.845949
1.744  35.802840
1.743  35.800891
1.742  35.784476
1.741  35.806275
1.740  35.736256
1.739  35.735648
1.738  35.757046
1.737  35.716425
1.736  35.661494
1.735  35.688130
1.734  35.654463
1.733  35.659312
1.732  35.646599
1.731  35.658286
1.730  35.649552
1.729  35.636537
1.728  35.558057
1.727  35.608876
1.726  35.570091
1.725  35.576566
1.724  35.610778
1.723  35.598873
1.722  35.537359
1.721  35.559760
1.720  35.537616
1.719  35.532894
1.718  35.495495
1.717  35.486946
1.716  35.438073
1.715  35.485145
1.714  35.451504
1.713  35.480902
1.712  35.420867
1.711  35.374016
1.710  35.343115
1.709  35.356568
1.708  35.372641
1.707  35.315216
1.706  35.272492
1.705  35.281980
1.704  35.342579
1.703  35.344740
1.702  35.216407
1.701  35.276694
1.700  35.259867
1.699  35.285235
1.698  35.195809
1.697  35.149991
1.696  35.138663
1.695  35.164375
1.694  35.127614
1.693  35.188966
1.692  35.068726
1.691  35.188878
1.690  35.056947
1.689  35.087956
1.688  35.044938
1.687  35.111362
1.686  35.034032
1.685  35.048643
1.684  35.069587
1.683  35.002242
1.682  35.017729
1.681  35.022967
1.680  34.982150
1.679  34.977569
1.678  34.956326
1.677  34.896316
1.676  34.936641
1.675  34.966102
1.674  34.862350
1.673  34.891376
1.672  34.833226
1.671  34.893641
1.670  34.824859
1.669  34.873111
1.668  34.702031
1.667  34.872272
1.666  34.797631
1.665  34.861937
1.664  34.677202
1.663  34.771577
1.662  34.720309
1.661  34.724670
1.660  34.720977
1.659  34.714867
1.658  34.694661
1.657  34.683719
1.656  34.726447
1.655  34.575145
1.654  34.597604
1.653  34.613319
1.652  34.598677
1.651  34.668269
1.650  34.525952
1.649  34.597206
1.648  34.567653
1.647  34.598021
1.646  34.420584
1.645  34.493927
1.644  34.538601
1.643  34.485637
1.642  34.491542
1.641  34.345241
1.640  34.449557
1.639  34.478147
1.638  34.410042
1.637  34.455372
1.636  34.372667
1.635  34.495696
1.634  34.364818
1.633  34.394147
1.632  34.271015
1.631  34.419109
1.630  34.201433
1.629  34.311974
1.628  34.249627
1.627  34.311857
1.626  34.308294
1.625  34.315519
1.624  34.264879
1.623  34.252374
1.622  34.155175
1.621  34.282112
1.620  34.244005
1.619  34.220853
1.618  34.179545
1.617  34.178054
1.616  34.185189
1.615  34.188257
1.614  34.114895
1.613  34.148758
1.612  34.065217
1.611  34.091719
1.610  34.117544
1.609  34.065666
1.608  34.031910
1.607  34.119389
1.606  34.039035
1.605  34.033787
1.604  33.980061
1.603  34.033923
1.602  33.994360
1.601  34.051650
1.600  33.984980
1.599  34.009356
1.598  33.909145
1.597  33.955787
1.596  33.901632
1.595  33.974208
1.594  33.897114
1.593  33.944151
1.592  33.882784
1.591  33.906363
1.590  33.849753
1.589  33.855327
1.588  33.793007
1.587  33.855421
1.586  33.807455
1.585  33.797269
1.584  33.775640
1.583  33.733505
1.582  33.719155
1.581  33.803387
1.580  33.685985
1.579  33.748072
1.578  33.686454
1.577  33.682740
1.576  33.630851
1.575  33.641381
1.574  33.665962
1.573  33.693645
1.572  33.653822
1.571  33.659656
1.570  33.624459
1.569  33.610502
1.568  33.581911
1.567  33.590013
1.566  33.554274
1.565  33.589507
1.564  33.558909
1.563  33.567876
1.562  33.507908
1.561  33.473360
1.560  33.438865
1.559  33.433361
1.558  33.440078
1.557  33.477522
1.556  33.457976
1.555  33.486180
1.554  33.414349
1.553  33.443352
1.552  33.390232
1.551  33.371794
1.550  33.380919
1.549  33.369014
1.548  33.304485
1.547  33.365678
1.546  33.336467
1.545  33.320879
1.544  33.306355
1.543  33.325448
1.542  33.261614
1.541  33.269484
1.540  33.277564
1.539  33.301153
1.538  33.218155
1.537  33.215042
1.536  33.243536
1.535  33.266944
1.534  33.251182
1.533  33.179322
1.532  33.190728
1.531  33.180078
1.530  33.125238
1.529  33.139045
1.528  33.123864
1.527  33.166007
1.526  33.128910
1.525  33.093416
1.524  33.091010
1.523  33.074444
1.522  33.077074
1.521  33.070270
1.520  33.039090
1.519  33.029717
1.518  33.048497
1.517  33.036963
1.516  33.033492
1.515  33.050326
1.514  33.031009
1.513  33.044145
1.512  33.021095
1.511  32.971446
1.510  32.974426
1.509  32.967392
1.508  32.920402
1.507  32.954786
1.506  32.895887
1.505  32.844843
1.504  32.876517
1.503  32.925613
1.502  32.901275
1.501  32.871170
1.500  32.867934
1.499  32.863510
1.498  32.864627
1.497  32.837501
1.496  32.806249
1.495  32.796866
1.494  32.799272
1.493  32.784497
1.492  32.791840
1.491  32.760270
1.490  32.712008
1.489  32.719367
1.488  32.730350
1.487  32.723917
1.486  32.717326
1.485  32.698261
1.484  32.683736
1.483  32.753884
1.482  32.740691
1.481  32.635218
1.480  32.636443
1.479  32.630074
1.478  32.632192
1.477  32.609373
1.476  32.605905
1.475  32.589477
1.474  32.599881
1.473  32.559903
1.472  32.531356
1.471  32.511533
1.470  32.553638
1.469  32.533543
1.468  32.500226
1.467  32.497799
1.466  32.497873
1.465  32.451865
1.464  32.489646
1.463  32.439557
1.462  32.431484
1.461  32.426197
1.460  32.432373
1.459  32.436793
1.458  32.434534
1.457  32.398687
1.456  32.427773
1.455  32.400593
1.454  32.370140
1.453  32.358936
1.452  32.369579
1.451  32.377993
1.450  32.385685
1.449  32.301598
1.448  32.266650
1.447  32.313275
1.446  32.295927
1.445  32.303929
1.444  32.314542
1.443  32.182372
1.442  32.194310
1.441  32.196476
1.440  32.241275
1.439  32.228068
1.438  32.189841
1.437  32.163226
1.436  32.126565
1.435  32.054464
1.434  32.132511
1.433  32.118473
1.432  32.135753
1.431  32.150874
