Name: Strontianite SrCO_3
Type: Mineral
Class: Carbonates
Subclass: 
Particle Size: 125-500um
Sample No.: C-1A
Owner: JPL
Wavelength range: VNIR-SWIR
Origin: Germany, Westphalia, Hamm.
Collected by:  Ward's
Description: 





Measurement: Hemispherical reflectance
First Column: X
Second Column: Y
X Units: Wavelength (micrometers)
Y Units: Reflectance (percent)
First X Value: 2.500
Last X Value: 0.400
Number of X Values: 2101
Additional information: c01aa.txt

2.500  41.261533
2.499  41.344855
2.498  41.561527
2.497  41.902138
2.496  41.753859
2.495  42.056919
2.494  42.083695
2.493  42.178994
2.492  42.388011
2.491  42.653673
2.490  42.863525
2.489  42.956048
2.488  43.343077
2.487  43.567769
2.486  43.878087
2.485  44.075480
2.484  44.514503
2.483  44.708492
2.482  45.187056
2.481  45.559193
2.480  46.016343
2.479  46.482574
2.478  47.027308
2.477  47.312160
2.476  47.923706
2.475  48.261528
2.474  48.828632
2.473  49.337082
2.472  49.786420
2.471  50.290551
2.470  50.782942
2.469  51.259745
2.468  51.913581
2.467  52.428302
2.466  52.910820
2.465  53.520777
2.464  54.137647
2.463  54.491838
2.462  55.080073
2.461  55.536925
2.460  56.010964
2.459  56.489488
2.458  56.968000
2.457  57.495795
2.456  57.891983
2.455  58.299230
2.454  58.794434
2.453  59.076849
2.452  59.561075
2.451  59.868040
2.450  60.200342
2.449  60.511030
2.448  60.838480
2.447  61.084764
2.446  61.452232
2.445  61.795348
2.444  62.083498
2.443  62.372820
2.442  62.614951
2.441  62.719796
2.440  62.894853
2.439  63.169867
2.438  63.394393
2.437  63.513113
2.436  63.728723
2.435  63.907038
2.434  64.167539
2.433  64.277310
2.432  64.430391
2.431  64.542888
2.430  64.742252
2.429  64.873725
2.428  64.943170
2.427  65.120640
2.426  65.211867
2.425  65.365915
2.424  65.552224
2.423  65.577386
2.422  65.715249
2.421  65.800387
2.420  65.959715
2.419  66.040490
2.418  66.065940
2.417  66.154478
2.416  66.326086
2.415  66.376293
2.414  66.440697
2.413  66.504304
2.412  66.523888
2.411  66.583801
2.410  66.623605
2.409  66.593531
2.408  66.717039
2.407  66.750227
2.406  66.683540
2.405  66.688331
2.404  66.691851
2.403  66.641608
2.402  66.583638
2.401  66.470836
2.400  66.370551
2.399  66.282184
2.398  66.229029
2.397  66.115542
2.396  65.952818
2.395  65.712519
2.394  65.576295
2.393  65.312977
2.392  65.018288
2.391  64.767843
2.390  64.425757
2.389  63.993800
2.388  63.587630
2.387  63.151425
2.386  62.739417
2.385  62.272551
2.384  61.809816
2.383  61.225708
2.382  60.701608
2.381  60.101831
2.380  59.500328
2.379  58.902084
2.378  58.211320
2.377  57.505990
2.376  56.851388
2.375  56.103792
2.374  55.378527
2.373  54.697767
2.372  53.986889
2.371  53.240690
2.370  52.515887
2.369  51.794676
2.368  51.115042
2.367  50.407282
2.366  49.765022
2.365  49.146477
2.364  48.549372
2.363  47.970397
2.362  47.341894
2.361  46.744194
2.360  46.185750
2.359  45.638247
2.358  45.138791
2.357  44.638765
2.356  44.164790
2.355  43.735947
2.354  43.367976
2.353  43.004000
2.352  42.680498
2.351  42.423097
2.350  42.162840
2.349  41.900181
2.348  41.721775
2.347  41.651681
2.346  41.560622
2.345  41.543556
2.344  41.521409
2.343  41.545170
2.342  41.702239
2.341  41.855022
2.340  42.055420
2.339  42.290985
2.338  42.527916
2.337  42.811053
2.336  43.161914
2.335  43.517571
2.334  43.859942
2.333  44.223879
2.332  44.601851
2.331  44.991532
2.330  45.345726
2.329  45.730758
2.328  46.108660
2.327  46.537450
2.326  46.915085
2.325  47.262809
2.324  47.579828
2.323  47.922892
2.322  48.226017
2.321  48.545809
2.320  48.801074
2.319  49.126169
2.318  49.429153
2.317  49.674670
2.316  49.919010
2.315  50.241877
2.314  50.524443
2.313  50.740291
2.312  51.009598
2.311  51.264702
2.310  51.431324
2.309  51.695715
2.308  51.893662
2.307  52.077410
2.306  52.300754
2.305  52.599833
2.304  52.806686
2.303  53.049536
2.302  53.299128
2.301  53.512143
2.300  53.675780
2.299  53.934707
2.298  54.092556
2.297  54.291924
2.296  54.513943
2.295  54.753916
2.294  54.991604
2.293  55.153328
2.292  55.355483
2.291  55.640995
2.290  55.871778
2.289  56.173606
2.288  56.355071
2.287  56.552992
2.286  56.805377
2.285  57.034418
2.284  57.239533
2.283  57.572424
2.282  57.845339
2.281  58.095355
2.280  58.309050
2.279  58.561398
2.278  58.856902
2.277  59.069443
2.276  59.350751
2.275  59.643597
2.274  59.986848
2.273  60.256489
2.272  60.440850
2.271  60.737801
2.270  60.948119
2.269  61.251022
2.268  61.602457
2.267  61.897747
2.266  62.104871
2.265  62.410228
2.264  62.717217
2.263  63.019135
2.262  63.223326
2.261  63.539871
2.260  63.843401
2.259  64.081932
2.258  64.356414
2.257  64.591939
2.256  64.857515
2.255  65.159407
2.254  65.423097
2.253  65.628070
2.252  65.864642
2.251  66.110416
2.250  66.347496
2.249  66.586288
2.248  66.870217
2.247  67.095935
2.246  67.327420
2.245  67.525632
2.244  67.746376
2.243  67.969400
2.242  68.220645
2.241  68.514283
2.240  68.701285
2.239  68.902136
2.238  69.043536
2.237  69.281327
2.236  69.516034
2.235  69.750230
2.234  69.953068
2.233  70.105211
2.232  70.324988
2.231  70.565247
2.230  70.766015
2.229  70.996783
2.228  71.126272
2.227  71.324580
2.226  71.482633
2.225  71.719753
2.224  71.861380
2.223  72.093381
2.222  72.264071
2.221  72.494094
2.220  72.572285
2.219  72.838857
2.218  73.010611
2.217  73.154216
2.216  73.255671
2.215  73.544866
2.214  73.611398
2.213  73.763208
2.212  73.909893
2.211  74.120633
2.210  74.196319
2.209  74.365714
2.208  74.443566
2.207  74.551727
2.206  74.694772
2.205  74.810721
2.204  74.891694
2.203  74.931334
2.202  74.903360
2.201  74.974332
2.200  75.002640
2.199  75.063015
2.198  74.900200
2.197  74.890789
2.196  74.838332
2.195  74.746210
2.194  74.643752
2.193  74.473766
2.192  74.428463
2.191  74.231303
2.190  74.061604
2.189  73.970342
2.188  73.812382
2.187  73.735255
2.186  73.493402
2.185  73.404400
2.184  73.272001
2.183  73.143507
2.182  73.036400
2.181  72.941979
2.180  72.888258
2.179  72.713212
2.178  72.721475
2.177  72.783082
2.176  72.762297
2.175  72.827053
2.174  72.929495
2.173  73.084889
2.172  73.209066
2.171  73.417618
2.170  73.601469
2.169  73.870977
2.168  74.089339
2.167  74.367661
2.166  74.698842
2.165  75.066879
2.164  75.394976
2.163  75.662114
2.162  75.957404
2.161  76.238760
2.160  76.452969
2.159  76.689016
2.158  76.981226
2.157  77.172424
2.156  77.359317
2.155  77.546706
2.154  77.752199
2.153  77.913749
2.152  78.039778
2.151  78.233605
2.150  78.339231
2.149  78.526252
2.148  78.710650
2.147  78.828126
2.146  78.963586
2.145  79.036001
2.144  79.106519
2.143  79.165432
2.142  79.272658
2.141  79.426162
2.140  79.457647
2.139  79.579341
2.138  79.568575
2.137  79.596440
2.136  79.668151
2.135  79.733868
2.134  79.789836
2.133  79.743123
2.132  79.806646
2.131  79.864319
2.130  79.822502
2.129  79.867599
2.128  79.937695
2.127  79.955029
2.126  79.935103
2.125  79.862262
2.124  79.863298
2.123  79.878359
2.122  79.842450
2.121  79.890475
2.120  79.856524
2.119  79.908604
2.118  79.938125
2.117  79.932236
2.116  79.949625
2.115  79.918201
2.114  79.935111
2.113  80.013450
2.112  80.021527
2.111  80.036567
2.110  80.012390
2.109  80.030800
2.108  80.064634
2.107  80.104291
2.106  80.116022
2.105  80.119317
2.104  80.111299
2.103  80.205289
2.102  80.144034
2.101  80.105801
2.100  80.090349
2.099  80.151237
2.098  80.227814
2.097  80.256428
2.096  80.289235
2.095  80.308300
2.094  80.307061
2.093  80.388543
2.092  80.410813
2.091  80.381475
2.090  80.408657
2.089  80.427269
2.088  80.455979
2.087  80.525691
2.086  80.580446
2.085  80.603142
2.084  80.606404
2.083  80.585717
2.082  80.581626
2.081  80.573309
2.080  80.639384
2.079  80.698913
2.078  80.687762
2.077  80.683372
2.076  80.649841
2.075  80.691613
2.074  80.724600
2.073  80.725495
2.072  80.737213
2.071  80.761633
2.070  80.741604
2.069  80.704186
2.068  80.745161
2.067  80.742221
2.066  80.758769
2.065  80.783629
2.064  80.745528
2.063  80.742026
2.062  80.756253
2.061  80.724508
2.060  80.727127
2.059  80.740285
2.058  80.724401
2.057  80.724068
2.056  80.678448
2.055  80.716847
2.054  80.725421
2.053  80.668731
2.052  80.604806
2.051  80.598860
2.050  80.586841
2.049  80.483180
2.048  80.421925
2.047  80.419991
2.046  80.359149
2.045  80.283836
2.044  80.151446
2.043  80.018954
2.042  79.978213
2.041  79.854561
2.040  79.713246
2.039  79.599833
2.038  79.423697
2.037  79.225691
2.036  79.018530
2.035  78.812740
2.034  78.613539
2.033  78.387239
2.032  78.103061
2.031  77.861298
2.030  77.654143
2.029  77.362285
2.028  77.010947
2.027  76.694499
2.026  76.387820
2.025  76.059016
2.024  75.659303
2.023  75.330593
2.022  75.028770
2.021  74.688561
2.020  74.370096
2.019  74.108774
2.018  73.885886
2.017  73.720180
2.016  73.577330
2.015  73.571574
2.014  73.616778
2.013  73.658826
2.012  73.760082
2.011  73.915841
2.010  74.137217
2.009  74.303424
2.008  74.430000
2.007  74.655397
2.006  74.879631
2.005  75.091229
2.004  75.302423
2.003  75.542695
2.002  75.741097
2.001  75.928744
2.000  76.085483
1.999  76.208159
1.998  76.399402
1.997  76.559388
1.996  76.665169
1.995  76.804191
1.994  76.912923
1.993  77.023807
1.992  77.093751
1.991  77.181799
1.990  77.239978
1.989  77.297369
1.988  77.341931
1.987  77.399836
1.986  77.459653
1.985  77.434477
1.984  77.469379
1.983  77.468302
1.982  77.486068
1.981  77.455574
1.980  77.470137
1.979  77.542053
1.978  77.532115
1.977  77.505904
1.976  77.516567
1.975  77.537880
1.974  77.570231
1.973  77.529191
1.972  77.631019
1.971  77.662666
1.970  77.590119
1.969  77.679175
1.968  77.772961
1.967  77.723188
1.966  77.946556
1.965  77.933541
1.964  77.967924
1.963  78.039721
1.962  78.016278
1.961  78.118654
1.960  78.189644
1.959  78.192840
1.958  78.251480
1.957  78.256283
1.956  78.370238
1.955  78.445201
1.954  78.411385
1.953  78.425105
1.952  78.439457
1.951  78.450162
1.950  78.505673
1.949  78.519709
1.948  78.550630
1.947  78.564821
1.946  78.622574
1.945  78.573585
1.944  78.580236
1.943  78.583539
1.942  78.609877
1.941  78.623538
1.940  78.614738
1.939  78.748181
1.938  78.673687
1.937  78.614037
1.936  78.678579
1.935  78.623057
1.934  78.691809
1.933  78.643183
1.932  78.707592
1.931  78.674072
1.930  78.706344
1.929  78.648025
1.928  78.707871
1.927  78.707548
1.926  78.663654
1.925  78.757940
1.924  78.747404
1.923  78.721101
1.922  78.711581
1.921  78.698551
1.920  78.740602
1.919  78.626596
1.918  78.728725
1.917  78.642155
1.916  78.648295
1.915  78.671563
1.914  78.609465
1.913  78.586807
1.912  78.515868
1.911  78.436789
1.910  78.443914
1.909  78.347320
1.908  78.348243
1.907  78.234919
1.906  78.091962
1.905  77.808547
1.904  77.796284
1.903  77.646299
1.902  77.378294
1.901  77.232621
1.900  77.081750
1.899  76.942170
1.898  76.845112
1.897  76.708113
1.896  76.553135
1.895  76.525282
1.894  76.454524
1.893  76.394520
1.892  76.302607
1.891  76.244794
1.890  76.223564
1.889  76.105279
1.888  76.165633
1.887  76.151157
1.886  76.168122
1.885  76.274691
1.884  76.263728
1.883  76.412005
1.882  76.641708
1.881  76.762626
1.880  76.965557
1.879  77.065941
1.878  77.265072
1.877  77.455656
1.876  77.755950
1.875  77.953634
1.874  78.103028
1.873  78.291896
1.872  78.481515
1.871  78.711455
1.870  78.985340
1.869  79.141646
1.868  79.264743
1.867  79.522485
1.866  79.659928
1.865  79.837535
1.864  79.921583
1.863  80.053798
1.862  80.189473
1.861  80.224572
1.860  80.313558
1.859  80.327958
1.858  80.440469
1.857  80.592337
1.856  80.605894
1.855  80.610190
1.854  80.739370
1.853  80.799984
1.852  80.806943
1.851  80.921368
1.850  80.999098
1.849  81.019474
1.848  81.071673
1.847  81.089017
1.846  81.161966
1.845  81.254646
1.844  81.313809
1.843  81.318708
1.842  81.347959
1.841  81.495291
1.840  81.512467
1.839  81.563824
1.838  81.650068
1.837  81.721747
1.836  81.763180
1.835  81.835069
1.834  81.881438
1.833  81.967159
1.832  82.048998
1.831  82.092916
1.830  82.228266
1.829  82.281179
1.828  82.324000
1.827  82.345857
1.826  82.365554
1.825  82.482033
1.824  82.545001
1.823  82.579822
1.822  82.593322
1.821  82.591172
1.820  82.626549
1.819  82.744271
1.818  82.762053
1.817  82.806443
1.816  82.922189
1.815  82.976215
1.814  82.972027
1.813  82.940468
1.812  82.995195
1.811  82.996023
1.810  83.024097
1.809  83.065533
1.808  83.077226
1.807  83.115484
1.806  83.163597
1.805  83.214141
1.804  83.209413
1.803  83.159595
1.802  83.231069
1.801  83.278909
1.800  83.258226
1.799  83.238572
1.798  83.241700
1.797  83.244695
1.796  83.289325
1.795  83.322661
1.794  83.323471
1.793  83.354469
1.792  83.327775
1.791  83.233345
1.790  83.232768
1.789  83.235186
1.788  83.225685
1.787  83.203160
1.786  83.172334
1.785  83.120994
1.784  83.059956
1.783  83.042579
1.782  82.992650
1.781  82.932833
1.780  82.811254
1.779  82.803835
1.778  82.795287
1.777  82.693240
1.776  82.690530
1.775  82.640581
1.774  82.608716
1.773  82.599998
1.772  82.546245
1.771  82.534767
1.770  82.532630
1.769  82.531467
1.768  82.528895
1.767  82.575967
1.766  82.586809
1.765  82.639994
1.764  82.631086
1.763  82.642273
1.762  82.649137
1.761  82.615322
1.760  82.621972
1.759  82.599995
1.758  82.589199
1.757  82.649276
1.756  82.651693
1.755  82.626410
1.754  82.657647
1.753  82.675723
1.752  82.691100
1.751  82.681602
1.750  82.647417
1.749  82.641536
1.748  82.709494
1.747  82.710037
1.746  82.631409
1.745  82.641041
1.744  82.654445
1.743  82.625165
1.742  82.661946
1.741  82.694533
1.740  82.730062
1.739  82.747998
1.738  82.778539
1.737  82.725577
1.736  82.741188
1.735  82.767376
1.734  82.715802
1.733  82.760573
1.732  82.800199
1.731  82.810974
1.730  82.786745
1.729  82.808384
1.728  82.881653
1.727  82.844573
1.726  82.863438
1.725  82.974096
1.724  82.897183
1.723  82.915517
1.722  82.950285
1.721  82.952683
1.720  82.900078
1.719  82.977009
1.718  83.020403
1.717  83.014662
1.716  83.050498
1.715  83.025513
1.714  83.094566
1.713  83.201666
1.712  83.157274
1.711  83.074459
1.710  83.127425
1.709  83.146622
1.708  83.182122
1.707  83.235951
1.706  83.200271
1.705  83.246497
1.704  83.266736
1.703  83.287108
1.702  83.311839
1.701  83.352028
1.700  83.311070
1.699  83.332013
1.698  83.369873
1.697  83.394473
1.696  83.374667
1.695  83.404165
1.694  83.341773
1.693  83.373679
1.692  83.444678
1.691  83.445952
1.690  83.484080
1.689  83.446612
1.688  83.433356
1.687  83.447134
1.686  83.437870
1.685  83.532738
1.684  83.509562
1.683  83.446237
1.682  83.483663
1.681  83.455537
1.680  83.449872
1.679  83.524345
1.678  83.444548
1.677  83.457591
1.676  83.439281
1.675  83.448410
1.674  83.404568
1.673  83.402227
1.672  83.474936
1.671  83.377360
1.670  83.394120
1.669  83.431967
1.668  83.319022
1.667  83.363832
1.666  83.314855
1.665  83.284621
1.664  83.380551
1.663  83.468131
1.662  83.464101
1.661  83.456685
1.660  83.470473
1.659  83.446695
1.658  83.558266
1.657  83.539714
1.656  83.464003
1.655  83.574878
1.654  83.516610
1.653  83.617393
1.652  83.626894
1.651  83.645774
1.650  83.599877
1.649  83.647037
1.648  83.666405
1.647  83.712160
1.646  83.619081
1.645  83.704288
1.644  83.586666
1.643  83.733085
1.642  83.590796
1.641  83.622710
1.640  83.708129
1.639  83.632207
1.638  83.651186
1.637  83.693882
1.636  83.629922
1.635  83.730116
1.634  83.723020
1.633  83.645693
1.632  83.590416
1.631  83.692170
1.630  83.686493
1.629  83.702641
1.628  83.721141
1.627  83.665769
1.626  83.755115
1.625  83.768155
1.624  83.678439
1.623  83.721454
1.622  83.759441
1.621  83.688089
1.620  83.726558
1.619  83.710095
1.618  83.689915
1.617  83.667902
1.616  83.786290
1.615  83.748707
1.614  83.763430
1.613  83.762079
1.612  83.704530
1.611  83.743622
1.610  83.748812
1.609  83.759406
1.608  83.762755
1.607  83.627223
1.606  83.698795
1.605  83.688765
1.604  83.727848
1.603  83.760733
1.602  83.750548
1.601  83.705913
1.600  83.739764
1.599  83.690993
1.598  83.618013
1.597  83.651456
1.596  83.716344
1.595  83.672385
1.594  83.660227
1.593  83.658460
1.592  83.557795
1.591  83.609243
1.590  83.501626
1.589  83.540076
1.588  83.545493
1.587  83.458295
1.586  83.431984
1.585  83.455383
1.584  83.444861
1.583  83.410227
1.582  83.386182
1.581  83.362043
1.580  83.340747
1.579  83.331980
1.578  83.270971
1.577  83.334640
1.576  83.358705
1.575  83.283905
1.574  83.361161
1.573  83.356807
1.572  83.370189
1.571  83.440154
1.570  83.399028
1.569  83.407671
1.568  83.424758
1.567  83.410760
1.566  83.440452
1.565  83.413109
1.564  83.437138
1.563  83.463031
1.562  83.406156
1.561  83.396410
1.560  83.437388
1.559  83.407513
1.558  83.484614
1.557  83.471186
1.556  83.418137
1.555  83.501991
1.554  83.477706
1.553  83.425150
1.552  83.370736
1.551  83.411385
1.550  83.411154
1.549  83.443866
1.548  83.349793
1.547  83.382791
1.546  83.454575
1.545  83.443157
1.544  83.372446
1.543  83.398082
1.542  83.404036
1.541  83.368680
1.540  83.374871
1.539  83.385362
1.538  83.404357
1.537  83.354535
1.536  83.354116
1.535  83.351947
1.534  83.346825
1.533  83.353216
1.532  83.380816
1.531  83.367102
1.530  83.325190
1.529  83.324408
1.528  83.294449
1.527  83.296421
1.526  83.280317
1.525  83.307850
1.524  83.272931
1.523  83.243380
1.522  83.246293
1.521  83.242782
1.520  83.265436
1.519  83.277727
1.518  83.221265
1.517  83.180903
1.516  83.202345
1.515  83.220308
1.514  83.213962
1.513  83.159193
1.512  83.131987
1.511  83.150953
1.510  83.128924
1.509  83.171034
1.508  83.184521
1.507  83.102022
1.506  83.089673
1.505  83.136259
1.504  83.126443
1.503  83.042601
1.502  83.007454
1.501  83.028558
1.500  83.008855
1.499  82.994584
1.498  82.971273
1.497  82.962882
1.496  82.985779
1.495  82.964185
1.494  82.983126
1.493  82.970766
1.492  82.938244
1.491  82.928644
1.490  82.893264
1.489  82.903488
1.488  82.920430
1.487  82.884428
1.486  82.845017
1.485  82.835032
1.484  82.873530
1.483  82.911650
1.482  82.884617
1.481  82.839119
1.480  82.780902
1.479  82.761277
1.478  82.777094
1.477  82.778732
1.476  82.765170
1.475  82.758050
1.474  82.759641
1.473  82.785497
1.472  82.770839
1.471  82.725603
1.470  82.720125
1.469  82.721152
1.468  82.677638
1.467  82.645579
1.466  82.697313
1.465  82.686575
1.464  82.656753
1.463  82.661212
1.462  82.676383
1.461  82.669252
1.460  82.676386
1.459  82.586312
1.458  82.606810
1.457  82.636478
1.456  82.634111
1.455  82.619992
1.454  82.621821
1.453  82.602382
1.452  82.597655
1.451  82.535864
1.450  82.578769
1.449  82.622669
1.448  82.678557
1.447  82.679446
1.446  82.630540
1.445  82.622985
1.444  82.625329
1.443  82.650988
1.442  82.638417
1.441  82.628412
1.440  82.632657
1.439  82.600337
1.438  82.670659
1.437  82.678489
1.436  82.621470
1.435  82.650320
1.434  82.614900
1.433  82.573239
1.432  82.581940
1.431  82.549237
1.430  82.572682
1.429  82.617978
1.428  82.592236
1.427  82.500636
1.426  82.566305
1.425  82.513080
1.424  82.590293
1.423  82.571540
1.422  82.620828
1.421  82.590142
1.420  82.560029
1.419  82.492323
1.418  82.471558
