Name: Andesite Porphyry
Type: Rock
Class: Igneous
Subclass:  Intermediate 
Particle Size: Solid surface
Sample No.: Ward30.txt
Owner: JPL
Wavelength range:  VNIR SWIR IR 
Origin: Ward's Collection of American Rocks.  Sample locality - Near Ward, Boulder county, Colorado.
Collected by:  Ward's Natural Science
Description: A light gray, porphyritic rock with phenocrysts of plagioclase
and hornblende in a fine crystalline groundmass.
Geologic age - Tertiary (Eocene).



Measurement: Hemispherical reflectance
First Column: X
Second Column: Y
X Units: Wavelength (micrometers)
Y Units: Reflectance (percent)
First X Value: 2.500
Last X Value: 0.400
Number of X Values: 2101
Additional information: None

2.500  16.066011
2.499  15.788443
2.498  16.050996
2.497  15.838168
2.496  15.670201
2.495  15.772552
2.494  16.133874
2.493  15.806188
2.492  16.160253
2.491  15.982499
2.490  16.266759
2.489  15.935937
2.488  16.150321
2.487  15.938262
2.486  16.226848
2.485  15.949278
2.484  16.281547
2.483  15.949669
2.482  16.306812
2.481  16.071553
2.480  16.448292
2.479  16.141450
2.478  16.352686
2.477  16.194085
2.476  16.348050
2.475  16.334571
2.474  16.412661
2.473  16.396579
2.472  16.586741
2.471  16.238039
2.470  16.523643
2.469  16.388390
2.468  16.603898
2.467  16.456813
2.466  16.545086
2.465  16.540239
2.464  16.626680
2.463  16.613355
2.462  16.723409
2.461  16.557095
2.460  16.706098
2.459  16.503341
2.458  16.765454
2.457  16.609994
2.456  16.800054
2.455  16.704611
2.454  16.809332
2.453  16.802278
2.452  16.833368
2.451  16.805194
2.450  16.921285
2.449  16.810823
2.448  16.982941
2.447  16.803529
2.446  16.964504
2.445  16.998652
2.444  17.030336
2.443  17.005594
2.442  16.962166
2.441  17.082833
2.440  17.104689
2.439  17.073795
2.438  17.243334
2.437  17.146145
2.436  17.156514
2.435  17.209303
2.434  17.338742
2.433  17.217526
2.432  17.304854
2.431  17.325313
2.430  17.385635
2.429  17.499011
2.428  17.391207
2.427  17.439528
2.426  17.545982
2.425  17.475039
2.424  17.567416
2.423  17.522628
2.422  17.600954
2.421  17.610743
2.420  17.675143
2.419  17.651391
2.418  17.687481
2.417  17.701579
2.416  17.773145
2.415  17.749421
2.414  17.785068
2.413  17.755521
2.412  17.816926
2.411  17.752199
2.410  17.936057
2.409  17.886937
2.408  17.865650
2.407  17.901053
2.406  17.934892
2.405  17.899172
2.404  17.989805
2.403  17.860801
2.402  17.920277
2.401  17.954897
2.400  17.989827
2.399  18.015400
2.398  17.973913
2.397  17.963281
2.396  18.082081
2.395  17.987741
2.394  18.055775
2.393  18.050148
2.392  18.044504
2.391  18.026330
2.390  18.048493
2.389  18.026660
2.388  18.062956
2.387  18.060620
2.386  18.025607
2.385  18.023564
2.384  18.099587
2.383  17.989521
2.382  18.017349
2.381  18.045173
2.380  18.042966
2.379  18.020450
2.378  18.072169
2.377  18.025226
2.376  17.979748
2.375  17.928336
2.374  17.936283
2.373  17.914237
2.372  17.874973
2.371  17.866160
2.370  17.864871
2.369  17.770056
2.368  17.812831
2.367  17.734494
2.366  17.687877
2.365  17.685571
2.364  17.654513
2.363  17.607698
2.362  17.579254
2.361  17.526599
2.360  17.482845
2.359  17.467232
2.358  17.398589
2.357  17.332353
2.356  17.352186
2.355  17.311502
2.354  17.251593
2.353  17.234561
2.352  17.171991
2.351  17.121538
2.350  17.056429
2.349  17.006375
2.348  17.020583
2.347  17.010777
2.346  16.989755
2.345  17.031653
2.344  16.971925
2.343  16.969329
2.342  16.978125
2.341  16.964792
2.340  17.015967
2.339  17.050467
2.338  17.056761
2.337  17.173980
2.336  17.225394
2.335  17.198998
2.334  17.222615
2.333  17.314185
2.332  17.296195
2.331  17.383166
2.330  17.394482
2.329  17.461306
2.328  17.548027
2.327  17.660065
2.326  17.711492
2.325  17.731009
2.324  17.794743
2.323  17.918011
2.322  17.928875
2.321  17.994801
2.320  18.051344
2.319  18.196802
2.318  18.180759
2.317  18.244949
2.316  18.351537
2.315  18.419953
2.314  18.416214
2.313  18.510504
2.312  18.504315
2.311  18.633823
2.310  18.695879
2.309  18.741419
2.308  18.816682
2.307  18.940253
2.306  18.934521
2.305  19.009805
2.304  19.067693
2.303  19.129826
2.302  19.164013
2.301  19.275457
2.300  19.310008
2.299  19.394331
2.298  19.376813
2.297  19.417121
2.296  19.464040
2.295  19.527611
2.294  19.495935
2.293  19.606752
2.292  19.642872
2.291  19.696436
2.290  19.681460
2.289  19.777063
2.288  19.755532
2.287  19.818854
2.286  19.849954
2.285  19.914227
2.284  19.921342
2.283  20.011552
2.282  19.950786
2.281  19.992903
2.280  19.986063
2.279  20.059337
2.278  20.036143
2.277  20.052101
2.276  19.990442
2.275  20.022672
2.274  20.011713
2.273  20.093304
2.272  20.055394
2.271  20.012504
2.270  19.951603
2.269  20.028739
2.268  19.902827
2.267  19.934482
2.266  19.903568
2.265  19.938302
2.264  19.909737
2.263  19.909908
2.262  19.851054
2.261  19.865279
2.260  19.734589
2.259  19.807244
2.258  19.721859
2.257  19.808711
2.256  19.693062
2.255  19.796092
2.254  19.671415
2.253  19.804513
2.252  19.722319
2.251  19.779158
2.250  19.737427
2.249  19.811063
2.248  19.888515
2.247  19.936133
2.246  19.912501
2.245  20.036932
2.244  20.033356
2.243  20.103249
2.242  20.097568
2.241  20.275689
2.240  20.307347
2.239  20.343160
2.238  20.290981
2.237  20.463026
2.236  20.446358
2.235  20.504046
2.234  20.552447
2.233  20.610875
2.232  20.647076
2.231  20.671461
2.230  20.623608
2.229  20.784055
2.228  20.633987
2.227  20.758400
2.226  20.686039
2.225  20.704355
2.224  20.676572
2.223  20.754257
2.222  20.633203
2.221  20.685776
2.220  20.571363
2.219  20.624521
2.218  20.552349
2.217  20.528244
2.216  20.383075
2.215  20.415723
2.214  20.243431
2.213  20.331974
2.212  20.213569
2.211  20.071518
2.210  20.136457
2.209  20.068067
2.208  19.981450
2.207  20.022831
2.206  19.910225
2.205  19.980982
2.204  19.895971
2.203  20.035454
2.202  19.973341
2.201  20.043974
2.200  20.074176
2.199  20.148210
2.198  20.031463
2.197  20.258312
2.196  20.168434
2.195  20.335213
2.194  20.226416
2.193  20.495425
2.192  20.387467
2.191  20.499946
2.190  20.586512
2.189  20.660960
2.188  20.636442
2.187  20.816908
2.186  20.792894
2.185  20.958567
2.184  20.906213
2.183  20.976900
2.182  21.024457
2.181  21.193342
2.180  21.120939
2.179  21.269090
2.178  21.284780
2.177  21.356726
2.176  21.361113
2.175  21.492307
2.174  21.507190
2.173  21.658889
2.172  21.576256
2.171  21.663609
2.170  21.648941
2.169  21.790502
2.168  21.786218
2.167  21.829129
2.166  21.855031
2.165  21.876450
2.164  21.880271
2.163  21.969702
2.162  21.972160
2.161  22.102908
2.160  22.027426
2.159  22.162976
2.158  22.120835
2.157  22.222961
2.156  22.242176
2.155  22.294720
2.154  22.309740
2.153  22.356984
2.152  22.408044
2.151  22.537788
2.150  22.465609
2.149  22.516634
2.148  22.514498
2.147  22.589096
2.146  22.594056
2.145  22.632245
2.144  22.611304
2.143  22.647676
2.142  22.676034
2.141  22.703570
2.140  22.678807
2.139  22.712573
2.138  22.687013
2.137  22.718988
2.136  22.684196
2.135  22.797806
2.134  22.773081
2.133  22.742384
2.132  22.681702
2.131  22.774218
2.130  22.714189
2.129  22.775976
2.128  22.714530
2.127  22.745871
2.126  22.698361
2.125  22.782845
2.124  22.704900
2.123  22.672691
2.122  22.678612
2.121  22.719921
2.120  22.683228
2.119  22.662745
2.118  22.600960
2.117  22.685355
2.116  22.600203
2.115  22.632813
2.114  22.640654
2.113  22.583009
2.112  22.572781
2.111  22.610677
2.110  22.576659
2.109  22.646045
2.108  22.587276
2.107  22.581749
2.106  22.511468
2.105  22.602657
2.104  22.622821
2.103  22.599839
2.102  22.553686
2.101  22.555855
2.100  22.578634
2.099  22.603465
2.098  22.561292
2.097  22.587796
2.096  22.584784
2.095  22.593923
2.094  22.567114
2.093  22.588330
2.092  22.551650
2.091  22.601693
2.090  22.619512
2.089  22.643929
2.088  22.638420
2.087  22.637963
2.086  22.674413
2.085  22.728935
2.084  22.693025
2.083  22.632838
2.082  22.659896
2.081  22.691084
2.080  22.680670
2.079  22.726781
2.078  22.751628
2.077  22.724620
2.076  22.690621
2.075  22.678718
2.074  22.620975
2.073  22.634582
2.072  22.696524
2.071  22.690821
2.070  22.681165
2.069  22.699448
2.068  22.752698
2.067  22.733817
2.066  22.676162
2.065  22.668746
2.064  22.714607
2.063  22.730044
2.062  22.741793
2.061  22.720805
2.060  22.664598
2.059  22.625564
2.058  22.694981
2.057  22.681613
2.056  22.693880
2.055  22.692754
2.054  22.667920
2.053  22.639389
2.052  22.648207
2.051  22.620005
2.050  22.580436
2.049  22.593216
2.048  22.600488
2.047  22.587571
2.046  22.652652
2.045  22.577978
2.044  22.540324
2.043  22.560228
2.042  22.619738
2.041  22.587413
2.040  22.546503
2.039  22.498899
2.038  22.470458
2.037  22.431905
2.036  22.438469
2.035  22.401286
2.034  22.477738
2.033  22.413509
2.032  22.409855
2.031  22.358276
2.030  22.361492
2.029  22.286233
2.028  22.320158
2.027  22.276131
2.026  22.300528
2.025  22.274371
2.024  22.246697
2.023  22.169106
2.022  22.198778
2.021  22.205623
2.020  22.218752
2.019  22.108852
2.018  22.096773
2.017  22.061584
2.016  22.133283
2.015  22.068123
2.014  22.045212
2.013  21.950898
2.012  22.037103
2.011  21.877212
2.010  21.958607
2.009  21.921567
2.008  21.918839
2.007  21.879367
2.006  21.910876
2.005  21.844560
2.004  21.809145
2.003  21.792904
2.002  21.762997
2.001  21.720086
2.000  21.709116
1.999  21.667089
1.998  21.696815
1.997  21.645904
1.996  21.694056
1.995  21.540489
1.994  21.584333
1.993  21.537934
1.992  21.648759
1.991  21.555368
1.990  21.558760
1.989  21.475412
1.988  21.486074
1.987  21.431183
1.986  21.451763
1.985  21.318087
1.984  21.384010
1.983  21.277220
1.982  21.412525
1.981  21.258067
1.980  21.262347
1.979  21.200895
1.978  21.251766
1.977  21.209957
1.976  21.282087
1.975  21.147862
1.974  21.206686
1.973  21.134642
1.972  21.079308
1.971  21.022886
1.970  21.104888
1.969  20.923456
1.968  21.031667
1.967  20.973139
1.966  21.006501
1.965  20.945359
1.964  20.948514
1.963  20.875692
1.962  20.903518
1.961  20.819451
1.960  20.846361
1.959  20.865235
1.958  20.855475
1.957  20.771064
1.956  20.870111
1.955  20.736499
1.954  20.780184
1.953  20.659964
1.952  20.699508
1.951  20.645167
1.950  20.636682
1.949  20.619031
1.948  20.748686
1.947  20.508765
1.946  20.621976
1.945  20.521741
1.944  20.775326
1.943  20.517835
1.942  20.569433
1.941  20.407840
1.940  20.513934
1.939  20.438037
1.938  20.447706
1.937  20.370056
1.936  20.504632
1.935  20.303613
1.934  20.463742
1.933  20.303207
1.932  20.372275
1.931  20.250148
1.930  20.379631
1.929  20.211330
1.928  20.250641
1.927  20.215029
1.926  20.070310
1.925  20.159687
1.924  20.175259
1.923  20.027184
1.922  20.098200
1.921  20.012683
1.920  20.104188
1.919  19.885576
1.918  20.042549
1.917  19.984967
1.916  20.006189
1.915  19.913627
1.914  20.005447
1.913  19.823152
1.912  20.016178
1.911  19.857868
1.910  20.110154
1.909  20.055983
1.908  20.204421
1.907  20.161124
1.906  20.201484
1.905  20.247455
1.904  20.397736
1.903  20.512163
1.902  20.595887
1.901  20.609982
1.900  20.852156
1.899  21.035564
1.898  21.224652
1.897  21.298680
1.896  21.528138
1.895  21.615026
1.894  21.854782
1.893  21.963750
1.892  22.197039
1.891  22.222456
1.890  22.371166
1.889  22.457231
1.888  22.607026
1.887  22.738621
1.886  22.860906
1.885  22.918012
1.884  23.053011
1.883  23.052350
1.882  23.225648
1.881  23.285106
1.880  23.358182
1.879  23.386832
1.878  23.574893
1.877  23.564059
1.876  23.598239
1.875  23.634110
1.874  23.714636
1.873  23.567552
1.872  23.689211
1.871  23.650997
1.870  23.747277
1.869  23.737109
1.868  23.787315
1.867  23.803440
1.866  23.924336
1.865  23.935059
1.864  24.029768
1.863  24.053757
1.862  24.145583
1.861  24.072615
1.860  24.111426
1.859  24.072726
1.858  24.179453
1.857  24.108600
1.856  24.141302
1.855  24.179683
1.854  24.235729
1.853  24.192899
1.852  24.232238
1.851  24.192298
1.850  24.221771
1.849  24.258735
1.848  24.209332
1.847  24.163053
1.846  24.229826
1.845  24.187433
1.844  24.292144
1.843  24.267580
1.842  24.324971
1.841  24.251968
1.840  24.291085
1.839  24.195421
1.838  24.284613
1.837  24.237519
1.836  24.195967
1.835  24.177386
1.834  24.263675
1.833  24.290634
1.832  24.357994
1.831  24.326935
1.830  24.309674
1.829  24.273490
1.828  24.269331
1.827  24.243134
1.826  24.338070
1.825  24.290122
1.824  24.380947
1.823  24.404357
1.822  24.341989
1.821  24.346175
1.820  24.364317
1.819  24.317616
1.818  24.390868
1.817  24.401047
1.816  24.489598
1.815  24.394422
1.814  24.415234
1.813  24.403529
1.812  24.403153
1.811  24.381112
1.810  24.440597
1.809  24.395012
1.808  24.386013
1.807  24.379806
1.806  24.437338
1.805  24.458010
1.804  24.491985
1.803  24.444715
1.802  24.405672
1.801  24.467137
1.800  24.522338
1.799  24.486615
1.798  24.475173
1.797  24.503231
1.796  24.502974
1.795  24.466975
1.794  24.461858
1.793  24.465723
1.792  24.451148
1.791  24.457737
1.790  24.454979
1.789  24.483262
1.788  24.494967
1.787  24.456533
1.786  24.455070
1.785  24.461238
1.784  24.444087
1.783  24.433293
1.782  24.456888
1.781  24.439941
1.780  24.401539
1.779  24.453023
1.778  24.466718
1.777  24.415958
1.776  24.406857
1.775  24.410281
1.774  24.438241
1.773  24.407420
1.772  24.343234
1.771  24.372764
1.770  24.384097
1.769  24.405116
1.768  24.404950
1.767  24.430842
1.766  24.431288
1.765  24.435336
1.764  24.417738
1.763  24.443932
1.762  24.443031
1.761  24.446301
1.760  24.409838
1.759  24.406258
1.758  24.386096
1.757  24.398308
1.756  24.415583
1.755  24.411371
1.754  24.380497
1.753  24.444002
1.752  24.373854
1.751  24.390474
1.750  24.378626
1.749  24.345238
1.748  24.360656
1.747  24.392903
1.746  24.368942
1.745  24.403418
1.744  24.392690
1.743  24.435071
1.742  24.391495
1.741  24.422570
1.740  24.385130
1.739  24.389900
1.738  24.383801
1.737  24.406037
1.736  24.377912
1.735  24.422280
1.734  24.367717
1.733  24.410811
1.732  24.347906
1.731  24.387828
1.730  24.350236
1.729  24.433717
1.728  24.386991
1.727  24.400639
1.726  24.387197
1.725  24.416946
1.724  24.404588
1.723  24.427144
1.722  24.383820
1.721  24.413229
1.720  24.385885
1.719  24.472792
1.718  24.369080
1.717  24.432955
1.716  24.455803
1.715  24.402796
1.714  24.389081
1.713  24.421465
1.712  24.371443
1.711  24.409860
1.710  24.347586
1.709  24.413884
1.708  24.352806
1.707  24.436129
1.706  24.359184
1.705  24.361945
1.704  24.347217
1.703  24.364247
1.702  24.332383
1.701  24.355195
1.700  24.412712
1.699  24.390983
1.698  24.258885
1.697  24.348307
1.696  24.313518
1.695  24.418582
1.694  24.361434
1.693  24.332288
1.692  24.304325
1.691  24.402669
1.690  24.313016
1.689  24.381276
1.688  24.258357
1.687  24.361395
1.686  24.258625
1.685  24.328554
1.684  24.259328
1.683  24.372156
1.682  24.279375
1.681  24.379805
1.680  24.268375
1.679  24.408034
1.678  24.165546
1.677  24.386129
1.676  24.295778
1.675  24.409064
1.674  24.235782
1.673  24.362616
1.672  24.214393
1.671  24.272736
1.670  24.306289
1.669  24.387196
1.668  24.259519
1.667  24.417825
1.666  24.201478
1.665  24.319289
1.664  24.307678
1.663  24.366153
1.662  24.291354
1.661  24.286872
1.660  24.193683
1.659  24.319145
1.658  24.261676
1.657  24.362657
1.656  24.298174
1.655  24.307373
1.654  24.264983
1.653  24.174667
1.652  24.258018
1.651  24.312268
1.650  24.214471
1.649  24.280061
1.648  24.264308
1.647  24.252080
1.646  24.207138
1.645  24.213793
1.644  24.245146
1.643  24.219542
1.642  24.236614
1.641  24.139626
1.640  24.244051
1.639  24.193903
1.638  24.117259
1.637  24.224494
1.636  24.172906
1.635  24.258941
1.634  24.139841
1.633  24.246830
1.632  24.153421
1.631  24.232395
1.630  24.154596
1.629  24.158740
1.628  24.121252
1.627  24.179289
1.626  24.146340
1.625  24.146083
1.624  24.039314
1.623  24.121986
1.622  24.082927
1.621  24.170538
1.620  24.107727
1.619  24.171499
1.618  24.082381
1.617  24.043546
1.616  24.024856
1.615  24.123843
1.614  24.000527
1.613  24.124005
1.612  23.987441
1.611  24.042701
1.610  24.002092
1.609  23.994126
1.608  23.951756
1.607  24.127193
1.606  24.019261
1.605  24.001425
1.604  23.932708
1.603  23.982868
1.602  23.958574
1.601  24.012041
1.600  23.887982
1.599  23.995144
1.598  23.893712
1.597  23.980129
1.596  23.976310
1.595  23.968027
1.594  23.921261
1.593  23.942783
1.592  23.872079
1.591  23.933140
1.590  23.871125
1.589  23.846040
1.588  23.815735
1.587  23.866914
1.586  23.804503
1.585  23.923815
1.584  23.882723
1.583  23.919690
1.582  23.800283
1.581  23.915308
1.580  23.743449
1.579  23.801336
1.578  23.758672
1.577  23.758401
1.576  23.713705
1.575  23.720354
1.574  23.736586
1.573  23.721477
1.572  23.722633
1.571  23.756331
1.570  23.665371
1.569  23.722744
1.568  23.712518
1.567  23.650257
1.566  23.600014
1.565  23.712489
1.564  23.624698
1.563  23.689241
1.562  23.639462
1.561  23.572352
1.560  23.579618
1.559  23.628765
1.558  23.549700
1.557  23.585384
1.556  23.592712
1.555  23.608758
1.554  23.529406
1.553  23.567544
1.552  23.509736
1.551  23.499709
1.550  23.474197
1.549  23.527145
1.548  23.467316
1.547  23.491750
1.546  23.405650
1.545  23.500692
1.544  23.513004
1.543  23.495748
1.542  23.468482
1.541  23.468616
1.540  23.471774
1.539  23.475501
1.538  23.405467
1.537  23.478226
1.536  23.443275
1.535  23.456569
1.534  23.469726
1.533  23.437401
1.532  23.401932
1.531  23.416331
1.530  23.402851
1.529  23.412535
1.528  23.357936
1.527  23.363397
1.526  23.355258
1.525  23.342197
1.524  23.347044
1.523  23.349515
1.522  23.359754
1.521  23.373611
1.520  23.331353
1.519  23.314566
1.518  23.310665
1.517  23.334138
1.516  23.305351
1.515  23.289026
1.514  23.248210
1.513  23.273050
1.512  23.274621
1.511  23.218791
1.510  23.205292
1.509  23.264608
1.508  23.203497
1.507  23.164955
1.506  23.169957
1.505  23.199584
1.504  23.201334
1.503  23.171842
1.502  23.182477
1.501  23.200901
1.500  23.166609
1.499  23.161947
1.498  23.173737
1.497  23.169530
1.496  23.181335
1.495  23.106809
1.494  23.106339
1.493  23.137907
1.492  23.073757
1.491  23.041426
1.490  23.085548
1.489  23.032021
1.488  23.051273
1.487  23.029924
1.486  22.991183
1.485  23.009444
1.484  22.988267
1.483  22.992044
1.482  22.958708
1.481  22.912202
1.480  22.969643
1.479  22.919581
1.478  22.892333
1.477  22.840628
1.476  22.844437
1.475  22.824539
1.474  22.790702
1.473  22.739124
1.472  22.812551
1.471  22.779868
1.470  22.765354
1.469  22.702292
1.468  22.741071
1.467  22.703238
1.466  22.761169
1.465  22.676487
1.464  22.680338
1.463  22.716172
1.462  22.710192
1.461  22.611827
1.460  22.651677
1.459  22.635378
1.458  22.620298
1.457  22.591916
1.456  22.651585
1.455  22.563632
1.454  22.645916
1.453  22.573563
1.452  22.558864
1.451  22.578322
1.450  22.608324
1.449  22.490043
1.448  22.502710
1.447  22.514543
1.446  22.536986
1.445  22.499068
1.444  22.462577
1.443  22.446937
1.442  22.516768
1.441  22.398674
1.440  22.487202
1.439  22.442070
1.438  22.409131
1.437  22.384972
1.436  22.403575
1.435  22.337666
1.434  22.330636
1.433  22.262016
1.432  22.244875
1.431  22.202757
