Name: Hypersthene Gabbro (Norite)
Type: Rock
Class: Igneous
Subclass:  Mafic 
Particle Size: Solid surface
Sample No.: Ward40.txt
Owner: JPL
Wavelength range:  IR 
Origin: Ward's Collection of American Rocks.  Sample locality - Elizabethtown, Essex County, New York.
Collected by:  Ward's Natural Science
Description: A brownish-black, granular rock composed of hypersthene,
plagioclase, garnet and magnetite.
Geologic age - Pre-Cambrian.



Measurement: Hemispherical reflectance
First Column: X
Second Column: Y
X Units: Wavelength (micrometers)
Y Units: Reflectance (percent)
First X Value: 15.3871
Last X Value: 1.9998
Number of X Values: 2257
Additional information: None

15.3871   5.51282
15.3416   4.71030
15.2964   4.33962
15.2514   4.46853
15.2066   4.48374
15.1622   4.41100
15.1180   4.39282
15.0740   4.08205
15.0303   4.10896
14.9869   4.06771
14.9437   3.72759
14.9008   3.69031
14.8581   3.90303
14.8156   4.04275
14.7734   4.16409
14.7314   4.11569
14.6897   4.12218
14.6482   4.32068
14.6069   4.27649
14.5659   4.28653
14.5251   4.27776
14.4845   4.11716
14.4442   4.25477
14.4041   4.32016
14.3642   4.40860
14.3245   4.50365
14.2850   4.38079
14.2458   4.39698
14.2068   4.47294
14.1679   4.51673
14.1293   4.59582
14.0909   4.71732
14.0528   4.79755
14.0148   4.71212
13.9770   4.56023
13.9394   4.68483
13.9021   4.80362
13.8649   4.79016
13.8279   4.91808
13.7911   5.15104
13.7546   5.16837
13.7182   5.24504
13.6820   5.27757
13.6460   4.99695
13.6101   4.95267
13.5745   5.24465
13.5391   5.37016
13.5038   5.29749
13.4687   5.22384
13.4339   5.21945
13.3991   5.31565
13.3646   5.27300
13.3302   5.24703
13.2961   5.11689
13.2621   4.92575
13.2282   4.89732
13.1946   4.98288
13.1611   5.13556
13.1278   5.25899
13.0946   5.34673
13.0616   5.21649
13.0288   5.17357
12.9962   5.07595
12.9637   5.17051
12.9313   5.21834
12.8992   5.20877
12.8672   5.29161
12.8353   5.37489
12.8036   5.35991
12.7721   5.29503
12.7407   5.32895
12.7095   5.45904
12.6784   5.30552
12.6475   5.27018
12.6167   5.33701
12.5861   5.41031
12.5556   5.37980
12.5253   5.38629
12.4951   5.44053
12.4651   5.44441
12.4352   5.58594
12.4054   5.78982
12.3758   5.91675
12.3463   6.03664
12.3170   6.24293
12.2878   6.23218
12.2588   6.27164
12.2299   6.47065
12.2011   6.69002
12.1725   6.78492
12.1439   6.88724
12.1156   6.98945
12.0873   7.33675
12.0592   7.48376
12.0312   7.44542
12.0034   7.73603
11.9757   8.07721
11.9481   8.19868
11.9206   8.24049
11.8933   8.24185
11.8661   8.29306
11.8390   8.34491
11.8120   8.55064
11.7852   8.84968
11.7584   9.08136
11.7318   9.14510
11.7053   9.36672
11.6790   9.71275
11.6527   9.90373
11.6266  10.04550
11.6006  10.48520
11.5747  10.78880
11.5489  10.79320
11.5233  10.88090
11.4977  11.13660
11.4723  11.32660
11.4469  11.55050
11.4217  11.67720
11.3966  11.62960
11.3716  11.68180
11.3468  11.65320
11.3220  11.71670
11.2973  11.89180
11.2728  12.07550
11.2483  12.25520
11.2240  12.49800
11.1997  12.75560
11.1756  13.07560
11.1515  13.20780
11.1276  13.20360
11.1038  13.33030
11.0801  13.38820
11.0564  13.38110
11.0329  13.53330
11.0095  13.50310
10.9862  13.47750
10.9629  13.54790
10.9398  13.63450
10.9168  13.57240
10.8938  13.47570
10.8710  13.38400
10.8483  13.25010
10.8256  13.26770
10.8031  13.24850
10.7806  13.34480
10.7582  13.57880
10.7360  13.81660
10.7138  13.93610
10.6917  14.02430
10.6697  14.13720
10.6478  14.34620
10.6260  14.58300
10.6042  14.97590
10.5826  15.19170
10.5610  15.29260
10.5396  15.54320
10.5182  15.89790
10.4969  16.14420
10.4757  16.37210
10.4546  16.71570
10.4335  16.99540
10.4126  17.17450
10.3917  17.57690
10.3709  17.82640
10.3502  17.86660
10.3296  17.88520
10.3091  17.91120
10.2886  17.93780
10.2683  17.95860
10.2480  18.06140
10.2277  18.07240
10.2076  18.07680
10.1876  18.15580
10.1676  18.36530
10.1477  18.58990
10.1279  18.65420
10.1081  18.69620
10.0885  18.64220
10.0689  18.63360
10.0494  18.61490
10.0299  18.68260
10.0106  18.83270
 9.9913  18.94910
 9.9720  18.92420
 9.9529  18.99390
 9.9338  19.16410
 9.9148  19.29220
 9.8959  19.38510
 9.8771  19.37780
 9.8583  19.21270
 9.8396  19.10460
 9.8210  19.00780
 9.8024  18.85200
 9.7839  18.74710
 9.7655  18.59570
 9.7471  18.39670
 9.7288  18.19230
 9.7106  17.90190
 9.6925  17.48880
 9.6744  17.06800
 9.6564  16.70930
 9.6384  16.51830
 9.6205  16.27280
 9.6027  15.85700
 9.5850  15.36100
 9.5673  15.11560
 9.5497  14.95800
 9.5321  14.60480
 9.5146  14.27060
 9.4972  13.96120
 9.4798  13.55500
 9.4625  13.26980
 9.4453  12.87850
 9.4281  12.56360
 9.4110  12.30330
 9.3940  12.06800
 9.3770  11.97090
 9.3600  11.80070
 9.3432  11.55350
 9.3264  11.43230
 9.3096  11.34220
 9.2930  11.16300
 9.2763  10.95840
 9.2598  10.93690
 9.2432  10.98410
 9.2268  10.94530
 9.2104  10.85210
 9.1941  10.85910
 9.1778  10.92990
 9.1616  11.11260
 9.1454  11.31320
 9.1293  11.33400
 9.1133  11.24480
 9.0973  11.36580
 9.0814  11.55560
 9.0655  11.63510
 9.0497  11.50900
 9.0339  11.25590
 9.0182  11.27620
 9.0025  11.35300
 8.9870  11.46090
 8.9714  11.33290
 8.9559  11.20610
 8.9405  11.23030
 8.9251  11.20280
 8.9097  11.13480
 8.8945  10.95180
 8.8792  10.86940
 8.8641  10.86400
 8.8489  10.75700
 8.8338  10.60300
 8.8188  10.49310
 8.8039  10.24290
 8.7889  10.06980
 8.7741   9.97261
 8.7592   9.87011
 8.7445   9.90302
 8.7297   9.83925
 8.7151   9.80381
 8.7005   9.77036
 8.6859   9.61965
 8.6714   9.47862
 8.6569   9.52579
 8.6425   9.54928
 8.6281   9.41604
 8.6137   9.11866
 8.5994   8.99434
 8.5852   8.97205
 8.5710   8.90880
 8.5569   8.90319
 8.5428   8.81492
 8.5287   8.70097
 8.5147   8.71093
 8.5008   8.74418
 8.4869   8.71554
 8.4730   8.58307
 8.4592   8.51226
 8.4454   8.45699
 8.4316   8.36946
 8.4180   8.28492
 8.4043   8.19199
 8.3907   7.92586
 8.3772   7.75275
 8.3637   7.78677
 8.3502   7.78711
 8.3368   7.61214
 8.3234   7.17117
 8.3100   6.92098
 8.2967   6.77267
 8.2835   6.37314
 8.2703   5.80916
 8.2571   5.42705
 8.2440   5.10476
 8.2309   4.75307
 8.2179   4.38503
 8.2049   4.07621
 8.1919   3.83477
 8.1790   3.64521
 8.1661   3.32853
 8.1532   3.05491
 8.1404   3.00149
 8.1277   2.92912
 8.1150   2.85687
 8.1023   2.73378
 8.0897   2.63831
 8.0770   2.61096
 8.0645   2.63126
 8.0520   2.66388
 8.0395   2.53446
 8.0270   2.45870
 8.0146   2.36867
 8.0023   2.33180
 7.9899   2.32782
 7.9776   2.31095
 7.9654   2.37358
 7.9532   2.32739
 7.9410   2.20566
 7.9288   2.19326
 7.9167   2.26467
 7.9047   2.26441
 7.8926   2.20360
 7.8807   2.23339
 7.8687   2.24168
 7.8568   2.21296
 7.8449   2.23190
 7.8330   2.32142
 7.8212   2.34255
 7.8094   2.33817
 7.7977   2.33765
 7.7860   2.30749
 7.7743   2.29338
 7.7627   2.33382
 7.7511   2.32976
 7.7395   2.40328
 7.7280   2.45752
 7.7165   2.50194
 7.7050   2.51994
 7.6936   2.56136
 7.6822   2.52010
 7.6708   2.50742
 7.6595   2.58701
 7.6482   2.60228
 7.6369   2.64725
 7.6257   2.63972
 7.6145   2.58155
 7.6033   2.66921
 7.5922   2.69571
 7.5811   2.55780
 7.5700   2.62435
 7.5590   2.69644
 7.5480   2.70216
 7.5370   2.70883
 7.5261   2.67566
 7.5152   2.65189
 7.5043   2.64550
 7.4935   2.75188
 7.4826   2.85654
 7.4718   2.88266
 7.4611   2.82824
 7.4504   2.86330
 7.4397   2.86617
 7.4290   2.88254
 7.4184   2.95377
 7.4078   2.93665
 7.3972   2.94833
 7.3867   3.02850
 7.3762   3.07013
 7.3657   3.05621
 7.3553   3.06102
 7.3449   3.06790
 7.3345   3.10621
 7.3241   3.24714
 7.3138   3.30393
 7.3035   3.26910
 7.2932   3.19717
 7.2830   3.26832
 7.2727   3.39548
 7.2626   3.39362
 7.2524   3.38927
 7.2423   3.43023
 7.2322   3.43793
 7.2221   3.48967
 7.2120   3.54255
 7.2020   3.59360
 7.1921   3.66687
 7.1821   3.75216
 7.1722   3.79351
 7.1623   3.80794
 7.1524   3.95040
 7.1425   3.93452
 7.1327   3.82205
 7.1229   3.87539
 7.1131   3.95936
 7.1034   4.01563
 7.0937   4.07883
 7.0840   4.04039
 7.0743   3.99921
 7.0647   3.96443
 7.0551   3.94166
 7.0455   4.04394
 7.0359   4.12136
 7.0264   4.05971
 7.0169   4.05643
 7.0074   4.12589
 6.9979   4.08430
 6.9885   4.01812
 6.9791   4.00583
 6.9697   4.09334
 6.9604   4.09896
 6.9510   4.07652
 6.9417   4.09991
 6.9324   4.07119
 6.9232   4.03552
 6.9140   3.95789
 6.9047   3.94129
 6.8956   3.98796
 6.8864   3.93791
 6.8773   3.96066
 6.8682   4.04793
 6.8591   4.09344
 6.8500   4.10568
 6.8410   4.04671
 6.8320   3.96144
 6.8230   4.02693
 6.8140   4.14298
 6.8051   4.14895
 6.7962   4.06859
 6.7873   4.11862
 6.7784   4.22072
 6.7695   4.17285
 6.7607   4.10666
 6.7519   4.16261
 6.7431   4.16418
 6.7344   4.14687
 6.7256   4.17806
 6.7169   4.20840
 6.7082   4.23794
 6.6996   4.21348
 6.6909   4.23760
 6.6823   4.23468
 6.6737   4.17594
 6.6651   4.20265
 6.6566   4.30502
 6.6480   4.28745
 6.6395   4.27383
 6.6310   4.23172
 6.6226   4.30310
 6.6141   4.33555
 6.6057   4.24915
 6.5973   4.19901
 6.5889   4.26557
 6.5805   4.27053
 6.5722   4.20377
 6.5639   4.25731
 6.5556   4.32330
 6.5473   4.27949
 6.5390   4.20968
 6.5308   4.21699
 6.5226   4.23839
 6.5144   4.19844
 6.5062   4.17971
 6.4981   4.19458
 6.4900   4.19162
 6.4818   4.14293
 6.4737   4.09480
 6.4657   4.01103
 6.4576   3.93304
 6.4496   3.94232
 6.4416   4.02419
 6.4336   4.09538
 6.4256   4.04186
 6.4177   4.05984
 6.4097   4.02194
 6.4018   3.89844
 6.3939   3.79540
 6.3860   3.67471
 6.3782   3.74959
 6.3704   3.74805
 6.3625   3.66711
 6.3547   3.62810
 6.3470   3.68997
 6.3392   3.72474
 6.3315   3.60056
 6.3237   3.60507
 6.3160   3.68510
 6.3083   3.66171
 6.3007   3.58040
 6.2930   3.48904
 6.2854   3.44247
 6.2778   3.37145
 6.2702   3.37331
 6.2626   3.35172
 6.2551   3.35657
 6.2476   3.38388
 6.2400   3.34991
 6.2325   3.34693
 6.2251   3.35989
 6.2176   3.35623
 6.2101   3.31547
 6.2027   3.35309
 6.1953   3.43593
 6.1879   3.34721
 6.1805   3.34902
 6.1732   3.46666
 6.1658   3.50534
 6.1585   3.47273
 6.1512   3.37701
 6.1439   3.40033
 6.1367   3.49378
 6.1294   3.49483
 6.1222   3.50688
 6.1149   3.50423
 6.1077   3.48811
 6.1006   3.43668
 6.0934   3.40898
 6.0862   3.49353
 6.0791   3.51056
 6.0720   3.46528
 6.0649   3.50986
 6.0578   3.62072
 6.0507   3.69369
 6.0437   3.52398
 6.0366   3.41637
 6.0296   3.37933
 6.0226   3.43894
 6.0156   3.52249
 6.0087   3.41641
 6.0017   3.35850
 5.9948   3.37237
 5.9878   3.44317
 5.9809   3.47930
 5.9740   3.48997
 5.9672   3.53089
 5.9603   3.48289
 5.9535   3.40196
 5.9466   3.33612
 5.9398   3.38179
 5.9330   3.61692
 5.9262   3.51858
 5.9195   3.30966
 5.9127   3.33122
 5.9060   3.42075
 5.8993   3.50009
 5.8926   3.53059
 5.8859   3.51768
 5.8792   3.47679
 5.8726   3.42639
 5.8659   3.40364
 5.8593   3.36721
 5.8527   3.44035
 5.8461   3.47212
 5.8395   3.40661
 5.8329   3.39000
 5.8264   3.44647
 5.8198   3.41049
 5.8133   3.32689
 5.8068   3.41160
 5.8003   3.47450
 5.7938   3.42485
 5.7874   3.44190
 5.7809   3.48202
 5.7745   3.51143
 5.7680   3.51786
 5.7616   3.46823
 5.7552   3.49127
 5.7489   3.52837
 5.7425   3.48886
 5.7361   3.47594
 5.7298   3.57946
 5.7235   3.61814
 5.7172   3.57978
 5.7109   3.60566
 5.7046   3.56558
 5.6983   3.54310
 5.6921   3.55092
 5.6858   3.58618
 5.6796   3.61994
 5.6734   3.64001
 5.6672   3.57597
 5.6610   3.56438
 5.6548   3.66844
 5.6487   3.73221
 5.6425   3.69708
 5.6364   3.64104
 5.6303   3.63119
 5.6242   3.57511
 5.6181   3.60099
 5.6120   3.67378
 5.6059   3.65937
 5.5999   3.62672
 5.5938   3.67659
 5.5878   3.66530
 5.5818   3.70421
 5.5758   3.86165
 5.5698   3.94406
 5.5638   3.84795
 5.5578   3.74236
 5.5519   3.78223
 5.5460   3.82853
 5.5400   3.81578
 5.5341   3.87508
 5.5282   3.95094
 5.5223   3.88689
 5.5164   3.84194
 5.5106   3.86796
 5.5047   3.92787
 5.4989   3.91584
 5.4931   3.88398
 5.4873   3.92078
 5.4815   4.01834
 5.4757   4.08095
 5.4699   4.08712
 5.4641   4.12176
 5.4584   4.09026
 5.4527   4.04635
 5.4469   4.01492
 5.4412   3.98497
 5.4355   4.01182
 5.4298   4.07630
 5.4241   4.07060
 5.4185   4.04324
 5.4128   4.11873
 5.4072   4.22379
 5.4015   4.24800
 5.3959   4.13823
 5.3903   4.13073
 5.3847   4.25656
 5.3791   4.24903
 5.3735   4.23130
 5.3680   4.22937
 5.3624   4.25265
 5.3569   4.33929
 5.3514   4.36853
 5.3458   4.33346
 5.3403   4.32193
 5.3348   4.26671
 5.3294   4.27057
 5.3239   4.32711
 5.3184   4.29502
 5.3130   4.29030
 5.3075   4.33340
 5.3021   4.38496
 5.2967   4.45524
 5.2913   4.43763
 5.2859   4.36509
 5.2805   4.39613
 5.2751   4.42539
 5.2698   4.38626
 5.2644   4.34462
 5.2591   4.35168
 5.2538   4.45221
 5.2485   4.56769
 5.2431   4.53119
 5.2378   4.35082
 5.2326   4.33505
 5.2273   4.46653
 5.2220   4.55590
 5.2168   4.49346
 5.2115   4.48884
 5.2063   4.49573
 5.2011   4.54335
 5.1959   4.61945
 5.1907   4.64493
 5.1855   4.62982
 5.1803   4.60341
 5.1751   4.58912
 5.1700   4.65525
 5.1648   4.68775
 5.1597   4.61562
 5.1545   4.63491
 5.1494   4.72435
 5.1443   4.74634
 5.1392   4.77243
 5.1341   4.73321
 5.1291   4.76819
 5.1240   4.84031
 5.1189   4.82788
 5.1139   4.76179
 5.1088   4.78404
 5.1038   4.88204
 5.0988   4.87730
 5.0938   4.89762
 5.0888   5.01483
 5.0838   5.09991
 5.0788   5.11771
 5.0738   4.99926
 5.0689   4.95960
 5.0639   5.03311
 5.0590   5.14354
 5.0541   5.13611
 5.0491   5.07499
 5.0442   5.08504
 5.0393   5.06846
 5.0344   5.07094
 5.0296   5.12053
 5.0247   5.21613
 5.0198   5.26665
 5.0150   5.25155
 5.0101   5.28051
 5.0053   5.29886
 5.0004   5.32377
 4.9956   5.41634
 4.9908   5.35877
 4.9860   5.30212
 4.9812   5.35594
 4.9765   5.42563
 4.9717   5.35458
 4.9669   5.32263
 4.9622   5.34218
 4.9574   5.41285
 4.9527   5.51249
 4.9480   5.43905
 4.9432   5.38781
 4.9385   5.44872
 4.9338   5.45987
 4.9291   5.42912
 4.9245   5.49911
 4.9198   5.54858
 4.9151   5.54778
 4.9105   5.58305
 4.9058   5.64510
 4.9012   5.64223
 4.8966   5.59706
 4.8919   5.58691
 4.8873   5.60021
 4.8827   5.59774
 4.8781   5.64690
 4.8736   5.67775
 4.8690   5.65315
 4.8644   5.67904
 4.8599   5.75859
 4.8553   5.66629
 4.8508   5.65276
 4.8462   5.69378
 4.8417   5.69377
 4.8372   5.72700
 4.8327   5.73818
 4.8282   5.80483
 4.8237   5.87842
 4.8192   5.87647
 4.8147   5.89843
 4.8103   5.85772
 4.8058   5.77830
 4.8014   5.76601
 4.7969   5.85446
 4.7925   5.82996
 4.7881   5.82023
 4.7836   5.88985
 4.7792   5.89023
 4.7748   5.93509
 4.7704   6.00803
 4.7660   5.95504
 4.7617   5.87616
 4.7573   5.88454
 4.7530   5.93128
 4.7486   6.00897
 4.7443   6.01703
 4.7399   5.91569
 4.7356   5.96853
 4.7313   6.15793
 4.7270   6.09191
 4.7226   6.06432
 4.7184   6.20419
 4.7141   6.18225
 4.7098   6.05771
 4.7055   5.98847
 4.7012   6.09013
 4.6970   6.22719
 4.6927   6.28751
 4.6885   6.26709
 4.6842   6.31299
 4.6800   6.35387
 4.6758   6.27384
 4.6716   6.22255
 4.6674   6.29061
 4.6632   6.36157
 4.6590   6.36690
 4.6548   6.34576
 4.6506   6.34427
 4.6465   6.34181
 4.6423   6.41865
 4.6382   6.55755
 4.6340   6.56803
 4.6299   6.53287
 4.6258   6.55267
 4.6216   6.62639
 4.6175   6.65425
 4.6134   6.71748
 4.6093   6.79106
 4.6052   6.78365
 4.6011   6.78383
 4.5971   6.80579
 4.5930   6.89955
 4.5889   6.94181
 4.5849   6.79835
 4.5808   6.78649
 4.5768   6.93264
 4.5727   7.04960
 4.5687   7.08348
 4.5647   7.04768
 4.5607   7.15589
 4.5567   7.23009
 4.5526   7.13660
 4.5487   7.04719
 4.5447   7.02805
 4.5407   7.01825
 4.5367   7.09216
 4.5328   7.17685
 4.5288   7.13342
 4.5248   7.20359
 4.5209   7.35313
 4.5170   7.40287
 4.5130   7.37329
 4.5091   7.42194
 4.5052   7.53892
 4.5013   7.53425
 4.4974   7.56906
 4.4935   7.58154
 4.4896   7.50484
 4.4857   7.52170
 4.4818   7.56543
 4.4779   7.53896
 4.4741   7.50428
 4.4702   7.49089
 4.4664   7.69982
 4.4625   7.78022
 4.4587   7.69717
 4.4549   7.66624
 4.4510   7.68440
 4.4472   7.75704
 4.4434   7.88820
 4.4396   7.89723
 4.4358   7.85968
 4.4320   7.90445
 4.4282   7.84466
 4.4245   7.73242
 4.4207   7.76944
 4.4169   7.84582
 4.4132   7.94941
 4.4094   8.03103
 4.4057   8.05609
 4.4019   8.08638
 4.3982   8.09573
 4.3945   8.03934
 4.3907   8.10837
 4.3870   8.11936
 4.3833   8.06899
 4.3796   8.15224
 4.3759   8.14659
 4.3722   8.03150
 4.3685   8.10825
 4.3649   8.28421
 4.3612   8.35012
 4.3575   8.28180
 4.3539   8.29107
 4.3502   8.29513
 4.3466   8.24619
 4.3429   8.26628
 4.3393   8.40822
 4.3357   8.50244
 4.3320   8.50426
 4.3284   8.49531
 4.3248   8.58197
 4.3212   8.50684
 4.3176   8.43825
 4.3140   8.52724
 4.3105   8.61260
 4.3069   8.53399
 4.3033   8.50552
 4.2997   8.55564
 4.2962   8.72343
 4.2926   8.76617
 4.2890   8.67351
 4.2855   8.61555
 4.2820   8.67610
 4.2784   8.65023
 4.2749   8.61551
 4.2714   8.74555
 4.2679   8.77795
 4.2644   8.68168
 4.2609   8.74592
 4.2574   8.92480
 4.2539   8.98585
 4.2504   8.89424
 4.2469   8.84689
 4.2434   8.87190
 4.2400   8.92048
 4.2365   8.94812
 4.2330   8.96373
 4.2296   9.05230
 4.2261   8.95402
 4.2227   8.86865
 4.2193   8.94086
 4.2158   9.09025
 4.2124   9.14287
 4.2090   9.13896
 4.2056   9.14144
 4.2022   9.16381
 4.1988   9.11447
 4.1954   9.13944
 4.1920   9.16957
 4.1886   9.15136
 4.1852   9.08261
 4.1818   9.07857
 4.1785   9.22143
 4.1751   9.17295
 4.1717   9.08079
 4.1684   9.20895
 4.1650   9.24775
 4.1617   9.27449
 4.1584   9.41341
 4.1550   9.40574
 4.1517   9.42012
 4.1484   9.42065
 4.1451   9.38394
 4.1418   9.38746
 4.1384   9.36004
 4.1351   9.34387
 4.1319   9.36750
 4.1286   9.41332
 4.1253   9.36513
 4.1220   9.29859
 4.1187   9.38688
 4.1155   9.42297
 4.1122   9.37861
 4.1089   9.47502
 4.1057   9.67474
 4.1024   9.60853
 4.0992   9.40311
 4.0959   9.35631
 4.0927   9.41660
 4.0895   9.40662
 4.0863   9.38071
 4.0830   9.45853
 4.0798   9.53884
 4.0766   9.55608
 4.0734   9.52173
 4.0702   9.60181
 4.0670   9.64223
 4.0639   9.47126
 4.0607   9.33129
 4.0575   9.26479
 4.0543   9.29844
 4.0511   9.36076
 4.0480   9.36922
 4.0448   9.50287
 4.0417   9.56859
 4.0385   9.62243
 4.0354   9.46807
 4.0323   9.44401
 4.0291   9.59638
 4.0260   9.65383
 4.0229   9.57302
 4.0197   9.46972
 4.0166   9.51110
 4.0135   9.56714
 4.0104   9.46046
 4.0073   9.40832
 4.0042   9.43605
 4.0011   9.47158
 3.9981   9.47824
 3.9950   9.40611
 3.9919   9.35808
 3.9888   9.38877
 3.9857   9.44919
 3.9827   9.43617
 3.9796   9.42696
 3.9766   9.43860
 3.9735   9.34831
 3.9705   9.30222
 3.9675   9.42053
 3.9644   9.44178
 3.9614   9.43070
 3.9584   9.41345
 3.9554   9.39057
 3.9523   9.47569
 3.9493   9.56219
 3.9463   9.57104
 3.9433   9.57331
 3.9403   9.48803
 3.9373   9.40263
 3.9343   9.48422
 3.9314   9.63520
 3.9284   9.68348
 3.9254   9.52135
 3.9224   9.53775
 3.9195   9.69839
 3.9165   9.72423
 3.9136   9.65265
 3.9106   9.69063
 3.9077   9.75480
 3.9047   9.64606
 3.9018   9.52523
 3.8988   9.47605
 3.8959   9.45643
 3.8930   9.58847
 3.8901   9.77314
 3.8872   9.77310
 3.8842   9.61730
 3.8813   9.48975
 3.8784   9.65687
 3.8755   9.79961
 3.8726   9.65783
 3.8697   9.65306
 3.8669   9.67091
 3.8640   9.75233
 3.8611   9.93130
 3.8582   9.88892
 3.8554   9.63911
 3.8525   9.71537
 3.8496   9.79797
 3.8468   9.70818
 3.8439   9.63354
 3.8411   9.74043
 3.8382   9.72067
