Name: Rhodonite (Mn,Ca)SiO_3
Type: Mineral
Class: Silicates
Subclass: Inosilicates
Particle Size: 0-45um
Sample No.: IN-1A
Owner: JPL
Wavelength range: IR
Origin: USA, California, Fresno County
Collected by Burminco
Description: 





Measurement: Hemispherical reflectance
First Column: X
Second Column: Y
X Units:  Wavelength (micrometers)
Y Units:  Reflectance (percent)
First X Value: 15.3853
Last X Value: 2.00032
Number of X Values: 2256
Additional information: in01aa.txt
 
15.3853	4.00861
15.3397	4.0126
15.2945	4.20758
15.2495	4.31168
15.2048	4.13258
15.1603	3.98749
15.1161	3.92713
15.0722	4.02588
15.0285	4.11324
14.9851	4.0435
14.9419	3.87639
14.8989	3.69719
14.8563	3.78343
14.8138	3.90392
14.7716	4.03513
14.7296	4.27449
14.6879	4.58214
14.6464	4.91584
14.6052	5.09138
14.5641	4.98549
14.5233	4.80337
14.4828	4.75911
14.4424	4.85409
14.4023	4.72675
14.3624	4.70571
14.3227	5.05373
14.2833	5.47879
14.244	5.58403
14.205	5.64051
14.1662	5.72823
14.1276	5.58476
14.0892	5.19286
14.051	4.8804
14.0131	4.74733
13.9753	4.51445
13.9377	4.34728
13.9004	4.38167
13.8632	4.35026
13.8262	4.29986
13.7895	4.48874
13.7529	4.98517
13.7165	5.61139
13.6803	6.29816
13.6443	6.9465
13.6085	7.58984
13.5729	8.18595
13.5374	8.65664
13.5022	9.05744
13.4671	9.69123
13.4322	10.2854
13.3975	10.8696
13.363	11.3231
13.3286	11.6204
13.2944	11.9318
13.2604	12.3398
13.2266	12.8367
13.193	13.0059
13.1595	12.8779
13.1262	12.7928
13.093	12.8594
13.06	13.0733
13.0272	13.2937
12.9946	13.3867
12.9621	13.3851
12.9298	13.3187
12.8976	13.0561
12.8656	12.9564
12.8337	12.9493
12.8021	13.0214
12.7705	13.078
12.7391	12.9755
12.7079	12.9018
12.6769	12.9081
12.6459	12.8897
12.6152	12.6373
12.5845	12.5337
12.5541	12.541
12.5238	12.479
12.4936	12.375
12.4635	12.4526
12.4337	12.4344
12.4039	12.1983
12.3743	12.0142
12.3448	12.0415
12.3155	11.9495
12.2863	11.841
12.2573	11.7058
12.2284	11.5846
12.1996	11.3876
12.171	11.2808
12.1425	11.2591
12.1141	11.0508
12.0859	10.8618
12.0578	10.7858
12.0298	10.7032
12.0019	10.4343
11.9742	10.2318
11.9466	10.0895
11.9192	9.97483
11.8918	9.86184
11.8646	9.65896
11.8375	9.54181
11.8106	9.43457
11.7837	9.20091
11.757	9.12874
11.7304	9.09182
11.7039	8.93151
11.6776	8.74049
11.6513	8.51919
11.6252	8.24889
11.5992	7.99017
11.5733	7.53619
11.5475	7.14077
11.5219	6.9642
11.4963	6.67151
11.4709	6.47235
11.4455	6.40437
11.4203	6.50584
11.3952	6.63562
11.3702	6.78422
11.3454	7.05994
11.3206	7.39733
11.2959	7.63734
11.2714	7.83099
11.2469	7.93932
11.2226	8.02316
11.1983	7.90459
11.1742	7.80808
11.1502	7.82879
11.1263	7.72563
11.1024	7.48518
11.0787	7.36375
11.0551	7.30225
11.0316	7.13196
11.0081	7.03173
10.9848	6.96999
10.9616	6.89747
10.9385	6.63992
10.9154	6.29762
10.8925	6.11384
10.8697	6.1
10.8469	6.11684
10.8243	6.2312
10.8017	6.30453
10.7793	6.30442
10.7569	6.35827
10.7346	6.42761
10.7125	6.39916
10.6904	6.60669
10.6684	6.81403
10.6465	6.79309
10.6247	6.96404
10.6029	7.36983
10.5813	7.84035
10.5597	8.44101
10.5383	8.96669
10.5169	9.41135
10.4956	9.66287
10.4744	9.77468
10.4533	9.7958
10.4323	9.68803
10.4113	9.39146
10.3904	8.89454
10.3697	8.24423
10.349	7.60285
10.3284	7.11059
10.3078	7.0171
10.2874	7.27357
10.267	7.78182
10.2467	8.13951
10.2265	8.30423
10.2064	8.51475
10.1863	8.5578
10.1663	8.55157
10.1464	8.79687
10.1266	8.88211
10.1069	8.91469
10.0872	8.93903
10.0676	8.90978
10.0481	8.86729
10.0287	8.97306
10.0093	8.98949
9.99005	8.99027
9.97084	9.02656
9.95169	9.0142
9.93263	8.84687
9.91364	8.68472
9.89472	8.75015
9.87587	8.85251
9.8571	8.82398
9.83839	8.56241
9.81976	8.24872
9.80119	8.09718
9.78271	7.90719
9.76428	7.78384
9.74592	7.7583
9.72764	7.64241
9.70943	7.34815
9.69128	6.89171
9.6732	6.42166
9.65518	6.00698
9.63724	5.71707
9.61935	5.50425
9.60155	5.20101
9.5838	4.96598
9.56611	5.1338
9.5485	5.33735
9.53094	5.52256
9.51345	5.91722
9.49604	6.54687
9.47867	6.97114
9.46137	7.23745
9.44414	7.45245
9.42697	7.47957
9.40986	7.54365
9.39281	7.70609
9.37583	7.65918
9.35891	7.5992
9.34204	7.47526
9.32524	7.39563
9.3085	7.45963
9.29182	7.53288
9.27519	7.4789
9.25863	7.29995
9.24213	7.17854
9.22568	7.10008
9.2093	6.95383
9.19297	6.76304
9.17669	6.61113
9.16048	6.52241
9.14433	6.56749
9.12823	6.59406
9.11218	6.54492
9.0962	6.40544
9.08027	6.34993
9.06439	6.29942
9.04858	6.32376
9.03281	6.34106
9.0171	6.3108
9.00145	6.35475
8.98585	6.50643
8.9703	6.53236
8.9548	6.53018
8.93937	6.69981
8.92398	6.68029
8.90865	6.48801
8.89337	6.36889
8.87814	6.3172
8.86296	6.04093
8.84784	5.79975
8.83277	5.62935
8.81774	5.38684
8.80277	4.88783
8.78786	4.40318
8.77298	4.10991
8.75816	3.98742
8.7434	3.87144
8.72868	3.76841
8.714	3.67395
8.69938	3.61498
8.68481	3.51956
8.67029	3.37362
8.65581	3.36887
8.64139	3.32584
8.62701	3.27947
8.61268	3.37096
8.5984	3.509
8.58416	3.51702
8.56997	3.54768
8.55583	3.52638
8.54174	3.58255
8.52769	3.76094
8.51368	3.83743
8.49973	3.86607
8.48582	4.01498
8.47195	4.12826
8.45813	4.16518
8.44436	4.2657
8.43062	4.42575
8.41693	4.51836
8.4033	4.61839
8.3897	4.81807
8.37614	5.10314
8.36264	5.28154
8.34917	5.45418
8.33574	5.58417
8.32236	5.77194
8.30903	6.09237
8.29573	6.28233
8.28248	6.45225
8.26927	6.69991
8.2561	6.98848
8.24298	7.23994
8.2299	7.50836
8.21685	7.78472
8.20385	8.09157
8.19089	8.36742
8.17797	8.60457
8.16509	8.73218
8.15225	8.95126
8.13946	9.20025
8.1267	9.41004
8.11398	9.71058
8.10131	9.91957
8.08867	10.1553
8.07606	10.3657
8.0635	10.5012
8.05099	10.735
8.0385	10.9166
8.02606	11.0492
8.01366	11.2215
8.00129	11.534
7.98896	11.7599
7.97667	11.8047
7.96442	11.9757
7.9522	12.2218
7.94002	12.3744
7.92788	12.5515
7.91578	12.6714
7.90371	12.75
7.89168	12.9123
7.87969	13.0986
7.86773	13.2481
7.85581	13.4351
7.84392	13.5567
7.83207	13.6554
7.82026	13.7393
7.80849	13.8026
7.79674	13.7988
7.78503	13.9703
7.77337	14.2382
7.76173	14.4311
7.75012	14.5297
7.73856	14.7913
7.72703	14.9619
7.71553	15.0329
7.70406	15.2259
7.69263	15.4435
7.68123	15.6244
7.66987	15.7833
7.65855	15.9446
7.64725	16.1465
7.63598	16.3582
7.62475	16.558
7.61356	16.6809
7.60239	16.7895
7.59126	16.9785
7.58017	17.1532
7.5691	17.2531
7.55806	17.3464
7.54707	17.4886
7.5361	17.6734
7.52516	17.8251
7.51425	17.9141
7.50338	17.9756
7.49253	18.0805
7.48172	18.2829
7.47094	18.3622
7.46019	18.3888
7.44947	18.4022
7.43879	18.3795
7.42813	18.4013
7.4175	18.4267
7.4069	18.4353
7.39634	18.4725
7.3858	18.4631
7.37529	18.3795
7.36482	18.315
7.35437	18.2453
7.34396	18.138
7.33357	17.9848
7.32321	17.7875
7.31288	17.6227
7.30258	17.4933
7.29231	17.4173
7.28207	17.2775
7.27185	17.0765
7.26167	16.8472
7.25152	16.7266
7.24139	16.5661
7.23129	16.3692
7.22122	16.2997
7.21117	16.2845
7.20116	16.0425
7.19117	15.7985
7.18121	15.799
7.17128	15.8091
7.16137	15.6478
7.1515	15.5483
7.14164	15.442
7.13182	15.3346
7.12203	15.3888
7.11225	15.3433
7.10251	15.1058
7.0928	14.9848
7.08311	14.9263
7.07344	14.8321
7.06381	14.6933
7.0542	14.5923
7.04461	14.5238
7.03506	14.3673
7.02552	14.2536
7.01601	14.1586
7.00653	14.0968
6.99708	14.0258
6.98765	13.9195
6.97824	13.7951
6.96886	13.8319
6.95951	13.9002
6.95018	13.7719
6.94087	13.6972
6.9316	13.7442
6.92234	13.7856
6.91311	13.8715
6.90391	13.8853
6.89473	13.8889
6.88557	13.9667
6.87644	14.0922
6.86733	14.3125
6.85824	14.4595
6.84918	14.4258
6.84015	14.5347
6.83114	14.803
6.82215	14.9452
6.81319	14.9809
6.80424	15.207
6.79532	15.5183
6.78643	15.7208
6.77756	15.7292
6.76871	15.7807
6.75989	16.0061
6.75109	16.2963
6.74231	16.5157
6.73355	16.6933
6.72482	16.8878
6.71611	17.2252
6.70742	17.5258
6.69875	17.6931
6.69011	17.9323
6.68149	18.2963
6.67289	18.5915
6.66431	18.8634
6.65576	19.1012
6.64722	19.5627
6.63871	20.229
6.63022	20.523
6.62175	20.6947
6.61331	21.0294
6.60488	21.3931
6.59648	21.8793
6.5881	22.3318
6.57974	22.8082
6.5714	23.3515
6.56308	23.6846
6.55478	24.0376
6.54651	24.3454
6.53825	24.6836
6.53001	25.1747
6.5218	25.6473
6.51361	25.8422
6.50544	26.2394
6.49729	26.9739
6.48915	27.3384
6.48104	27.5121
6.47295	27.7484
6.46488	27.9498
6.45683	28.1336
6.4488	28.3265
6.44079	28.5228
6.4328	28.8138
6.42482	28.9323
6.41687	29.0915
6.40894	28.7626
6.40103	28.1375
6.39314	27.7924
6.38526	27.565
6.37741	27.3992
6.36957	27.1928
6.36176	26.7893
6.35396	26.4912
6.34618	26.3494
6.33843	25.9536
6.33069	25.5626
6.32297	25.3298
6.31527	25.1981
6.30758	25.0292
6.29992	24.8925
6.29227	24.8739
6.28465	24.8683
6.27704	24.9628
6.26945	25.1036
6.26188	25.0962
6.25432	25.0894
6.24679	25.172
6.23927	25.2088
6.23177	25.1974
6.22429	25.1781
6.21683	25.319
6.20938	25.4447
6.20195	25.5363
6.19454	25.7566
6.18715	26.1136
6.17978	26.1753
6.17242	26.1528
6.16508	26.3481
6.15776	26.4968
6.15045	26.5532
6.14317	26.5699
6.1359	26.4387
6.12864	26.4417
6.12141	26.6843
6.11419	26.9408
6.10699	26.8651
6.0998	26.8122
6.09263	26.893
6.08549	27.0131
6.07835	27.1976
6.07123	27.2937
6.06413	27.2787
6.05705	27.5869
6.04998	28.0489
6.04293	27.7763
6.0359	27.4899
6.02888	27.4838
6.02187	27.6022
6.01489	27.7753
6.00792	27.7734
6.00096	27.7892
5.99403	28.0317
5.98711	28.1454
5.9802	27.992
5.97331	27.9808
5.96644	28.0345
5.95958	27.8792
5.95274	27.7366
5.94591	27.7857
5.9391	27.9571
5.9323	27.6211
5.92552	27.2598
5.91876	27.1857
5.91201	27.1246
5.90528	27.143
5.89856	27.3754
5.89186	27.5191
5.88517	27.7251
5.8785	27.871
5.87184	27.7527
5.8652	27.9284
5.85857	28.0395
5.85196	28.185
5.84536	28.3632
5.83878	28.5797
5.83221	28.8533
5.82566	29.2062
5.81912	29.4259
5.81259	29.3915
5.80608	29.4053
5.79959	29.5193
5.79311	29.6719
5.78665	29.7733
5.78019	29.8666
5.77376	30.0322
5.76734	30.2694
5.76093	30.0839
5.75453	29.8281
5.74815	29.808
5.74179	29.598
5.73543	29.418
5.7291	29.2619
5.72277	29.1685
5.71646	29.1924
5.71017	29.1783
5.70389	28.9963
5.69762	28.9634
5.69136	29.0752
5.68513	29.1118
5.6789	29.1294
5.67268	29.1786
5.66648	29.1877
5.6603	29.3116
5.65413	29.483
5.64797	29.6467
5.64182	29.8025
5.63569	29.7081
5.62957	29.6108
5.62347	29.5765
5.61737	29.4583
5.61129	29.1851
5.60522	28.947
5.59917	28.6864
5.59313	28.366
5.5871	28.1167
5.58109	27.9272
5.57509	27.7682
5.5691	27.7147
5.56312	27.8292
5.55716	28.1599
5.55121	28.666
5.54528	29.3582
5.53935	30.1812
5.53344	31.0961
5.52754	32.0277
5.52166	32.7867
5.51578	33.4371
5.50992	34.0142
5.50407	34.5781
5.49823	35.068
5.49241	35.606
5.4866	36.1375
5.4808	36.6087
5.47501	36.9086
5.46923	37.2288
5.46347	37.5525
5.45772	37.6414
5.45198	37.7067
5.44625	37.8516
5.44054	37.9328
5.43484	37.9957
5.42914	38.0048
5.42347	37.9852
5.4178	37.7399
5.41214	37.5407
5.4065	37.3066
5.40087	37.0375
5.39525	36.7819
5.38964	36.549
5.38404	36.2964
5.37846	36.0606
5.37288	35.771
5.36732	35.4533
5.36177	35.1934
5.35623	35.0692
5.35071	34.9512
5.34519	34.7676
5.33968	34.5959
5.33419	34.4058
5.32871	34.3077
5.32324	34.2529
5.31778	34.1723
5.31233	34.1211
5.30689	34.0686
5.30147	34.0898
5.29605	34.1847
5.29065	34.2985
5.28525	34.3208
5.27987	34.4342
5.2745	34.5096
5.26914	34.5221
5.26379	34.5815
5.25845	34.6881
5.25312	34.7683
5.24781	34.8546
5.2425	34.966
5.23721	35.0908
5.23192	35.1747
5.22665	35.2966
5.22138	35.4294
5.21613	35.6962
5.21089	35.932
5.20566	36.0721
5.20044	36.1873
5.19522	36.3378
5.19002	36.5448
5.18483	36.7879
5.17965	37.0308
5.17448	37.2014
5.16933	37.3482
5.16418	37.5213
5.15904	37.6749
5.15391	37.7699
5.14879	37.8494
5.14368	37.9735
5.13859	38.0665
5.1335	38.1434
5.12842	38.1969
5.12335	38.1663
5.1183	38.2315
5.11325	38.3674
5.10821	38.4836
5.10318	38.6756
5.09817	38.8295
5.09316	39.0099
5.08816	39.2751
5.08317	39.4525
5.07819	39.6083
5.07322	39.8641
5.06826	40.0559
5.06331	40.1762
5.05837	40.2923
5.05344	40.4574
5.04852	40.6147
5.04361	40.7497
5.03871	40.8783
5.03382	41.0572
5.02894	41.1387
5.02406	41.2294
5.0192	41.4118
5.01435	41.5208
5.0095	41.6968
5.00467	42.0381
4.99984	42.37
4.99502	42.7427
4.99021	43.0696
4.98542	43.3325
4.98063	43.67
4.97585	44.0613
4.97108	44.357
4.96632	44.6703
4.96156	45.0552
4.95682	45.416
4.95209	45.7392
4.94736	46.0406
4.94264	46.3519
4.93794	46.6009
4.93324	46.8672
4.92855	47.1267
4.92387	47.2803
4.9192	47.4967
4.91453	47.7583
4.90988	47.9939
4.90524	48.1917
4.9006	48.4231
4.89597	48.5937
4.89135	48.7249
4.88674	48.8704
4.88214	49.0893
4.87755	49.2667
4.87296	49.4472
4.86839	49.5722
4.86382	49.7538
4.85926	50.0409
4.85471	50.2324
4.85017	50.4082
4.84564	50.5668
4.84111	50.7228
4.8366	50.9232
4.83209	51.1224
4.82759	51.2666
4.8231	51.3754
4.81862	51.6233
4.81415	51.8419
4.80968	51.979
4.80522	52.1316
4.80077	52.2327
4.79633	52.3726
4.7919	52.6625
4.78747	52.829
4.78306	52.9369
4.77865	53.1831
4.77425	53.4584
4.76986	53.6573
4.76547	53.8854
4.7611	54.149
4.75673	54.4028
4.75237	54.6567
4.74802	54.9505
4.74367	55.2791
4.73934	55.5942
4.73501	55.8376
4.73069	56.053
4.72638	56.2873
4.72207	56.5675
4.71777	56.8724
4.71348	57.139
4.7092	57.3257
4.70493	57.5534
4.70066	57.762
4.69641	58.0258
4.69216	58.3238
4.68791	58.5706
4.68368	58.7833
4.67945	59.052
4.67523	59.2531
4.67102	59.4503
4.66682	59.7324
4.66262	60.0405
4.65843	60.2531
4.65425	60.5028
4.65007	60.8195
4.64591	61.1633
4.64175	61.4767
4.6376	61.6757
4.63345	61.8284
4.62932	62.0895
4.62519	62.3415
4.62106	62.6342
4.61695	62.8687
4.61284	63.0242
4.60874	63.2057
4.60465	63.4474
4.60056	63.7064
4.59648	63.9356
4.59241	64.1222
4.58835	64.3061
4.58429	64.4815
4.58024	64.6785
4.5762	64.8528
4.57216	64.9457
4.56814	65.0701
4.56411	65.2609
4.5601	65.4211
4.55609	65.5627
4.55209	65.7431
4.5481	65.926
4.54411	66.0731
4.54013	66.1469
4.53616	66.1703
4.5322	66.3215
4.52824	66.4704
4.52429	66.5363
4.52034	66.5944
4.51641	66.6659
4.51247	66.7598
4.50855	66.8889
4.50463	66.9352
4.50072	66.9527
4.49682	67.0358
4.49292	67.1324
4.48903	67.1325
4.48515	67.1824
4.48127	67.2071
4.4774	67.2396
4.47354	67.3134
4.46968	67.4449
4.46584	67.5784
4.46199	67.6527
4.45815	67.6566
4.45432	67.7102
4.4505	67.8156
4.44668	67.8929
4.44287	67.924
4.43907	67.9546
4.43527	67.9344
4.43148	67.9761
4.4277	68.0491
4.42392	68.0634
4.42015	68.1172
4.41638	68.1461
4.41262	68.1994
4.40887	68.2601
4.40513	68.2232
4.40139	68.2027
4.39765	68.175
4.39393	68.2104
4.39021	68.2615
4.38649	68.2885
4.38278	68.3097
4.37908	68.3313
4.37539	68.3723
4.3717	68.4208
4.36801	68.4649
4.36434	68.5099
4.36067	68.4413
4.357	68.3784
4.35335	68.456
4.34969	68.5305
4.34605	68.4777
4.34241	68.4898
4.33877	68.4968
4.33514	68.4767
4.33152	68.5241
4.32791	68.6092
4.3243	68.6231
4.32069	68.6225
4.3171	68.7034
4.31351	68.7691
4.30992	68.7547
4.30634	68.7739
4.30277	68.7698
4.2992	68.8184
4.29564	68.8728
4.29208	68.9256
4.28853	68.8913
4.28499	68.8586
4.28145	68.9385
4.27792	68.9953
4.27439	68.9704
4.27087	68.9366
4.26735	68.9121
4.26384	69.01
4.26034	69.0694
4.25684	69.0699
4.25335	69.1177
4.24986	69.1382
4.24638	69.165
4.24291	69.2526
4.23944	69.2423
4.23598	69.205
4.23252	69.2137
4.22906	69.1999
4.22562	69.2156
4.22218	69.2165
4.21874	69.2288
4.21531	69.2852
4.21189	69.3207
4.20847	69.3661
4.20506	69.3736
4.20165	69.3411
4.19825	69.2598
4.19485	69.2779
4.19146	69.3752
4.18807	69.4311
4.18469	69.4233
4.18132	69.4016
4.17795	69.38
4.17458	69.4484
4.17123	69.4918
4.16787	69.3943
4.16453	69.3567
4.16118	69.3961
4.15785	69.3902
4.15451	69.3256
4.15119	69.3815
4.14787	69.4309
4.14455	69.4486
4.14124	69.4593
4.13794	69.4137
4.13464	69.376
4.13134	69.3204
4.12805	69.2418
4.12477	69.1841
4.12149	69.194
4.11822	69.1873
4.11495	69.0915
4.11168	68.9931
4.10843	69.0057
4.10517	69.0159
4.10192	68.9357
4.09868	68.7723
4.09545	68.6509
4.09221	68.5666
4.08899	68.4243
4.08576	68.1896
4.08255	67.9813
4.07933	67.7348
4.07613	67.4759
4.07292	67.1208
4.06973	66.7124
4.06654	66.3478
4.06335	65.8817
4.06017	65.2892
4.05699	64.7052
4.05382	64.1087
4.05065	63.5151
4.04749	62.9704
4.04433	62.4085
4.04118	61.7708
4.03803	61.0918
4.03489	60.4247
4.03175	59.909
4.02862	59.4587
4.02549	58.925
4.02237	58.4106
4.01925	58.003
4.01614	57.628
4.01303	57.3182
4.00993	57.104
4.00683	56.9132
4.00373	56.7071
4.00064	56.4302
3.99756	56.1219
3.99448	55.7789
3.9914	55.4423
3.98833	55.048
3.98527	54.7154
3.98221	54.5034
3.97915	54.3167
3.9761	54.1807
3.97305	54.1208
3.97001	54.1728
3.96697	54.3938
3.96394	54.6536
3.96091	54.9785
3.95789	55.4188
3.95487	55.8326
3.95186	56.3273
3.94885	56.9898
3.94584	57.6569
3.94284	58.2444
3.93984	58.8057
3.93685	59.3527
3.93386	59.8614
3.93088	60.242
3.9279	60.5864
3.92493	60.8977
3.92196	61.0847
3.919	61.2601
3.91604	61.4897
3.91308	61.6585
3.91013	61.7426
3.90718	61.7411
3.90424	61.8251
3.9013	61.95
3.89837	61.9979
3.89544	61.9822
3.89252	62.0062
3.8896	62.0473
3.88668	62.1308
3.88377	62.203
3.88086	62.2189
3.87796	62.2324
3.87506	62.2176
3.87217	62.2517
3.86928	62.3107
3.86639	62.3444
3.86351	62.4107
3.86064	62.4905
3.85776	62.4928
3.8549	62.5462
3.85203	62.7156
3.84917	62.8644
3.84631	62.9573
3.84346	63.0632
3.84062	63.2425
3.83777	63.4379
3.83494	63.6608
3.8321	63.897
3.82927	64.2481
3.82644	64.5833
3.82362	64.8598
3.82081	65.1179
3.81799	65.3573
3.81518	65.6215
3.81238	65.9289
3.80958	66.2033
3.80678	66.5006
3.80399	66.8078
3.8012	67.0892
3.79841	67.3946
3.79563	67.7154
3.79286	67.9362
3.79008	68.1628
3.78731	68.4232
3.78455	68.5982
3.78179	68.6783
3.77903	68.7503
3.77628	68.7665
3.77353	68.8152
3.77079	68.8789
3.76805	68.9063
3.76531	68.8843
3.76258	68.9023
3.75985	68.9281
3.75713	68.8925
3.7544	68.886
3.75169	68.9242
3.74898	68.8601
3.74627	68.793
3.74356	68.7833
3.74086	68.8123
3.73816	68.7909
3.73547	68.7435
3.73278	68.7311
3.7301	68.6996
3.72741	68.7182
3.72474	68.7519
3.72206	68.6885
3.71939	68.5792
3.71673	68.4994
3.71406	68.5222
3.71141	68.5724
3.70875	68.5821
3.7061	68.4815
3.70345	68.4251
3.70081	68.378
3.69817	68.3414
3.69553	68.2903
3.6929	68.263
3.69027	68.2311
3.68765	68.236
3.68503	68.2666
3.68241	68.2288
3.6798	68.1417
3.67719	68.0653
3.67458	68.0224
3.67198	68.0295
3.66938	68.002
3.66678	67.9524
3.66419	67.8611
3.66161	67.8236
3.65902	67.8126
3.65644	67.7596
3.65387	67.6775
3.65129	67.6154
3.64872	67.5556
3.64616	67.4913
3.64359	67.4795
3.64103	67.4456
3.63848	67.3732
3.63593	67.3899
3.63338	67.3633
3.63084	67.3197
3.6283	67.2118
3.62576	67.0788
3.62322	66.9861
3.62069	66.8911
3.61817	66.7994
3.61564	66.7358
3.61312	66.7049
3.61061	66.6481
3.6081	66.5379
3.60559	66.3945
3.60308	66.2553
3.60058	66.1444
3.59808	66.0028
3.59558	65.885
3.59309	65.7903
3.59061	65.6735
3.58812	65.6341
3.58564	65.5468
3.58316	65.359
3.58069	65.1834
3.57822	65.0477
3.57575	64.8903
3.57328	64.712
3.57082	64.5165
3.56836	64.3185
3.56591	64.1229
3.56346	63.9972
3.56101	63.8113
3.55857	63.5295
3.55613	63.356
3.55369	63.2075
3.55126	63.0177
3.54883	62.7325
3.5464	62.4641
3.54397	62.2795
3.54155	62.0192
3.53914	61.7913
3.53672	61.5868
3.53431	61.4074
3.5319	61.2055
3.5295	60.9632
3.5271	60.6969
3.5247	60.3236
3.52231	59.9746
3.51991	59.704
3.51753	59.4674
3.51514	59.233
3.51276	58.9318
3.51038	58.7169
3.50801	58.5214
3.50563	58.2576
3.50327	57.93
3.5009	57.6151
3.49854	57.4693
3.49618	57.3602
3.49382	57.2176
3.49147	57.0232
3.48912	56.8922
3.48677	56.8381
3.48443	56.7557
3.48209	56.6612
3.47975	56.5213
3.47742	56.5167
3.47509	56.5203
3.47276	56.4607
3.47044	56.601
3.46812	56.828
3.4658	57.0636
