Name: Granitoid Gneiss
Type: Rock
Class: Metamorphic
Subclass:  Gneiss 
Particle Size: Solid surface
Sample No.: Ward82.txt
Owner: JPL
Wavelength range:  VNIR SWIR IR 
Origin: Ward's Collection of American Rocks.  Sample locality - Salisbury, Rowan County, North Carolina.  Collected by - JPL.
Collected by:  Ward's Natural Science
Description: A flesh colored rock consisting principally of feldspar and
quartz.  There are scattered specks of magnetite and another dark 
minerals.  There is some evidence of grain orientation, but banding is
not pronounced.


Measurement: Hemispherical reflectance
First Column: X
Second Column: Y
X Units: Wavelength (micrometers)
Y Units: Reflectance (percent)
First X Value: 2.500
Last X Value: 0.400
Number of X Values: 2101
Additional information: None

2.500  35.257791
2.499  34.834815
2.498  35.230280
2.497  35.043019
2.496  35.112200
2.495  35.102837
2.494  35.167004
2.493  35.217126
2.492  35.264586
2.491  35.115618
2.490  35.437215
2.489  35.332298
2.488  35.239875
2.487  35.353755
2.486  35.547559
2.485  35.312376
2.484  35.517437
2.483  35.401718
2.482  35.465357
2.481  35.452235
2.480  35.544132
2.479  35.432351
2.478  35.644027
2.477  35.693146
2.476  35.768246
2.475  35.614148
2.474  35.667851
2.473  35.678599
2.472  35.681610
2.471  35.734787
2.470  35.897227
2.469  35.933232
2.468  35.948162
2.467  35.865816
2.466  36.124084
2.465  35.974306
2.464  36.101973
2.463  35.970662
2.462  36.172421
2.461  36.043370
2.460  36.173786
2.459  36.051322
2.458  36.240738
2.457  36.184867
2.456  36.285741
2.455  36.215842
2.454  36.330204
2.453  36.170016
2.452  36.347371
2.451  36.260607
2.450  36.486680
2.449  36.330306
2.448  36.465342
2.447  36.438579
2.446  36.407352
2.445  36.523347
2.444  36.539471
2.443  36.539603
2.442  36.638301
2.441  36.565523
2.440  36.765275
2.439  36.603667
2.438  36.781959
2.437  36.640907
2.436  36.769915
2.435  36.709211
2.434  36.799133
2.433  36.741878
2.432  36.857559
2.431  36.833723
2.430  36.892160
2.429  36.836966
2.428  36.952850
2.427  36.920112
2.426  37.005463
2.425  36.914178
2.424  36.971259
2.423  37.044190
2.422  37.139861
2.421  37.197729
2.420  37.196392
2.419  37.100794
2.418  37.194124
2.417  37.300574
2.416  37.285231
2.415  37.205627
2.414  37.318319
2.413  37.248090
2.412  37.279171
2.411  37.285916
2.410  37.448259
2.409  37.386272
2.408  37.413334
2.407  37.452874
2.406  37.384347
2.405  37.480723
2.404  37.562407
2.403  37.537181
2.402  37.571870
2.401  37.583560
2.400  37.640567
2.399  37.566895
2.398  37.641896
2.397  37.612566
2.396  37.684437
2.395  37.672577
2.394  37.666152
2.393  37.658823
2.392  37.672994
2.391  37.646571
2.390  37.731688
2.389  37.693350
2.388  37.752000
2.387  37.747960
2.386  37.753437
2.385  37.765492
2.384  37.793961
2.383  37.749113
2.382  37.800367
2.381  37.765980
2.380  37.755802
2.379  37.770347
2.378  37.793129
2.377  37.806850
2.376  37.782690
2.375  37.760692
2.374  37.802175
2.373  37.802739
2.372  37.911647
2.371  37.888662
2.370  37.852137
2.369  37.873635
2.368  37.884540
2.367  37.896137
2.366  37.855269
2.365  37.831934
2.364  37.872061
2.363  37.873718
2.362  37.928630
2.361  37.938920
2.360  37.956140
2.359  38.043380
2.358  38.027710
2.357  37.964586
2.356  38.031294
2.355  38.034617
2.354  37.987302
2.353  38.015635
2.352  38.050736
2.351  38.041448
2.350  38.040746
2.349  38.108273
2.348  38.101332
2.347  38.101713
2.346  38.138793
2.345  38.139848
2.344  38.138268
2.343  38.228224
2.342  38.216344
2.341  38.217952
2.340  38.225815
2.339  38.289339
2.338  38.296753
2.337  38.301252
2.336  38.337061
2.335  38.364831
2.334  38.343757
2.333  38.380213
2.332  38.424675
2.331  38.509324
2.330  38.517696
2.329  38.544858
2.328  38.552193
2.327  38.541856
2.326  38.579339
2.325  38.688809
2.324  38.710683
2.323  38.709684
2.322  38.729152
2.321  38.821460
2.320  38.832962
2.319  38.829363
2.318  38.851829
2.317  38.860645
2.316  38.793085
2.315  38.853633
2.314  38.884282
2.313  38.907695
2.312  38.952256
2.311  39.047116
2.310  38.972370
2.309  39.050251
2.308  39.078812
2.307  39.078710
2.306  38.993238
2.305  39.051730
2.304  39.085291
2.303  39.148927
2.302  39.173326
2.301  39.182683
2.300  39.200991
2.299  39.226472
2.298  39.162070
2.297  39.219905
2.296  39.199874
2.295  39.230832
2.294  39.273505
2.293  39.213857
2.292  39.227310
2.291  39.254235
2.290  39.202353
2.289  39.287034
2.288  39.264641
2.287  39.245386
2.286  39.247082
2.285  39.280670
2.284  39.233432
2.283  39.298235
2.282  39.276356
2.281  39.252436
2.280  39.226195
2.279  39.308186
2.278  39.265733
2.277  39.302938
2.276  39.298573
2.275  39.317084
2.274  39.254061
2.273  39.338038
2.272  39.277531
2.271  39.265652
2.270  39.265128
2.269  39.305648
2.268  39.209819
2.267  39.268754
2.266  39.173342
2.265  39.270411
2.264  39.202892
2.263  39.265765
2.262  39.216564
2.261  39.215501
2.260  39.212561
2.259  39.262656
2.258  39.188522
2.257  39.271992
2.256  39.200899
2.255  39.222832
2.254  39.213894
2.253  39.313296
2.252  39.242428
2.251  39.341364
2.250  39.370966
2.249  39.478934
2.248  39.376048
2.247  39.428995
2.246  39.469951
2.245  39.482794
2.244  39.575711
2.243  39.614183
2.242  39.514568
2.241  39.640771
2.240  39.683401
2.239  39.676836
2.238  39.635903
2.237  39.761381
2.236  39.712461
2.235  39.756506
2.234  39.715207
2.233  39.845840
2.232  39.811293
2.231  39.902832
2.230  39.824224
2.229  39.913142
2.228  39.839788
2.227  39.870089
2.226  39.781958
2.225  39.883046
2.224  39.945593
2.223  40.012712
2.222  39.914477
2.221  39.996539
2.220  39.915866
2.219  40.051699
2.218  39.995853
2.217  40.082014
2.216  39.991540
2.215  40.050361
2.214  40.049229
2.213  40.148691
2.212  40.143758
2.211  40.011797
2.210  40.249943
2.209  40.156035
2.208  40.198879
2.207  40.314109
2.206  40.257156
2.205  40.368953
2.204  40.360026
2.203  40.463026
2.202  40.388231
2.201  40.545422
2.200  40.503770
2.199  40.581910
2.198  40.469511
2.197  40.620108
2.196  40.699931
2.195  40.691881
2.194  40.670435
2.193  40.704827
2.192  40.679842
2.191  40.826484
2.190  40.818866
2.189  40.953710
2.188  40.781519
2.187  40.903372
2.186  40.829490
2.185  40.949704
2.184  40.952458
2.183  40.994285
2.182  41.053369
2.181  41.073881
2.180  41.121114
2.179  41.191678
2.178  41.183511
2.177  41.196925
2.176  41.164037
2.175  41.321427
2.174  41.233820
2.173  41.323453
2.172  41.244417
2.171  41.298281
2.170  41.295329
2.169  41.356525
2.168  41.388358
2.167  41.485350
2.166  41.387827
2.165  41.441168
2.164  41.410311
2.163  41.514113
2.162  41.599367
2.161  41.634102
2.160  41.563244
2.159  41.631947
2.158  41.672915
2.157  41.706230
2.156  41.675449
2.155  41.727128
2.154  41.646528
2.153  41.768010
2.152  41.730421
2.151  41.729293
2.150  41.712333
2.149  41.812879
2.148  41.840347
2.147  41.828236
2.146  41.827711
2.145  41.758893
2.144  41.819717
2.143  41.830135
2.142  41.796060
2.141  41.870770
2.140  41.756401
2.139  41.849802
2.138  41.867634
2.137  41.831769
2.136  41.763029
2.135  41.891229
2.134  41.812478
2.133  41.846271
2.132  41.813504
2.131  41.820223
2.130  41.813582
2.129  41.819506
2.128  41.857976
2.127  41.876196
2.126  41.720069
2.125  41.708999
2.124  41.750204
2.123  41.733317
2.122  41.698603
2.121  41.743327
2.120  41.696964
2.119  41.665710
2.118  41.647376
2.117  41.690056
2.116  41.646861
2.115  41.673350
2.114  41.661593
2.113  41.653859
2.112  41.626150
2.111  41.620104
2.110  41.605831
2.109  41.650523
2.108  41.539660
2.107  41.523043
2.106  41.558001
2.105  41.555965
2.104  41.576724
2.103  41.562156
2.102  41.485259
2.101  41.461813
2.100  41.470906
2.099  41.477272
2.098  41.468044
2.097  41.475806
2.096  41.458439
2.095  41.525866
2.094  41.530607
2.093  41.574725
2.092  41.545419
2.091  41.577037
2.090  41.607547
2.089  41.598498
2.088  41.547590
2.087  41.581271
2.086  41.579498
2.085  41.565987
2.084  41.551266
2.083  41.586028
2.082  41.608247
2.081  41.647009
2.080  41.632644
2.079  41.588393
2.078  41.615817
2.077  41.619619
2.076  41.625403
2.075  41.662397
2.074  41.632639
2.073  41.619661
2.072  41.639785
2.071  41.642931
2.070  41.694475
2.069  41.709067
2.068  41.737960
2.067  41.668400
2.066  41.634414
2.065  41.732669
2.064  41.657206
2.063  41.624145
2.062  41.667462
2.061  41.643166
2.060  41.663090
2.059  41.653642
2.058  41.657854
2.057  41.657761
2.056  41.685625
2.055  41.718522
2.054  41.718065
2.053  41.701754
2.052  41.672657
2.051  41.645969
2.050  41.671622
2.049  41.638216
2.048  41.630399
2.047  41.621460
2.046  41.612611
2.045  41.678966
2.044  41.633582
2.043  41.618093
2.042  41.637502
2.041  41.628862
2.040  41.663616
2.039  41.600696
2.038  41.619118
2.037  41.624053
2.036  41.658420
2.035  41.650171
2.034  41.636320
2.033  41.531393
2.032  41.529553
2.031  41.546661
2.030  41.622123
2.029  41.498755
2.028  41.428664
2.027  41.435162
2.026  41.465668
2.025  41.420784
2.024  41.437569
2.023  41.396706
2.022  41.407751
2.021  41.426604
2.020  41.408199
2.019  41.373648
2.018  41.314778
2.017  41.294574
2.016  41.339022
2.015  41.308080
2.014  41.295520
2.013  41.226982
2.012  41.230480
2.011  41.171570
2.010  41.298903
2.009  41.245685
2.008  41.195729
2.007  41.238784
2.006  41.186394
2.005  41.114548
2.004  41.099660
2.003  41.087124
2.002  41.168206
2.001  41.065450
2.000  41.096756
1.999  41.068999
1.998  41.088023
1.997  40.951837
1.996  40.996829
1.995  40.930091
1.994  40.976034
1.993  40.928479
1.992  40.972892
1.991  40.836797
1.990  40.788819
1.989  40.822170
1.988  40.867492
1.987  40.732576
1.986  40.715248
1.985  40.673928
1.984  40.673261
1.983  40.658930
1.982  40.638588
1.981  40.553741
1.980  40.652883
1.979  40.483955
1.978  40.547283
1.977  40.406536
1.976  40.527664
1.975  40.430039
1.974  40.400430
1.973  40.298634
1.972  40.391117
1.971  40.261354
1.970  40.345066
1.969  40.320822
1.968  40.261103
1.967  40.216047
1.966  40.174070
1.965  40.180394
1.964  40.126147
1.963  40.066787
1.962  40.074466
1.961  40.031601
1.960  40.056569
1.959  40.025855
1.958  40.026589
1.957  40.019569
1.956  39.970768
1.955  39.797770
1.954  39.885465
1.953  39.804157
1.952  39.938122
1.951  39.711708
1.950  39.825797
1.949  39.729911
1.948  39.743788
1.947  39.708280
1.946  39.643578
1.945  39.705592
1.944  39.683971
1.943  39.573969
1.942  39.694326
1.941  39.569183
1.940  39.578415
1.939  39.501190
1.938  39.474977
1.937  39.505276
1.936  39.508432
1.935  39.470717
1.934  39.559348
1.933  39.478518
1.932  39.473403
1.931  39.416744
1.930  39.416647
1.929  39.426236
1.928  39.448724
1.927  39.408271
1.926  39.375779
1.925  39.479529
1.924  39.389408
1.923  39.358573
1.922  39.482618
1.921  39.500903
1.920  39.521030
1.919  39.464929
1.918  39.658158
1.917  39.543327
1.916  39.658912
1.915  39.544320
1.914  39.707331
1.913  39.597554
1.912  39.859995
1.911  39.735532
1.910  39.834186
1.909  39.879206
1.908  39.880459
1.907  39.965373
1.906  40.142954
1.905  40.033192
1.904  40.298292
1.903  40.253148
1.902  40.525904
1.901  40.503888
1.900  40.702768
1.899  40.761792
1.898  40.994685
1.897  40.981039
1.896  41.133173
1.895  41.248018
1.894  41.508831
1.893  41.465081
1.892  41.623699
1.891  41.623367
1.890  41.868331
1.889  41.908177
1.888  42.067976
1.887  42.094785
1.886  42.230800
1.885  42.342250
1.884  42.478296
1.883  42.479016
1.882  42.569621
1.881  42.607504
1.880  42.548261
1.879  42.578196
1.878  42.690957
1.877  42.653604
1.876  42.768208
1.875  42.727615
1.874  42.801333
1.873  42.767569
1.872  42.830383
1.871  42.915000
1.870  42.996546
1.869  42.988577
1.868  43.063542
1.867  43.068055
1.866  43.189906
1.865  43.205464
1.864  43.229141
1.863  43.228015
1.862  43.305022
1.861  43.330872
1.860  43.372562
1.859  43.326434
1.858  43.292234
1.857  43.334333
1.856  43.409163
1.855  43.437946
1.854  43.505484
1.853  43.387636
1.852  43.387272
1.851  43.394344
1.850  43.451709
1.849  43.428856
1.848  43.514146
1.847  43.467485
1.846  43.487800
1.845  43.466562
1.844  43.506400
1.843  43.532678
1.842  43.443867
1.841  43.419511
1.840  43.478199
1.839  43.435254
1.838  43.509122
1.837  43.489688
1.836  43.560332
1.835  43.522708
1.834  43.587018
1.833  43.539132
1.832  43.628870
1.831  43.502371
1.830  43.617114
1.829  43.635426
1.828  43.628615
1.827  43.629207
1.826  43.630600
1.825  43.589838
1.824  43.619178
1.823  43.589382
1.822  43.668572
1.821  43.631240
1.820  43.664916
1.819  43.634065
1.818  43.619345
1.817  43.655899
1.816  43.646091
1.815  43.618553
1.814  43.694899
1.813  43.669507
1.812  43.639011
1.811  43.708126
1.810  43.739958
1.809  43.727101
1.808  43.737433
1.807  43.741011
1.806  43.754144
1.805  43.747700
1.804  43.774753
1.803  43.778231
1.802  43.749746
1.801  43.679723
1.800  43.678702
1.799  43.684057
1.798  43.715871
1.797  43.747438
1.796  43.741571
1.795  43.740387
1.794  43.751064
1.793  43.731930
1.792  43.755970
1.791  43.734619
1.790  43.720746
1.789  43.732828
1.788  43.705810
1.787  43.719142
1.786  43.736633
1.785  43.707315
1.784  43.685355
1.783  43.682607
1.782  43.673086
1.781  43.708069
1.780  43.713797
1.779  43.734156
1.778  43.705771
1.777  43.687291
1.776  43.696792
1.775  43.722732
1.774  43.739983
1.773  43.755892
1.772  43.720157
1.771  43.699624
1.770  43.696884
1.769  43.665684
1.768  43.672278
1.767  43.743962
1.766  43.760670
1.765  43.725860
1.764  43.703286
1.763  43.748400
1.762  43.750936
1.761  43.704973
1.760  43.676228
1.759  43.762988
1.758  43.726162
1.757  43.711585
1.756  43.749788
1.755  43.772726
1.754  43.803464
1.753  43.769320
1.752  43.695457
1.751  43.723331
1.750  43.690448
1.749  43.694458
1.748  43.749784
1.747  43.793594
1.746  43.804592
1.745  43.725669
1.744  43.752833
1.743  43.785540
1.742  43.706307
1.741  43.803293
1.740  43.721493
1.739  43.791058
1.738  43.792586
1.737  43.839278
1.736  43.814817
1.735  43.783786
1.734  43.799653
1.733  43.801890
1.732  43.767560
1.731  43.835950
1.730  43.799731
1.729  43.828488
1.728  43.750591
1.727  43.828908
1.726  43.809993
1.725  43.819490
1.724  43.805593
1.723  43.820863
1.722  43.784274
1.721  43.860446
1.720  43.794503
1.719  43.806331
1.718  43.814447
1.717  43.908190
1.716  43.795322
1.715  43.854498
1.714  43.799294
1.713  43.900981
1.712  43.843502
1.711  43.842308
1.710  43.878801
1.709  43.831077
1.708  43.779516
1.707  43.866506
1.706  43.845855
1.705  43.831218
1.704  43.758116
1.703  43.787644
1.702  43.843269
1.701  43.842469
1.700  43.836534
1.699  43.811271
1.698  43.773128
1.697  43.804071
1.696  43.793905
1.695  43.881449
1.694  43.954016
1.693  43.805673
1.692  43.711759
1.691  43.861024
1.690  43.747047
1.689  43.800770
1.688  43.780896
1.687  43.838258
1.686  43.794635
1.685  43.843457
1.684  43.803046
1.683  43.840477
1.682  43.803719
1.681  43.843934
1.680  43.769403
1.679  43.832406
1.678  43.838384
1.677  43.822167
1.676  43.786958
1.675  43.868574
1.674  43.836654
1.673  43.868928
1.672  43.802717
1.671  43.857874
1.670  43.813380
1.669  43.914479
1.668  43.736920
1.667  43.896845
1.666  43.798555
1.665  43.926288
1.664  43.815597
1.663  43.865847
1.662  43.841419
1.661  43.924513
1.660  43.792633
1.659  43.859639
1.658  43.837772
1.657  43.877180
1.656  43.827517
1.655  43.901940
1.654  43.748324
1.653  43.842133
1.652  43.742593
1.651  43.900502
1.650  43.774851
1.649  43.900989
1.648  43.758041
1.647  43.899216
1.646  43.791623
1.645  43.806129
1.644  43.780847
1.643  43.892794
1.642  43.784385
1.641  43.730350
1.640  43.872469
1.639  43.875184
1.638  43.830633
1.637  43.905865
1.636  43.832953
1.635  43.817818
1.634  43.780305
1.633  43.873296
1.632  43.804964
1.631  43.917278
1.630  43.754238
1.629  43.856205
1.628  43.717513
1.627  43.940378
1.626  43.868840
1.625  43.938204
1.624  43.824304
1.623  43.852269
1.622  43.791619
1.621  43.892434
1.620  43.826753
1.619  43.841762
1.618  43.765868
1.617  43.773543
1.616  43.796182
1.615  43.769235
1.614  43.750248
1.613  43.780906
1.612  43.803612
1.611  43.830629
1.610  43.764556
1.609  43.853183
1.608  43.751849
1.607  43.869071
1.606  43.757666
1.605  43.825160
1.604  43.768110
1.603  43.792279
1.602  43.779934
1.601  43.792069
1.600  43.838464
1.599  43.789942
1.598  43.739832
1.597  43.773987
1.596  43.684603
1.595  43.797405
1.594  43.778727
1.593  43.806490
1.592  43.729486
1.591  43.831770
1.590  43.767259
1.589  43.831657
1.588  43.777807
1.587  43.853160
1.586  43.702510
1.585  43.778745
1.584  43.783235
1.583  43.728787
1.582  43.692966
1.581  43.767185
1.580  43.755158
1.579  43.710369
1.578  43.752081
1.577  43.789243
1.576  43.672416
1.575  43.723007
1.574  43.665081
1.573  43.798191
1.572  43.698996
1.571  43.821208
1.570  43.744150
1.569  43.714467
1.568  43.743320
1.567  43.782607
1.566  43.772563
1.565  43.786541
1.564  43.695028
1.563  43.709333
1.562  43.682359
1.561  43.659985
1.560  43.663146
1.559  43.713843
1.558  43.738517
1.557  43.757884
1.556  43.667649
1.555  43.670621
1.554  43.694989
1.553  43.774635
1.552  43.730097
1.551  43.704321
1.550  43.683082
1.549  43.679935
1.548  43.608404
1.547  43.687753
1.546  43.688986
1.545  43.660815
1.544  43.599066
1.543  43.610714
1.542  43.617705
1.541  43.666105
1.540  43.648059
1.539  43.595542
1.538  43.600428
1.537  43.576954
1.536  43.545795
1.535  43.632759
1.534  43.628063
1.533  43.637505
1.532  43.555118
1.531  43.594677
1.530  43.638173
1.529  43.623924
1.528  43.567434
1.527  43.599233
1.526  43.566292
1.525  43.566481
1.524  43.543905
1.523  43.554381
1.522  43.566284
1.521  43.568730
1.520  43.485899
1.519  43.504485
1.518  43.507569
1.517  43.539335
1.516  43.523537
1.515  43.494118
1.514  43.484204
1.513  43.534724
1.512  43.522219
1.511  43.491930
1.510  43.509900
1.509  43.510778
1.508  43.430224
1.507  43.441038
1.506  43.500607
1.505  43.498883
1.504  43.446534
1.503  43.431113
1.502  43.441277
1.501  43.439138
1.500  43.443733
1.499  43.455370
1.498  43.440929
1.497  43.446988
1.496  43.422065
1.495  43.393332
1.494  43.451140
1.493  43.424327
1.492  43.354594
1.491  43.345977
1.490  43.359305
1.489  43.343436
1.488  43.335756
1.487  43.342369
1.486  43.342586
1.485  43.324105
1.484  43.304146
1.483  43.291485
1.482  43.309695
1.481  43.283825
1.480  43.312227
1.479  43.262819
1.478  43.229177
1.477  43.228562
1.476  43.227858
1.475  43.216360
1.474  43.257529
1.473  43.265181
1.472  43.236375
1.471  43.233570
1.470  43.243216
1.469  43.214319
1.468  43.263488
1.467  43.217207
1.466  43.186671
1.465  43.214452
1.464  43.261771
1.463  43.181598
1.462  43.203715
1.461  43.183464
1.460  43.176611
1.459  43.157393
1.458  43.179288
1.457  43.168337
1.456  43.177011
1.455  43.102650
1.454  43.208479
1.453  43.169749
1.452  43.212339
1.451  43.138614
1.450  43.151281
1.449  43.128363
1.448  43.134354
1.447  43.097131
1.446  43.127548
1.445  43.115456
1.444  43.208142
1.443  43.142568
1.442  43.193321
1.441  43.116081
1.440  43.144295
1.439  43.125886
1.438  43.189599
1.437  43.098843
1.436  43.183848
