Name: Alunite KAl_3(SO_4)_2(OH)_6
Type: Mineral
Class: Sulfates
Subclass: 
Particle Size: 45-125um
Sample No.: SO-4A
Owner: JPL
Wavelength range: IR
Origin: USA, Utah
Collected by Ward's
Description: 





Measurement: Hemispherical reflectance
First Column: X
Second Column: Y
X Units:  Wavelength (micrometers)
Y Units:  Reflectance (percent)
First X Value: 15.3853
Last X Value: 2.00032
Number of X Values: 2256
Additional information: so04aa.txt
 
15.3853	5.43541
15.3397	4.40711
15.2945	3.90943
15.2495	3.87751
15.2048	4.37514
15.1603	5.28543
15.1161	6.16704
15.0722	7.25394
15.0285	8.29143
14.9851	9.08039
14.9419	10.0687
14.8989	11.2171
14.8563	12.3826
14.8138	13.6329
14.7716	14.7247
14.7296	15.7519
14.6879	16.9541
14.6464	17.9434
14.6052	18.3511
14.5641	18.6671
14.5233	19.2139
14.4828	19.3563
14.4424	19.318
14.4023	19.3885
14.3624	19.1832
14.3227	18.9614
14.2833	18.7945
14.244	18.2874
14.205	17.6747
14.1662	17.3269
14.1276	16.8495
14.0892	16.1185
14.051	15.2782
14.0131	14.3975
13.9753	13.1588
13.9377	11.6706
13.9004	10.2262
13.8632	9.05194
13.8262	7.79622
13.7895	6.60407
13.7529	5.66722
13.7165	4.81451
13.6803	4.06505
13.6443	3.30138
13.6085	2.65093
13.5729	2.28825
13.5374	2.00714
13.5022	1.63909
13.4671	1.22651
13.4322	0.898988
13.3975	0.762516
13.363	0.675457
13.3286	0.541192
13.2944	0.47043
13.2604	0.194318
13.2266	0.189346
13.193	0.44535
13.1595	0.541048
13.1262	0.558259
13.093	0.591951
13.06	0.557618
13.0272	0.501988
12.9946	0.472692
12.9621	0.477694
12.9298	0.461021
12.8976	0.41585
12.8656	0.466862
12.8337	0.525975
12.8021	0.702269
12.7705	0.894386
12.7391	0.991612
12.7079	0.963151
12.6769	0.911219
12.6459	0.935723
12.6152	0.90526
12.5845	0.821827
12.5541	0.756107
12.5238	0.845796
12.4936	0.928267
12.4635	0.938562
12.4337	1.11484
12.4039	1.19353
12.3743	1.06309
12.3448	1.04629
12.3155	1.06766
12.2863	1.01363
12.2573	1.07976
12.2284	1.34628
12.1996	1.50258
12.171	1.45799
12.1425	1.34126
12.1141	1.37222
12.0859	1.6009
12.0578	1.77202
12.0298	1.69888
12.0019	1.64889
11.9742	1.76303
11.9466	1.74798
11.9192	1.71365
11.8918	1.86875
11.8646	1.98221
11.8375	1.9556
11.8106	1.95003
11.7837	2.11858
11.757	2.21813
11.7304	2.27955
11.7039	2.28174
11.6776	2.30191
11.6513	2.24016
11.6252	2.14045
11.5992	2.20194
11.5733	2.3794
11.5475	2.59018
11.5219	2.66971
11.4963	2.48853
11.4709	2.39956
11.4455	2.47999
11.4203	2.58873
11.3952	2.59913
11.3702	2.54086
11.3454	2.54863
11.3206	2.58121
11.2959	2.64867
11.2714	2.6841
11.2469	2.7655
11.2226	2.68243
11.1983	2.60502
11.1742	2.65434
11.1502	2.87265
11.1263	2.96686
11.1024	2.83422
11.0787	2.82832
11.0551	2.86228
11.0316	2.87057
11.0081	2.93939
10.9848	3.01647
10.9616	3.09507
10.9385	3.05967
10.9154	3.22729
10.8925	3.35288
10.8697	3.34226
10.8469	3.41657
10.8243	3.35183
10.8017	3.33086
10.7793	3.39099
10.7569	3.41979
10.7346	3.40188
10.7125	3.50961
10.6904	3.51929
10.6684	3.52859
10.6465	3.56345
10.6247	3.66229
10.6029	3.68395
10.5813	3.68247
10.5597	3.79751
10.5383	3.81745
10.5169	3.8255
10.4956	3.84036
10.4744	3.82178
10.4533	3.93219
10.4323	4.05183
10.4113	4.11623
10.3904	4.1199
10.3697	4.07969
10.349	4.18353
10.3284	4.34015
10.3078	4.34557
10.2874	4.31607
10.267	4.29859
10.2467	4.32258
10.2265	4.35001
10.2064	4.31215
10.1863	4.38021
10.1663	4.53807
10.1464	4.65322
10.1266	4.67154
10.1069	4.79206
10.0872	4.92982
10.0676	4.91094
10.0481	4.84346
10.0287	4.93698
10.0093	5.02367
9.99005	5.09486
9.97084	5.16241
9.95169	5.14802
9.93263	5.26419
9.91364	5.36155
9.89472	5.581
9.87587	5.86483
9.8571	5.88235
9.83839	5.90317
9.81976	6.27025
9.80119	6.77245
9.78271	7.3165
9.76428	8.01991
9.74592	8.7082
9.72764	8.76851
9.70943	7.56403
9.69128	6.21186
9.6732	5.94454
9.65518	6.22873
9.63724	6.5106
9.61935	6.78219
9.60155	7.08577
9.5838	7.30914
9.56611	7.6635
9.5485	8.15002
9.53094	8.50679
9.51345	8.76617
9.49604	9.30611
9.47867	9.86918
9.46137	10.4106
9.44414	11.048
9.42697	11.6277
9.40986	12.3746
9.39281	13.4799
9.37583	14.7168
9.35891	16.2117
9.34204	18.1545
9.32524	20.6096
9.3085	22.9372
9.29182	24.721
9.27519	25.8833
9.25863	26.8238
9.24213	27.5749
9.22568	28.0557
9.2093	28.4518
9.19297	28.7694
9.17669	28.9662
9.16048	29.1514
9.14433	29.3633
9.12823	29.4402
9.11218	29.5555
9.0962	29.6282
9.08027	29.7573
9.06439	29.9192
9.04858	29.9304
9.03281	29.9044
9.0171	30.0083
9.00145	30.0932
8.98585	30.098
8.9703	30.1219
8.9548	30.0344
8.93937	29.8722
8.92398	29.6873
8.90865	29.4232
8.89337	29.1676
8.87814	28.7924
8.86296	28.3032
8.84784	27.8573
8.83277	27.5062
8.81774	27.1495
8.80277	26.5947
8.78786	26.0576
8.77298	25.479
8.75816	24.6807
8.7434	23.9318
8.72868	22.9734
8.714	21.9097
8.69938	20.5669
8.68481	18.9249
8.67029	17.069
8.65581	15.108
8.64139	13.7398
8.62701	14.1988
8.61268	16.7396
8.5984	19.6265
8.58416	21.0644
8.56997	20.8832
8.55583	19.5452
8.54174	17.5633
8.52769	15.2817
8.51368	12.9024
8.49973	10.7405
8.48582	9.16494
8.47195	7.87209
8.45813	6.74177
8.44436	5.97218
8.43062	5.47239
8.41693	4.96281
8.4033	4.36266
8.3897	3.94977
8.37614	3.65635
8.36264	3.33256
8.34917	2.98591
8.33574	2.62054
8.32236	2.44406
8.30903	2.41732
8.29573	2.42556
8.28248	2.36147
8.26927	2.34047
8.2561	2.31307
8.24298	2.17274
8.2299	2.183
8.21685	2.3208
8.20385	2.321
8.19089	2.41505
8.17797	2.43906
8.16509	2.4045
8.15225	2.51204
8.13946	2.58187
8.1267	2.59717
8.11398	2.60248
8.10131	2.5191
8.08867	2.56036
8.07606	2.65043
8.0635	2.80458
8.05099	2.93481
8.0385	3.05605
8.02606	3.2535
8.01366	3.4624
8.00129	3.59592
7.98896	3.72664
7.97667	3.8893
7.96442	3.99261
7.9522	4.08564
7.94002	4.16957
7.92788	4.23188
7.91578	4.32831
7.90371	4.38819
7.89168	4.33769
7.87969	4.30642
7.86773	4.25942
7.85581	4.04966
7.84392	3.76404
7.83207	3.46326
7.82026	3.08282
7.80849	2.76555
7.79674	2.38969
7.78503	2.00593
7.77337	1.72965
7.76173	1.51258
7.75012	1.23449
7.73856	0.900222
7.72703	0.704725
7.71553	0.587684
7.70406	0.53963
7.69263	0.547538
7.68123	0.555122
7.66987	0.571812
7.65855	0.588142
7.64725	0.471769
7.63598	0.455818
7.62475	0.510052
7.61356	0.519893
7.60239	0.463108
7.59126	0.382305
7.58017	0.379883
7.5691	0.463068
7.55806	0.531987
7.54707	0.552966
7.5361	0.573048
7.52516	0.624992
7.51425	0.605198
7.50338	0.655075
7.49253	0.726494
7.48172	0.755479
7.47094	0.887329
7.46019	0.895933
7.44947	0.81578
7.43879	0.896456
7.42813	1.05551
7.4175	1.10859
7.4069	1.03432
7.39634	0.999876
7.3858	1.06733
7.37529	1.15381
7.36482	1.21476
7.35437	1.21761
7.34396	1.28054
7.33357	1.39088
7.32321	1.38732
7.31288	1.42655
7.30258	1.49102
7.29231	1.5362
7.28207	1.4446
7.27185	1.47058
7.26167	1.62724
7.25152	1.68042
7.24139	1.63309
7.23129	1.71581
7.22122	1.76423
7.21117	1.68315
7.20116	1.5875
7.19117	1.6164
7.18121	1.80058
7.17128	2.00983
7.16137	2.056
7.1515	1.89503
7.14164	1.87275
7.13182	1.87119
7.12203	1.91843
7.11225	1.9222
7.10251	1.85985
7.0928	1.87099
7.08311	1.9015
7.07344	1.86616
7.06381	1.77711
7.0542	1.78278
7.04461	1.85238
7.03506	1.77778
7.02552	1.7647
7.01601	1.81455
7.00653	1.79378
6.99708	1.70837
6.98765	1.64921
6.97824	1.75491
6.96886	1.89285
6.95951	1.89276
6.95018	1.87011
6.94087	1.87986
6.9316	1.92584
6.92234	2.0304
6.91311	2.03151
6.90391	2.01293
6.89473	1.98209
6.88557	2.02994
6.87644	2.04067
6.86733	2.09351
6.85824	2.20371
6.84918	2.22413
6.84015	2.15126
6.83114	2.11429
6.82215	2.07639
6.81319	2.01031
6.80424	2.02148
6.79532	2.04628
6.78643	2.02734
6.77756	2.09974
6.76871	2.11809
6.75989	2.08314
6.75109	1.97551
6.74231	1.94561
6.73355	1.93593
6.72482	1.87411
6.71611	1.92227
6.70742	1.96799
6.69875	2.00866
6.69011	2.13534
6.68149	2.27578
6.67289	2.32486
6.66431	2.28304
6.65576	2.27888
6.64722	2.35975
6.63871	2.35017
6.63022	2.48704
6.62175	2.69155
6.61331	2.67689
6.60488	2.62939
6.59648	2.69602
6.5881	2.78919
6.57974	2.80349
6.5714	2.87195
6.56308	2.93282
6.55478	3.05887
6.54651	3.21587
6.53825	3.25383
6.53001	3.2839
6.5218	3.37763
6.51361	3.43014
6.50544	3.48684
6.49729	3.65018
6.48915	3.74491
6.48104	3.66145
6.47295	3.70923
6.46488	3.81941
6.45683	3.85018
6.4488	3.83712
6.44079	3.88605
6.4328	3.9395
6.42482	3.89325
6.41687	3.84947
6.40894	3.83561
6.40103	3.76836
6.39314	3.65802
6.38526	3.62633
6.37741	3.66214
6.36957	3.59376
6.36176	3.57233
6.35396	3.58861
6.34618	3.61172
6.33843	3.57469
6.33069	3.46879
6.32297	3.37987
6.31527	3.36588
6.30758	3.38108
6.29992	3.31246
6.29227	3.26638
6.28465	3.26784
6.27704	3.32909
6.26945	3.31947
6.26188	3.29795
6.25432	3.31903
6.24679	3.3021
6.23927	3.30855
6.23177	3.3216
6.22429	3.22314
6.21683	3.0566
6.20938	2.99423
6.20195	3.01764
6.19454	3.0167
6.18715	3.075
6.17978	2.97261
6.17242	2.84426
6.16508	2.85856
6.15776	2.78829
6.15045	2.65362
6.14317	2.64905
6.1359	2.63253
6.12864	2.56723
6.12141	2.65271
6.11419	2.72399
6.10699	2.70462
6.0998	2.67337
6.09263	2.712
6.08549	2.61687
6.07835	2.58625
6.07123	2.59891
6.06413	2.66013
6.05705	2.67361
6.04998	2.72831
6.04293	2.70464
6.0359	2.60376
6.02888	2.60729
6.02187	2.66611
6.01489	2.78815
6.00792	2.78809
6.00096	2.79803
5.99403	2.85156
5.98711	2.81138
5.9802	2.79627
5.97331	2.85307
5.96644	2.97886
5.95958	3.00002
5.95274	2.95298
5.94591	2.9637
5.9391	3.01171
5.9323	3.04378
5.92552	3.06965
5.91876	3.14574
5.91201	3.24364
5.90528	3.31757
5.89856	3.49396
5.89186	3.68278
5.88517	3.81405
5.8785	3.97042
5.87184	4.03088
5.8652	4.14782
5.85857	4.39345
5.85196	4.64098
5.84536	4.77725
5.83878	4.89036
5.83221	5.06846
5.82566	5.33023
5.81912	5.46705
5.81259	5.50801
5.80608	5.68628
5.79959	5.8466
5.79311	6.01052
5.78665	6.24521
5.78019	6.44727
5.77376	6.61492
5.76734	6.75011
5.76093	6.85631
5.75453	7.01476
5.74815	7.18053
5.74179	7.21448
5.73543	7.32665
5.7291	7.46588
5.72277	7.59319
5.71646	7.76179
5.71017	7.93095
5.70389	7.95051
5.69762	8.00308
5.69136	8.10239
5.68513	8.18654
5.6789	8.3581
5.67268	8.49479
5.66648	8.56653
5.6603	8.63197
5.65413	8.69602
5.64797	8.82676
5.64182	9.00929
5.63569	9.09049
5.62957	9.09114
5.62347	9.19049
5.61737	9.3057
5.61129	9.39122
5.60522	9.45671
5.59917	9.47454
5.59313	9.51724
5.5871	9.57842
5.58109	9.57899
5.57509	9.60993
5.5691	9.55729
5.56312	9.54582
5.55716	9.68978
5.55121	9.82098
5.54528	9.93899
5.53935	9.9849
5.53344	9.94937
5.52754	10.0167
5.52166	10.1018
5.51578	10.1897
5.50992	10.3778
5.50407	10.5666
5.49823	10.659
5.49241	10.8009
5.4866	11.0231
5.4808	11.2644
5.47501	11.5311
5.46923	11.7868
5.46347	12.0103
5.45772	12.1462
5.45198	12.3083
5.44625	12.5148
5.44054	12.6807
5.43484	12.8671
5.42914	13.1014
5.42347	13.3529
5.4178	13.4787
5.41214	13.5877
5.4065	13.7318
5.40087	13.7841
5.39525	13.8493
5.38964	13.9687
5.38404	14.0656
5.37846	14.1393
5.37288	14.232
5.36732	14.2817
5.36177	14.3149
5.35623	14.3643
5.35071	14.4184
5.34519	14.4189
5.33968	14.3401
5.33419	14.3786
5.32871	14.4009
5.32324	14.4476
5.31778	14.4654
5.31233	14.4705
5.30689	14.5094
5.30147	14.5052
5.29605	14.5968
5.29065	14.7844
5.28525	14.7699
5.27987	14.7882
5.2745	14.9159
5.26914	14.9337
5.26379	14.9624
5.25845	15.0613
5.25312	15.137
5.24781	15.2528
5.2425	15.353
5.23721	15.3993
5.23192	15.4443
5.22665	15.4551
5.22138	15.4976
5.21613	15.6078
5.21089	15.676
5.20566	15.6717
5.20044	15.6898
5.19522	15.6989
5.19002	15.6748
5.18483	15.6852
5.17965	15.7223
5.17448	15.7932
5.16933	15.8108
5.16418	15.8098
5.15904	15.8578
5.15391	15.8973
5.14879	15.9126
5.14368	15.9097
5.13859	15.9201
5.1335	15.9377
5.12842	16.0455
5.12335	16.1487
5.1183	16.1542
5.11325	16.1389
5.10821	16.1412
5.10318	16.2276
5.09817	16.2911
5.09316	16.324
5.08816	16.372
5.08317	16.4358
5.07819	16.4482
5.07322	16.4717
5.06826	16.446
5.06331	16.5036
5.05837	16.5819
5.05344	16.5826
5.04852	16.564
5.04361	16.6092
5.03871	16.6405
5.03382	16.6362
5.02894	16.6581
5.02406	16.6125
5.0192	16.5127
5.01435	16.5227
5.0095	16.6005
5.00467	16.6398
4.99984	16.5435
4.99502	16.4815
4.99021	16.4595
4.98542	16.375
4.98063	16.281
4.97585	16.2325
4.97108	16.1995
4.96632	16.1335
4.96156	16.1525
4.95682	16.1184
4.95209	16.0447
4.94736	16.0048
4.94264	15.8825
4.93794	15.6993
4.93324	15.5954
4.92855	15.4554
4.92387	15.2814
4.9192	15.0921
4.91453	14.8426
4.90988	14.6031
4.90524	14.2796
4.9006	13.9945
4.89597	13.6847
4.89135	13.289
4.88674	12.8126
4.88214	12.5118
4.87755	12.4812
4.87296	12.3684
4.86839	11.9406
4.86382	11.3929
4.85926	10.7419
4.85471	10.1304
4.85017	9.67639
4.84564	9.48721
4.84111	9.70061
4.8366	10.1134
4.83209	10.55
4.82759	10.8011
4.8231	10.823
4.81862	10.7623
4.81415	10.6444
4.80968	10.4234
4.80522	10.1478
4.80077	9.90347
4.79633	9.52922
4.7919	9.00771
4.78747	8.48812
4.78306	7.85346
4.77865	7.07235
4.77425	6.29066
4.76986	5.54156
4.76547	4.8816
4.7611	4.41156
4.75673	4.00853
4.75237	3.64212
4.74802	3.27878
4.74367	3.04089
4.73934	2.89718
4.73501	2.75391
4.73069	2.66186
4.72638	2.60132
4.72207	2.61559
4.71777	2.67531
4.71348	2.7487
4.7092	2.80227
4.70493	2.81448
4.70066	2.8401
4.69641	2.85474
4.69216	2.85108
4.68791	2.90113
4.68368	2.89897
4.67945	2.95546
4.67523	3.03991
4.67102	3.09977
4.66682	3.12099
4.66262	3.15507
4.65843	3.14714
4.65425	3.126
4.65007	3.05621
4.64591	2.9189
4.64175	2.79013
4.6376	2.72809
4.63345	2.68402
4.62932	2.58434
4.62519	2.52777
4.62106	2.48635
4.61695	2.39374
4.61284	2.34565
4.60874	2.33026
4.60465	2.23409
4.60056	2.19424
4.59648	2.21562
4.59241	2.28312
4.58835	2.25814
4.58429	2.26733
4.58024	2.29638
4.5762	2.26045
4.57216	2.32213
4.56814	2.40673
4.56411	2.4707
4.5601	2.49752
4.55609	2.53057
4.55209	2.52575
4.5481	2.50993
4.54411	2.53124
4.54013	2.48678
4.53616	2.48464
4.5322	2.54377
4.52824	2.5776
4.52429	2.63478
4.52034	2.62246
4.51641	2.57987
4.51247	2.61797
4.50855	2.66499
4.50463	2.62014
4.50072	2.53794
4.49682	2.50679
4.49292	2.54489
4.48903	2.54336
4.48515	2.66602
4.48127	2.8115
4.4774	2.84691
4.47354	2.82909
4.46968	2.86379
4.46584	2.89315
4.46199	2.7888
4.45815	2.6961
4.45432	2.76208
4.4505	2.90101
4.44668	2.99878
4.44287	3.0122
4.43907	3.06591
4.43527	3.08963
4.43148	3.0883
4.4277	3.12404
4.42392	3.16883
4.42015	3.27202
4.41638	3.29959
4.41262	3.36227
4.40887	3.29722
4.40513	3.23623
4.40139	3.28699
4.39765	3.34585
4.39393	3.36908
4.39021	3.29237
4.38649	3.19272
4.38278	3.19641
4.37908	3.23183
4.37539	3.19813
4.3717	3.07935
4.36801	3.04114
4.36434	3.0983
4.36067	3.20729
4.357	3.1893
4.35335	3.1314
4.34969	3.1772
4.34605	3.27288
4.34241	3.38428
4.33877	3.46333
4.33514	3.441
4.33152	3.52123
4.32791	3.60865
4.3243	3.69073
4.32069	3.93168
4.3171	4.06734
4.31351	4.16646
4.30992	4.35513
4.30634	4.53251
4.30277	4.62562
4.2992	4.60757
4.29564	4.73262
4.29208	4.88961
4.28853	4.93628
4.28499	4.9714
4.28145	5.05534
4.27792	5.10631
4.27439	5.12861
4.27087	5.23663
4.26735	5.3164
4.26384	5.35254
4.26034	5.36917
4.25684	5.49688
4.25335	5.6265
4.24986	5.7112
4.24638	5.80829
4.24291	5.88151
4.23944	5.89667
4.23598	5.98216
4.23252	6.14495
4.22906	6.23458
4.22562	6.28724
4.22218	6.32945
4.21874	6.4345
4.21531	6.57471
4.21189	6.66635
4.20847	6.66586
4.20506	6.65076
4.20165	6.64769
4.19825	6.75753
4.19485	6.92626
4.19146	6.93212
4.18807	6.83633
4.18469	6.76339
4.18132	6.76233
4.17795	6.83744
4.17458	6.87952
4.17123	6.85327
4.16787	6.8899
4.16453	6.93132
4.16118	6.88848
4.15785	6.79715
4.15451	6.79452
4.15119	6.75773
4.14787	6.72292
4.14455	6.7246
4.14124	6.80122
4.13794	6.78337
4.13464	6.70234
4.13134	6.7315
4.12805	6.80118
4.12477	6.7949
4.12149	6.74444
4.11822	6.73284
4.11495	6.77816
4.11168	6.84819
4.10843	6.84747
4.10517	6.88292
4.10192	6.95048
4.09868	6.93997
4.09545	6.80329
4.09221	6.81719
4.08899	6.9578
4.08576	7.09682
4.08255	7.16995
4.07933	7.07126
4.07613	7.07518
4.07292	7.10446
4.06973	7.07979
4.06654	7.10949
4.06335	7.09538
4.06017	7.08566
4.05699	7.18183
4.05382	7.25563
4.05065	7.23827
4.04749	7.16581
4.04433	7.18395
4.04118	7.21016
4.03803	7.26904
4.03489	7.34305
4.03175	7.37401
4.02862	7.35805
4.02549	7.3376
4.02237	7.38004
4.01925	7.43842
4.01614	7.41256
4.01303	7.41139
4.00993	7.52043
4.00683	7.51701
4.00373	7.49114
4.00064	7.46815
3.99756	7.4877
3.99448	7.60042
3.9914	7.62526
3.98833	7.5574
3.98527	7.56107
3.98221	7.5613
3.97915	7.56072
3.9761	7.57097
3.97305	7.52481
3.97001	7.61068
3.96697	7.69695
3.96394	7.71096
3.96091	7.74988
3.95789	7.72236
3.95487	7.63332
3.95186	7.6424
3.94885	7.71442
3.94584	7.74793
3.94284	7.78704
3.93984	7.76836
3.93685	7.75012
3.93386	7.79772
3.93088	7.77775
3.9279	7.78755
3.92493	7.84315
3.92196	7.86138
3.919	7.84489
3.91604	7.80649
3.91308	7.78953
3.91013	7.87481
3.90718	7.97429
3.90424	7.95156
3.9013	7.90559
3.89837	7.86578
3.89544	7.85056
3.89252	7.97251
3.8896	7.9838
3.88668	7.81627
3.88377	7.70367
3.88086	7.71217
3.87796	7.63859
3.87506	7.39769
3.87217	7.29228
3.86928	7.3889
3.86639	7.53265
3.86351	7.75127
3.86064	8.00031
3.85776	8.05696
3.8549	7.95034
3.85203	7.94831
3.84917	7.97619
3.84631	7.95233
3.84346	7.93628
3.84062	7.91567
3.83777	7.8971
3.83494	7.8738
3.8321	7.91024
3.82927	7.94071
3.82644	8.01318
3.82362	8.01061
3.82081	7.93021
3.81799	7.96488
3.81518	7.97857
3.81238	7.95547
3.80958	7.95518
3.80678	7.91771
3.80399	7.75184
3.8012	7.65523
3.79841	7.69385
3.79563	7.63957
3.79286	7.64574
3.79008	7.74014
3.78731	7.67904
3.78455	7.65162
3.78179	7.67871
3.77903	7.57119
3.77628	7.58121
3.77353	7.60885
3.77079	7.49255
3.76805	7.37648
3.76531	7.36921
3.76258	7.38186
3.75985	7.33014
3.75713	7.36141
3.7544	7.41809
3.75169	7.3746
3.74898	7.30916
3.74627	7.24963
3.74356	7.17581
3.74086	7.11557
3.73816	7.03842
3.73547	6.97856
3.73278	7.00962
3.7301	7.09709
3.72741	7.02598
3.72474	6.84515
3.72206	6.76975
3.71939	6.75851
3.71673	6.7469
3.71406	6.7421
3.71141	6.64689
3.70875	6.55771
3.7061	6.59748
3.70345	6.60402
3.70081	6.53404
3.69817	6.43701
3.69553	6.39429
3.6929	6.42392
3.69027	6.2829
3.68765	6.1686
3.68503	6.19233
3.68241	6.16295
3.6798	6.08994
3.67719	6.0917
3.67458	6.06214
3.67198	6.02463
3.66938	6.1082
3.66678	6.10774
3.66419	6.04181
3.66161	5.97424
3.65902	5.81999
3.65644	5.72598
3.65387	5.77315
3.65129	5.79848
3.64872	5.77455
3.64616	5.63015
3.64359	5.57048
3.64103	5.51663
3.63848	5.54429
3.63593	5.53908
3.63338	5.42165
3.63084	5.38157
3.6283	5.33424
3.62576	5.29165
3.62322	5.23676
3.62069	5.2529
3.61817	5.22121
3.61564	5.04858
3.61312	5.03783
3.61061	5.13327
3.6081	5.10426
3.60559	5.0385
3.60308	4.94414
3.60058	4.8957
3.59808	4.86632
3.59558	4.8248
3.59309	4.85225
3.59061	4.96097
3.58812	4.90001
3.58564	4.71268
3.58316	4.66657
3.58069	4.63298
3.57822	4.61489
3.57575	4.66028
3.57328	4.63264
3.57082	4.55388
3.56836	4.51111
3.56591	4.45626
3.56346	4.5266
3.56101	4.51937
3.55857	4.44295
3.55613	4.36747
3.55369	4.28637
3.55126	4.29331
3.54883	4.25531
3.5464	4.18228
3.54397	4.20313
3.54155	4.21998
3.53914	4.14586
3.53672	4.12536
3.53431	4.07813
3.5319	4.08481
3.5295	4.07174
3.5271	4.01229
3.5247	3.96967
3.52231	3.92824
3.51991	3.9905
3.51753	3.98346
3.51514	3.82715
3.51276	3.79606
3.51038	3.83781
3.50801	3.77749
3.50563	3.7248
3.50327	3.72248
3.5009	3.82179
3.49854	3.84834
3.49618	3.77017
3.49382	3.69215
3.49147	3.66642
3.48912	3.71783
3.48677	3.70656
3.48443	3.73274
3.48209	3.73258
3.47975	3.70051
3.47742	3.65344
3.47509	3.50327
3.47276	3.43692
3.47044	3.52916
3.46812	3.53063
