Name: Galena PbS
Type: Mineral
Class: Sulfides
Subclass: 
Particle Size: 0-45um
Sample No.: S-7A
Owner: JPL
Wavelength range: IR
Origin: USA, Kansas, Cherokee County, Galena
Collected by Grieger's Inc.
Description: 





Measurement: Hemispherical reflectance
First Column: X
Second Column: Y
X Units:  Wavelength (micrometers)
Y Units:  Reflectance (percent)
First X Value: 15.3853
Last X Value: 2.00032
Number of X Values: 2256
Additional information: s07aa.txt
 
15.3853	11.5185
15.3397	11.5847
15.2945	11.6686
15.2495	11.7865
15.2048	11.909
15.1603	12.0311
15.1161	12.4434
15.0722	12.3139
15.0285	12.1223
14.9851	12.2533
14.9419	12.1871
14.8989	12.3259
14.8563	12.5284
14.8138	12.5289
14.7716	12.4029
14.7296	12.3553
14.6879	12.294
14.6464	12.4045
14.6052	12.7044
14.5641	12.8389
14.5233	13.0317
14.4828	13.2324
14.4424	13.2677
14.4023	13.2225
14.3624	13.01
14.3227	12.8491
14.2833	13.0064
14.244	13.5122
14.205	13.6219
14.1662	13.3033
14.1276	13.0785
14.0892	13.0406
14.051	13.3351
14.0131	13.5233
13.9753	13.4889
13.9377	13.5507
13.9004	13.5054
13.8632	13.5989
13.8262	13.7157
13.7895	13.6661
13.7529	13.6755
13.7165	13.7226
13.6803	13.774
13.6443	13.8926
13.6085	13.9588
13.5729	14.0372
13.5374	14.2026
13.5022	14.2685
13.4671	14.034
13.4322	13.8586
13.3975	13.9359
13.363	14.038
13.3286	14.1545
13.2944	14.3059
13.2604	14.3248
13.2266	14.354
13.193	14.4412
13.1595	14.4933
13.1262	14.4242
13.093	14.4968
13.06	14.5676
13.0272	14.6651
12.9946	14.7897
12.9621	14.813
12.9298	14.8001
12.8976	14.8544
12.8656	14.8921
12.8337	14.8162
12.8021	14.8682
12.7705	14.9395
12.7391	14.8755
12.7079	14.9039
12.6769	15.0596
12.6459	15.1071
12.6152	15.0528
12.5845	14.9614
12.5541	15.0795
12.5238	15.3525
12.4936	15.4049
12.4635	15.3395
12.4337	15.3461
12.4039	15.4099
12.3743	15.3812
12.3448	15.377
12.3155	15.42
12.2863	15.3187
12.2573	15.3128
12.2284	15.4288
12.1996	15.4351
12.171	15.479
12.1425	15.588
12.1141	15.6241
12.0859	15.5664
12.0578	15.5306
12.0298	15.5627
12.0019	15.5892
11.9742	15.569
11.9466	15.6068
11.9192	15.7452
11.8918	15.6795
11.8646	15.6049
11.8375	15.5932
11.8106	15.653
11.7837	15.6644
11.757	15.7334
11.7304	15.7649
11.7039	15.8014
11.6776	15.947
11.6513	15.9611
11.6252	15.9077
11.5992	15.8928
11.5733	15.882
11.5475	15.9032
11.5219	15.8129
11.4963	15.6893
11.4709	15.7484
11.4455	15.9179
11.4203	16.0562
11.3952	16.0801
11.3702	15.9954
11.3454	15.9274
11.3206	15.9903
11.2959	16.0096
11.2714	15.9644
11.2469	16.001
11.2226	16.1337
11.1983	16.252
11.1742	16.2862
11.1502	16.2414
11.1263	16.2978
11.1024	16.3687
11.0787	16.4217
11.0551	16.4348
11.0316	16.3408
11.0081	16.3829
10.9848	16.5895
10.9616	16.709
10.9385	16.7292
10.9154	16.7349
10.8925	16.7586
10.8697	16.8227
10.8469	16.8133
10.8243	16.8128
10.8017	16.7747
10.7793	16.7862
10.7569	16.9436
10.7346	17.0155
10.7125	17.1004
10.6904	17.2448
10.6684	17.2196
10.6465	17.095
10.6247	17.0063
10.6029	17.1067
10.5813	17.1803
10.5597	17.3541
10.5383	17.4549
10.5169	17.4226
10.4956	17.4279
10.4744	17.3506
10.4533	17.3827
10.4323	17.524
10.4113	17.5214
10.3904	17.3756
10.3697	17.2599
10.349	17.3145
10.3284	17.4297
10.3078	17.5848
10.2874	17.6786
10.267	17.729
10.2467	17.6954
10.2265	17.6647
10.2064	17.7376
10.1863	17.8498
10.1663	17.9053
10.1464	17.9242
10.1266	17.889
10.1069	17.8255
10.0872	17.7786
10.0676	17.8394
10.0481	17.9142
10.0287	17.9292
10.0093	17.8477
9.99005	17.8912
9.97084	18.0223
9.95169	17.9654
9.93263	17.8615
9.91364	17.785
9.89472	17.8345
9.87587	17.8068
9.8571	17.702
9.83839	17.6932
9.81976	17.6715
9.80119	17.6333
9.78271	17.627
9.76428	17.5315
9.74592	17.4638
9.72764	17.4218
9.70943	17.4464
9.69128	17.3827
9.6732	17.3765
9.65518	17.2754
9.63724	17.1405
9.61935	17.1658
9.60155	17.154
9.5838	17.1147
9.56611	17.0395
9.5485	16.9772
9.53094	16.9033
9.51345	16.7638
9.49604	16.7931
9.47867	16.8775
9.46137	16.9297
9.44414	16.8413
9.42697	16.7126
9.40986	16.7453
9.39281	16.7504
9.37583	16.7361
9.35891	16.7618
9.34204	16.7248
9.32524	16.8036
9.3085	16.7615
9.29182	16.6247
9.27519	16.6527
9.25863	16.7086
9.24213	16.6547
9.22568	16.6428
9.2093	16.6394
9.19297	16.6339
9.17669	16.6395
9.16048	16.6453
9.14433	16.7035
9.12823	16.7609
9.11218	16.6916
9.0962	16.7099
9.08027	16.8033
9.06439	16.7988
9.04858	16.8371
9.03281	16.9512
9.0171	16.9984
9.00145	16.9955
8.98585	16.9972
8.9703	17.0403
8.9548	17.107
8.93937	17.0924
8.92398	17.1714
8.90865	17.1694
8.89337	17.1337
8.87814	17.1807
8.86296	17.1692
8.84784	17.0769
8.83277	17.1239
8.81774	17.1268
8.80277	17.0587
8.78786	17.0246
8.77298	17.0967
8.75816	17.1828
8.7434	17.266
8.72868	17.1681
8.714	17.0091
8.69938	17.1403
8.68481	17.1978
8.67029	17.1063
8.65581	17.1371
8.64139	17.1581
8.62701	17.1529
8.61268	17.1472
8.5984	17.152
8.58416	17.0909
8.56997	17.0344
8.55583	17.0833
8.54174	17.1764
8.52769	17.2116
8.51368	17.2213
8.49973	17.201
8.48582	17.1554
8.47195	17.2512
8.45813	17.32
8.44436	17.2925
8.43062	17.4121
8.41693	17.6319
8.4033	17.8316
8.3897	17.8926
8.37614	17.9243
8.36264	18.0519
8.34917	18.2841
8.33574	18.5418
8.32236	18.7368
8.30903	18.8309
8.29573	19.0332
8.28248	19.2376
8.26927	19.4388
8.2561	19.637
8.24298	19.8443
8.2299	20.0884
8.21685	20.2532
8.20385	20.4345
8.19089	20.572
8.17797	20.7294
8.16509	20.9305
8.15225	21.1083
8.13946	21.2325
8.1267	21.2769
8.11398	21.4068
8.10131	21.5249
8.08867	21.6737
8.07606	21.7916
8.0635	21.8437
8.05099	21.8826
8.0385	21.8836
8.02606	21.8973
8.01366	21.9747
8.00129	22.0358
7.98896	22.1173
7.97667	22.1153
7.96442	22.0907
7.9522	22.1545
7.94002	22.2601
7.92788	22.3479
7.91578	22.4036
7.90371	22.4162
7.89168	22.4623
7.87969	22.4945
7.86773	22.6346
7.85581	22.7622
7.84392	22.7911
7.83207	22.815
7.82026	22.9308
7.80849	22.957
7.79674	22.9992
7.78503	23.1153
7.77337	23.1841
7.76173	23.2296
7.75012	23.3167
7.73856	23.3448
7.72703	23.3693
7.71553	23.4497
7.70406	23.5557
7.69263	23.631
7.68123	23.6897
7.66987	23.7477
7.65855	23.8125
7.64725	23.8391
7.63598	23.8926
7.62475	23.9683
7.61356	24.0387
7.60239	24.1117
7.59126	24.1361
7.58017	24.1673
7.5691	24.1635
7.55806	24.1138
7.54707	24.1424
7.5361	24.1267
7.52516	24.0354
7.51425	23.9512
7.50338	23.967
7.49253	24.0154
7.48172	24.1339
7.47094	24.2228
7.46019	24.2225
7.44947	24.2016
7.43879	24.2278
7.42813	24.1672
7.4175	24.1008
7.4069	24.063
7.39634	24.0878
7.3858	24.1551
7.37529	24.235
7.36482	24.2426
7.35437	24.2589
7.34396	24.4104
7.33357	24.4363
7.32321	24.2924
7.31288	24.3691
7.30258	24.466
7.29231	24.4714
7.28207	24.5765
7.27185	24.6018
7.26167	24.4939
7.25152	24.537
7.24139	24.521
7.23129	24.5028
7.22122	24.505
7.21117	24.6671
7.20116	24.641
7.19117	24.5173
7.18121	24.6997
7.17128	24.9314
7.16137	24.8077
7.1515	24.8175
7.14164	24.7958
7.13182	24.6559
7.12203	24.7357
7.11225	24.7629
7.10251	24.7257
7.0928	24.7237
7.08311	24.6924
7.07344	24.7932
7.06381	24.9202
7.0542	25.2693
7.04461	25.5264
7.03506	25.1094
7.02552	24.9366
7.01601	24.912
7.00653	24.9055
6.99708	25.1171
6.98765	25.1255
6.97824	25.0149
6.96886	25.3291
6.95951	25.7167
6.95018	25.3713
6.94087	25.2208
6.9316	25.1542
6.92234	25.1499
6.91311	25.3149
6.90391	25.4231
6.89473	25.2812
6.88557	25.3274
6.87644	25.6465
6.86733	26.5735
6.85824	26.5953
6.84918	25.8191
6.84015	25.5512
6.83114	25.8516
6.82215	25.883
6.81319	25.6164
6.80424	25.8024
6.79532	26.465
6.78643	26.7051
6.77756	26.3345
6.76871	26.0638
6.75989	25.8997
6.75109	25.9984
6.74231	26.1149
6.73355	26.2622
6.72482	26.4413
6.71611	26.6802
6.70742	26.6521
6.69875	26.44
6.69011	26.7777
6.68149	27.2181
6.67289	27.0109
6.66431	26.6644
6.65576	26.5411
6.64722	27.2906
6.63871	28.4029
6.63022	27.8982
6.62175	27.1264
6.61331	27.0957
6.60488	27.0202
6.59648	27.2185
6.5881	27.4416
6.57974	27.798
6.5714	28.1707
6.56308	27.6835
6.55478	27.4795
6.54651	27.2451
6.53825	27.0372
6.53001	27.1975
6.5218	27.5867
6.51361	27.2855
6.50544	27.5039
6.49729	28.7164
6.48915	28.8467
6.48104	28.0215
6.47295	27.5627
6.46488	27.3033
6.45683	27.3418
6.4488	27.3936
6.44079	27.4727
6.4328	27.8196
6.42482	28.3276
6.41687	29.6194
6.40894	29.3376
6.40103	27.9914
6.39314	27.6444
6.38526	27.6517
6.37741	27.933
6.36957	28.2711
6.36176	27.9961
6.35396	28.0846
6.34618	28.8883
6.33843	28.6249
6.33069	28.0269
6.32297	28.0064
6.31527	27.9777
6.30758	27.9408
6.29992	27.9557
6.29227	28.1023
6.28465	28.1968
6.27704	28.18
6.26945	28.1296
6.26188	28.1645
6.25432	28.2244
6.24679	28.2235
6.23927	28.2035
6.23177	28.2869
6.22429	28.4169
6.21683	28.5027
6.20938	28.5535
6.20195	28.5291
6.19454	28.7924
6.18715	29.511
6.17978	29.1907
6.17242	28.5843
6.16508	28.8644
6.15776	29.1037
6.15045	28.9538
6.14317	28.9498
6.1359	28.8705
6.12864	28.8376
6.12141	29.4329
6.11419	30.1881
6.10699	29.6376
6.0998	29.0736
6.09263	29.0714
6.08549	29.2684
6.07835	29.8732
6.07123	30.0751
6.06413	29.6209
6.05705	30.2984
6.04998	32.0013
6.04293	31.0691
6.0359	29.7058
6.02888	29.4808
6.02187	29.6336
6.01489	29.9479
6.00792	29.7482
6.00096	29.731
5.99403	30.255
5.98711	30.4471
5.9802	30.2075
5.97331	30.4534
5.96644	30.468
5.95958	29.9654
5.95274	30.0583
5.94591	30.4888
5.9391	31.6122
5.9323	31.327
5.92552	30.32
5.91876	30.1153
5.91201	30.0592
5.90528	30.3596
5.89856	31.3852
5.89186	31.3191
5.88517	31.6933
5.8785	31.9624
5.87184	30.8458
5.8652	30.7624
5.85857	30.5974
5.85196	30.3779
5.84536	30.3236
5.83878	30.4928
5.83221	30.8687
5.82566	31.6311
5.81912	31.6489
5.81259	30.747
5.80608	30.3965
5.79959	30.3743
5.79311	30.3203
5.78665	30.3653
5.78019	30.481
5.77376	31.0401
5.76734	31.9833
5.76093	31.3084
5.75453	30.7406
5.74815	30.9954
5.74179	30.7857
5.73543	30.7583
5.7291	30.8215
5.72277	30.9916
5.71646	31.2696
5.71017	31.4774
5.70389	31.0774
5.69762	30.9671
5.69136	31.1623
5.68513	31.0434
5.6789	31.2328
5.67268	31.2853
5.66648	31.0426
5.6603	31.1899
5.65413	31.3883
5.64797	31.6256
5.64182	31.9659
5.63569	31.5988
5.62957	31.2132
5.62347	31.1496
5.61737	31.2862
5.61129	31.272
5.60522	31.3363
5.59917	31.3825
5.59313	31.2691
5.5871	31.4051
5.58109	31.8146
5.57509	31.7521
5.5691	31.455
5.56312	31.4508
5.55716	31.4981
5.55121	31.5771
5.54528	31.4577
5.53935	31.4265
5.53344	31.4785
5.52754	31.5114
5.52166	31.5234
5.51578	31.5711
5.50992	31.5964
5.50407	31.6556
5.49823	31.5368
5.49241	31.4822
5.4866	31.5723
5.4808	31.8472
5.47501	31.8994
5.46923	32.0108
5.46347	32.1489
5.45772	31.9203
5.45198	31.7432
5.44625	31.7868
5.44054	31.8584
5.43484	31.9199
5.42914	32.1377
5.42347	32.5302
5.4178	32.324
5.41214	31.9788
5.4065	31.953
5.40087	32.0213
5.39525	32.0474
5.38964	32.0097
5.38404	32.1074
5.37846	32.1792
5.37288	32.0882
5.36732	32.094
5.36177	32.2399
5.35623	32.3738
5.35071	32.5692
5.34519	32.4625
5.33968	32.2948
5.33419	32.2743
5.32871	32.284
5.32324	32.3018
5.31778	32.3034
5.31233	32.3293
5.30689	32.444
5.30147	32.4311
5.29605	32.4641
5.29065	32.5467
5.28525	32.4889
5.27987	32.4793
5.2745	32.4466
5.26914	32.4921
5.26379	32.5514
5.25845	32.5452
5.25312	32.6182
5.24781	32.6683
5.2425	32.625
5.23721	32.6632
5.23192	32.7419
5.22665	32.8025
5.22138	32.8285
5.21613	32.9925
5.21089	32.9812
5.20566	32.8448
5.20044	32.8765
5.19522	32.7842
5.19002	32.802
5.18483	32.8927
5.17965	32.8646
5.17448	32.856
5.16933	32.9124
5.16418	32.9038
5.15904	32.9102
5.15391	33.0229
5.14879	33.1983
5.14368	33.169
5.13859	33.0313
5.1335	33.0211
5.12842	33.1381
5.12335	33.1267
5.1183	33.0931
5.11325	33.1209
5.10821	33.1647
5.10318	33.2401
5.09817	33.2466
5.09316	33.215
5.08816	33.2067
5.08317	33.2654
5.07819	33.2893
5.07322	33.2715
5.06826	33.2614
5.06331	33.2866
5.05837	33.3221
5.05344	33.3751
5.04852	33.4076
5.04361	33.3939
5.03871	33.3871
5.03382	33.4259
5.02894	33.4839
5.02406	33.4976
5.0192	33.5072
5.01435	33.4977
5.0095	33.5218
5.00467	33.5356
4.99984	33.5669
4.99502	33.5619
4.99021	33.5457
4.98542	33.5654
4.98063	33.5734
4.97585	33.607
4.97108	33.6954
4.96632	33.7366
4.96156	33.7231
4.95682	33.736
4.95209	33.6779
4.94736	33.6729
4.94264	33.7287
4.93794	33.7762
4.93324	33.7695
4.92855	33.7607
4.92387	33.7781
4.9192	33.7967
4.91453	33.8301
4.90988	33.8203
4.90524	33.809
4.9006	33.8906
4.89597	33.9597
4.89135	33.8948
4.88674	33.8686
4.88214	33.9693
4.87755	34.0402
4.87296	34.1021
4.86839	34.0712
4.86382	34.0069
4.85926	34.029
4.85471	34.0615
4.85017	34.0496
4.84564	34.0676
4.84111	34.1746
4.8366	34.2221
4.83209	34.2257
4.82759	34.2579
4.8231	34.2576
4.81862	34.2726
4.81415	34.2417
4.80968	34.2368
4.80522	34.2434
4.80077	34.2741
4.79633	34.3851
4.7919	34.4044
4.78747	34.4179
4.78306	34.4379
4.77865	34.4388
4.77425	34.4392
4.76986	34.4904
4.76547	34.5552
4.7611	34.5544
4.75673	34.5
4.75237	34.5241
4.74802	34.5441
4.74367	34.512
4.73934	34.5709
4.73501	34.5936
4.73069	34.6169
4.72638	34.6449
4.72207	34.6598
4.71777	34.7294
4.71348	34.7815
4.7092	34.7662
4.70493	34.7202
4.70066	34.7459
4.69641	34.7645
4.69216	34.7667
4.68791	34.7905
4.68368	34.8009
4.67945	34.8351
4.67523	34.9093
4.67102	34.9701
4.66682	34.9475
4.66262	34.9248
4.65843	34.946
4.65425	34.9871
4.65007	34.9974
4.64591	35.0483
4.64175	35.0561
4.6376	35.0444
4.63345	35.1276
4.62932	35.1647
4.62519	35.1483
4.62106	35.1181
4.61695	35.1025
4.61284	35.1864
4.60874	35.2824
4.60465	35.2829
4.60056	35.2961
4.59648	35.2961
4.59241	35.317
4.58835	35.3858
4.58429	35.3634
4.58024	35.3226
4.5762	35.3948
4.57216	35.4354
4.56814	35.4398
4.56411	35.4984
4.5601	35.4813
4.55609	35.4491
4.55209	35.473
4.5481	35.4971
4.54411	35.4421
4.54013	35.467
4.53616	35.5606
4.5322	35.57
4.52824	35.5401
4.52429	35.6101
4.52034	35.6438
4.51641	35.6806
4.51247	35.751
4.50855	35.7744
4.50463	35.7478
4.50072	35.7704
4.49682	35.7929
4.49292	35.8362
4.48903	35.7653
4.48515	35.7453
4.48127	35.7793
4.4774	35.8147
4.47354	35.8622
4.46968	35.938
4.46584	35.9384
4.46199	35.9641
4.45815	35.9637
4.45432	35.9353
4.4505	35.9527
4.44668	35.997
4.44287	35.9688
4.43907	36.0484
4.43527	36.0581
4.43148	36.0267
4.4277	36.0614
4.42392	36.1178
4.42015	36.1456
4.41638	36.1364
4.41262	36.1404
4.40887	36.1887
4.40513	36.2427
4.40139	36.2276
4.39765	36.1935
4.39393	36.2299
4.39021	36.2298
4.38649	36.2012
4.38278	36.2493
4.37908	36.3286
4.37539	36.346
4.3717	36.3829
4.36801	36.438
4.36434	36.4719
4.36067	36.4215
4.357	36.3085
4.35335	36.2752
4.34969	36.3433
4.34605	36.3671
4.34241	36.414
4.33877	36.413
4.33514	36.3701
4.33152	36.3659
4.32791	36.3308
4.3243	36.2875
4.32069	36.297
4.3171	36.2827
4.31351	36.1612
4.30992	36.0829
4.30634	36.0326
4.30277	35.9627
4.2992	35.9431
4.29564	36.0033
4.29208	35.9919
4.28853	35.8965
4.28499	35.8623
4.28145	35.8805
4.27792	35.8603
4.27439	35.8499
4.27087	35.9163
4.26735	36.0193
4.26384	36.181
4.26034	36.3914
4.25684	36.5023
4.25335	36.3629
4.24986	36.1381
4.24638	35.9233
4.24291	35.7987
4.23944	35.7394
4.23598	35.6902
4.23252	35.7187
4.22906	35.7973
4.22562	35.9149
4.22218	36.0516
4.21874	36.1992
4.21531	36.3828
4.21189	36.5339
4.20847	36.6636
4.20506	36.839
4.20165	36.988
4.19825	36.9929
4.19485	37.0251
4.19146	37.1209
4.18807	37.1418
4.18469	37.098
4.18132	37.074
4.17795	37.0945
4.17458	37.0935
4.17123	37.019
4.16787	36.9896
4.16453	37.0169
4.16118	37.0863
4.15785	37.0814
4.15451	36.9926
4.15119	37.06
4.14787	37.1072
4.14455	37.0938
4.14124	37.133
4.13794	37.1424
4.13464	37.1588
4.13134	37.1989
4.12805	37.2051
4.12477	37.2558
4.12149	37.2972
4.11822	37.2851
4.11495	37.2757
4.11168	37.3209
4.10843	37.3356
4.10517	37.3377
4.10192	37.3785
4.09868	37.4019
4.09545	37.4842
4.09221	37.4371
4.08899	37.4097
4.08576	37.4281
4.08255	37.4372
4.07933	37.4662
4.07613	37.5355
4.07292	37.5639
4.06973	37.6218
4.06654	37.6739
4.06335	37.6808
4.06017	37.5947
4.05699	37.4892
4.05382	37.5231
4.05065	37.541
4.04749	37.524
4.04433	37.5961
4.04118	37.6736
4.03803	37.7286
4.03489	37.7397
4.03175	37.6983
4.02862	37.7708
4.02549	37.8092
4.02237	37.7384
4.01925	37.7374
4.01614	37.7439
4.01303	37.7244
4.00993	37.7224
4.00683	37.6971
4.00373	37.7295
4.00064	37.7709
3.99756	37.7603
3.99448	37.7178
3.9914	37.7619
3.98833	37.7845
3.98527	37.8363
3.98221	37.8305
3.97915	37.7376
3.9761	37.7933
3.97305	37.8584
3.97001	37.8138
3.96697	37.7292
3.96394	37.7095
3.96091	37.7817
3.95789	37.8503
3.95487	37.8221
3.95186	37.8048
3.94885	37.8327
3.94584	37.8354
3.94284	37.8404
3.93984	37.8734
3.93685	37.8905
3.93386	37.8371
3.93088	37.9134
3.9279	38.0729
3.92493	38.1504
3.92196	38.0524
3.919	37.9705
3.91604	37.9702
3.91308	37.9418
3.91013	37.9515
3.90718	37.994
3.90424	38.0332
3.9013	38.1419
3.89837	38.1903
3.89544	38.1198
3.89252	38.0812
3.8896	38.1597
3.88668	38.1881
3.88377	38.1118
3.88086	38.0964
3.87796	38.1375
3.87506	38.2045
3.87217	38.218
3.86928	38.1845
3.86639	38.2472
3.86351	38.2926
3.86064	38.2794
3.85776	38.1588
3.8549	38.1593
3.85203	38.2243
3.84917	38.2638
3.84631	38.2534
3.84346	38.2653
3.84062	38.346
3.83777	38.3605
3.83494	38.2496
3.8321	38.1546
3.82927	38.2254
3.82644	38.3305
3.82362	38.3231
3.82081	38.293
3.81799	38.3204
3.81518	38.3366
3.81238	38.3488
3.80958	38.3216
3.80678	38.2999
3.80399	38.2907
3.8012	38.2801
3.79841	38.2617
3.79563	38.1743
3.79286	38.1724
3.79008	38.2952
3.78731	38.3051
3.78455	38.2867
3.78179	38.357
3.77903	38.431
3.77628	38.3706
3.77353	38.3258
3.77079	38.3344
3.76805	38.3678
3.76531	38.3842
3.76258	38.3756
3.75985	38.386
3.75713	38.3948
3.7544	38.3569
3.75169	38.3586
3.74898	38.3232
3.74627	38.2953
3.74356	38.3653
3.74086	38.4037
3.73816	38.3342
3.73547	38.3309
3.73278	38.373
3.7301	38.3457
3.72741	38.3376
3.72474	38.2559
3.72206	38.2227
3.71939	38.2868
3.71673	38.2744
3.71406	38.2852
3.71141	38.3123
3.70875	38.332
3.7061	38.3706
3.70345	38.3112
3.70081	38.2324
3.69817	38.2479
3.69553	38.2489
3.6929	38.2436
3.69027	38.2387
3.68765	38.2043
3.68503	38.1802
3.68241	38.1363
3.6798	38.1045
3.67719	38.2085
3.67458	38.2226
3.67198	38.0697
3.66938	38.0145
3.66678	38.118
3.66419	38.131
3.66161	38.0568
3.65902	38.0061
3.65644	37.9618
3.65387	37.9788
3.65129	38.0198
3.64872	37.9919
3.64616	37.9353
3.64359	37.8843
3.64103	37.9006
3.63848	37.9276
3.63593	37.9571
3.63338	37.9509
3.63084	37.8226
3.6283	37.763
3.62576	37.7974
3.62322	37.875
3.62069	37.8893
3.61817	37.8216
3.61564	37.7992
3.61312	37.8114
3.61061	37.7561
3.6081	37.763
3.60559	37.7034
3.60308	37.6167
3.60058	37.584
3.59808	37.5864
3.59558	37.6608
3.59309	37.659
3.59061	37.5891
3.58812	37.6036
3.58564	37.6195
3.58316	37.5401
3.58069	37.494
3.57822	37.5258
3.57575	37.4922
3.57328	37.4412
3.57082	37.3497
3.56836	37.2879
3.56591	37.2812
3.56346	37.264
3.56101	37.1717
3.55857	37.1254
3.55613	37.0997
3.55369	37.1372
3.55126	37.1594
3.54883	37.0685
3.5464	37.0646
3.54397	37.0909
3.54155	37.0036
3.53914	36.9617
3.53672	37.0007
3.53431	36.8778
3.5319	36.75
3.5295	36.7214
3.5271	36.6952
3.5247	36.6459
3.52231	36.6547
3.51991	36.5923
3.51753	36.5299
3.51514	36.4873
3.51276	36.3832
3.51038	36.2791
3.50801	36.1886
3.50563	36.1187
3.50327	36.0705
3.5009	36.0462
3.49854	35.9855
3.49618	35.9548
3.49382	36.0204
3.49147	36.1006
3.48912	36.0494
3.48677	35.9742
3.48443	35.945
3.48209	35.8705
3.47975	35.8274
3.47742	35.8262
3.47509	35.7739
3.47276	35.6286
3.47044	35.5434
3.46812	35.5548
3.4658	35.5297
3.46348	35.5208
3.46117	35.5384
