Name: Mica Dacite Porphyry
Type: Rock
Class: Igneous
Subclass:  Intermediate 
Particle Size: Solid surface
Sample No.: Ward27.txt
Owner: JPL
Wavelength range:  VNIR SWIR IR 
Origin: Ward's Collection of American Rocks.  Sample locality - Ward, Boulder County, Colorado. 
Collected by:  Ward's Natural Science
Description: A gray porphyritic rock with phenocrysts of both glassy and
milky plagioclase, black mica and quartz in a medium gray cryptocrystalline
groundmass.  The biotite shows some alteration to chlorite.
Geologic age - Tertiary (Eocene).


Measurement: Hemispherical reflectance
First Column: X
Second Column: Y
X Units: Wavelength (micrometers)
Y Units: Reflectance (percent)
First X Value: 2.500
Last X Value: 0.400
Number of X Values: 2101
Additional information: None

2.500  10.606783
2.499  10.246372
2.498  10.961064
2.497  10.713149
2.496  10.364319
2.495  10.677804
2.494  10.625371
2.493  10.303103
2.492  10.689521
2.491  10.488026
2.490  10.813505
2.489  10.474457
2.488  10.845404
2.487  10.551451
2.486  10.860688
2.485  10.597445
2.484  10.717965
2.483  10.551190
2.482  10.771355
2.481  10.428483
2.480  10.877913
2.479  10.543891
2.478  10.783572
2.477  10.502726
2.476  10.633987
2.475  10.571981
2.474  10.717365
2.473  10.539574
2.472  10.803286
2.471  10.542544
2.470  10.770627
2.469  10.603659
2.468  10.810001
2.467  10.659115
2.466  10.901034
2.465  10.576636
2.464  10.741123
2.463  10.554537
2.462  10.799532
2.461  10.630787
2.460  10.758349
2.459  10.571863
2.458  10.733077
2.457  10.680075
2.456  10.684947
2.455  10.753762
2.454  10.825134
2.453  10.691628
2.452  10.833268
2.451  10.739013
2.450  10.832422
2.449  10.732602
2.448  10.853372
2.447  10.668774
2.446  10.735415
2.445  10.665602
2.444  10.724552
2.443  10.719878
2.442  10.883870
2.441  10.760391
2.440  10.948455
2.439  10.817439
2.438  10.870367
2.437  10.885845
2.436  10.825322
2.435  10.809381
2.434  10.895629
2.433  10.779871
2.432  10.899273
2.431  10.833127
2.430  10.921939
2.429  10.821495
2.428  10.926526
2.427  10.835828
2.426  10.921769
2.425  10.837359
2.424  11.054213
2.423  10.954526
2.422  10.976889
2.421  10.967945
2.420  11.127080
2.419  11.004425
2.418  11.106557
2.417  11.010293
2.416  11.025051
2.415  11.010439
2.414  11.132127
2.413  11.055190
2.412  11.109387
2.411  11.058476
2.410  11.138349
2.409  11.099582
2.408  11.146759
2.407  11.166713
2.406  11.073462
2.405  11.039652
2.404  11.111417
2.403  11.095445
2.402  11.170741
2.401  11.123143
2.400  11.124934
2.399  11.132867
2.398  11.157834
2.397  11.103269
2.396  11.185700
2.395  11.115720
2.394  11.243581
2.393  11.225757
2.392  11.194444
2.391  11.116173
2.390  11.166650
2.389  11.140999
2.388  11.226370
2.387  11.188942
2.386  11.195023
2.385  11.146864
2.384  11.136062
2.383  11.099284
2.382  11.213235
2.381  11.179235
2.380  11.094485
2.379  11.182316
2.378  11.138853
2.377  11.095336
2.376  11.191137
2.375  11.139791
2.374  11.158679
2.373  11.171337
2.372  11.141115
2.371  11.102511
2.370  11.126887
2.369  11.054530
2.368  11.022261
2.367  10.977445
2.366  11.040400
2.365  11.026689
2.364  10.988836
2.363  11.016393
2.362  10.976524
2.361  10.944428
2.360  10.976571
2.359  10.987582
2.358  10.989969
2.357  10.997793
2.356  10.993473
2.355  10.970883
2.354  10.923334
2.353  10.896836
2.352  10.902425
2.351  10.943958
2.350  10.943563
2.349  10.965597
2.348  10.940515
2.347  10.925547
2.346  10.900230
2.345  10.911232
2.344  10.980642
2.343  10.984984
2.342  10.960662
2.341  10.986295
2.340  10.979439
2.339  10.983023
2.338  11.006819
2.337  11.020500
2.336  11.002448
2.335  11.137916
2.334  11.124336
2.333  11.131336
2.332  11.097289
2.331  11.134926
2.330  11.190407
2.329  11.268735
2.328  11.281653
2.327  11.285868
2.326  11.240850
2.325  11.264729
2.324  11.322422
2.323  11.372514
2.322  11.351753
2.321  11.408928
2.320  11.414722
2.319  11.457258
2.318  11.456176
2.317  11.508017
2.316  11.561462
2.315  11.621105
2.314  11.526290
2.313  11.647017
2.312  11.615476
2.311  11.690042
2.310  11.644745
2.309  11.732801
2.308  11.706966
2.307  11.751789
2.306  11.710225
2.305  11.835075
2.304  11.841719
2.303  11.900624
2.302  11.829588
2.301  11.954263
2.300  11.839606
2.299  11.914728
2.298  11.874919
2.297  11.996109
2.296  11.969432
2.295  12.029180
2.294  11.963349
2.293  11.992145
2.292  12.007829
2.291  12.014560
2.290  11.962651
2.289  12.081556
2.288  11.954334
2.287  12.142258
2.286  12.070734
2.285  12.128487
2.284  12.176997
2.283  12.165052
2.282  12.026941
2.281  12.116050
2.280  12.060468
2.279  12.137498
2.278  12.044337
2.277  12.090558
2.276  12.019252
2.275  12.065644
2.274  11.998318
2.273  12.085189
2.272  12.056988
2.271  12.151823
2.270  12.062061
2.269  12.099523
2.268  11.974833
2.267  12.009321
2.266  11.966254
2.265  11.989898
2.264  11.916924
2.263  12.085891
2.262  11.906692
2.261  11.953993
2.260  11.854361
2.259  11.897721
2.258  11.824778
2.257  11.884500
2.256  11.837271
2.255  11.898469
2.254  11.773289
2.253  11.881150
2.252  11.793954
2.251  11.904764
2.250  11.743290
2.249  11.879439
2.248  11.757792
2.247  11.826815
2.246  11.793659
2.245  11.870852
2.244  11.784727
2.243  11.896089
2.242  11.882227
2.241  11.971792
2.240  11.807245
2.239  11.911757
2.238  11.827814
2.237  11.916268
2.236  11.869630
2.235  12.021053
2.234  11.890200
2.233  11.897135
2.232  11.801663
2.231  11.871363
2.230  11.850332
2.229  11.908877
2.228  11.820604
2.227  11.866690
2.226  11.686556
2.225  11.842943
2.224  11.654143
2.223  11.862173
2.222  11.769038
2.221  11.710772
2.220  11.662706
2.219  11.840896
2.218  11.621108
2.217  11.718861
2.216  11.734277
2.215  11.798513
2.214  11.718199
2.213  11.776069
2.212  11.754201
2.211  11.560530
2.210  11.867225
2.209  11.827254
2.208  11.778772
2.207  11.823648
2.206  11.851965
2.205  11.858135
2.204  11.890437
2.203  11.941290
2.202  11.896402
2.201  12.053204
2.200  11.933169
2.199  12.058631
2.198  11.926850
2.197  12.194870
2.196  12.079120
2.195  12.162099
2.194  12.110656
2.193  12.317978
2.192  12.176994
2.191  12.308245
2.190  12.259968
2.189  12.406760
2.188  12.373672
2.187  12.430564
2.186  12.418488
2.185  12.471146
2.184  12.395574
2.183  12.556639
2.182  12.522907
2.181  12.578795
2.180  12.599035
2.179  12.676595
2.178  12.543632
2.177  12.708386
2.176  12.666338
2.175  12.747434
2.174  12.625586
2.173  12.831859
2.172  12.753826
2.171  12.860526
2.170  12.816006
2.169  12.942869
2.168  12.804698
2.167  12.890931
2.166  12.851221
2.165  12.955825
2.164  12.908413
2.163  12.956753
2.162  12.923396
2.161  13.012893
2.160  12.989004
2.159  13.043658
2.158  13.009967
2.157  13.056273
2.156  12.984762
2.155  13.125013
2.154  13.047542
2.153  13.050521
2.152  13.086132
2.151  13.152920
2.150  13.006247
2.149  13.131022
2.148  13.054632
2.147  13.114964
2.146  13.058582
2.145  13.145332
2.144  13.019217
2.143  13.212679
2.142  13.102111
2.141  13.135279
2.140  13.144087
2.139  13.191509
2.138  13.073257
2.137  13.149896
2.136  13.171260
2.135  13.152731
2.134  13.127365
2.133  13.090462
2.132  13.122044
2.131  13.111546
2.130  13.053563
2.129  13.162339
2.128  13.098611
2.127  13.202197
2.126  13.092109
2.125  13.142949
2.124  13.098769
2.123  13.075433
2.122  13.055602
2.121  13.087847
2.120  13.052808
2.119  13.083566
2.118  12.986856
2.117  13.053634
2.116  12.997680
2.115  12.965993
2.114  12.988009
2.113  13.049621
2.112  13.045465
2.111  13.064508
2.110  13.034592
2.109  13.054069
2.108  13.022125
2.107  12.993059
2.106  12.998141
2.105  13.006669
2.104  12.925967
2.103  12.951174
2.102  12.936593
2.101  12.958714
2.100  12.933329
2.099  12.949124
2.098  12.939108
2.097  12.968924
2.096  12.978668
2.095  13.013537
2.094  12.983309
2.093  12.933741
2.092  12.939452
2.091  13.010460
2.090  12.973514
2.089  13.002557
2.088  12.958202
2.087  13.007538
2.086  12.999204
2.085  12.970873
2.084  12.988281
2.083  13.005049
2.082  13.007471
2.081  13.028192
2.080  13.027026
2.079  13.053773
2.078  13.079547
2.077  13.036140
2.076  13.050612
2.075  13.118710
2.074  13.039836
2.073  12.983141
2.072  12.998503
2.071  13.075747
2.070  13.083199
2.069  13.044002
2.068  13.044797
2.067  13.073607
2.066  13.043352
2.065  13.010129
2.064  13.054359
2.063  13.052362
2.062  13.078869
2.061  13.035343
2.060  13.037219
2.059  13.047201
2.058  13.059252
2.057  13.071660
2.056  13.084452
2.055  13.087736
2.054  13.111646
2.053  13.078656
2.052  13.059118
2.051  13.048501
2.050  13.087795
2.049  13.022205
2.048  13.049764
2.047  13.086888
2.046  13.061163
2.045  13.063025
2.044  13.090788
2.043  13.049084
2.042  13.065017
2.041  13.074998
2.040  13.096235
2.039  13.039402
2.038  13.077003
2.037  13.074341
2.036  13.114306
2.035  13.082014
2.034  13.112979
2.033  13.100155
2.032  13.123598
2.031  13.046872
2.030  13.023269
2.029  13.039686
2.028  13.028637
2.027  13.015441
2.026  13.071719
2.025  13.016953
2.024  13.103937
2.023  13.054805
2.022  13.066661
2.021  13.016588
2.020  13.064623
2.019  13.016386
2.018  13.049089
2.017  13.021255
2.016  13.055922
2.015  13.000017
2.014  13.073841
2.013  12.995439
2.012  13.061817
2.011  13.047197
2.010  13.058402
2.009  13.026143
2.008  13.113306
2.007  12.971227
2.006  13.059042
2.005  13.004461
2.004  13.066749
2.003  13.068209
2.002  13.069310
2.001  13.082976
2.000  13.064239
1.999  12.996895
1.998  12.994355
1.997  12.983921
1.996  13.028180
1.995  12.928390
1.994  13.035672
1.993  12.981372
1.992  13.086240
1.991  13.003699
1.990  13.078807
1.989  12.943692
1.988  12.947829
1.987  12.977905
1.986  13.040411
1.985  12.970403
1.984  13.062517
1.983  12.953352
1.982  13.008526
1.981  12.980434
1.980  13.057241
1.979  12.933942
1.978  12.962062
1.977  12.850201
1.976  12.993762
1.975  12.882752
1.974  13.097516
1.973  12.971311
1.972  13.093576
1.971  12.912800
1.970  13.022660
1.969  12.880983
1.968  13.059575
1.967  13.061494
1.966  13.085552
1.965  12.945478
1.964  13.012053
1.963  13.017461
1.962  13.061158
1.961  13.041653
1.960  13.063512
1.959  12.924396
1.958  13.018475
1.957  12.948462
1.956  13.060557
1.955  13.030886
1.954  13.097717
1.953  12.957193
1.952  13.010052
1.951  12.933991
1.950  13.077982
1.949  12.902901
1.948  13.016390
1.947  12.971383
1.946  13.082037
1.945  13.093117
1.944  13.050424
1.943  12.919536
1.942  13.113550
1.941  12.896219
1.940  13.115126
1.939  12.945983
1.938  13.025655
1.937  12.936456
1.936  13.114468
1.935  13.026931
1.934  13.060999
1.933  12.886355
1.932  13.057872
1.931  12.986375
1.930  13.173737
1.929  13.023723
1.928  13.116733
1.927  13.180897
1.926  12.901645
1.925  13.120106
1.924  13.061593
1.923  13.024793
1.922  13.091161
1.921  12.977167
1.920  13.126726
1.919  13.012401
1.918  13.107680
1.917  13.139826
1.916  13.148053
1.915  13.036210
1.914  13.149386
1.913  13.055794
1.912  13.169479
1.911  12.975962
1.910  13.093750
1.909  13.006824
1.908  13.108178
1.907  13.036697
1.906  13.167807
1.905  13.142805
1.904  13.134682
1.903  13.082605
1.902  13.223344
1.901  13.207027
1.900  13.323032
1.899  13.240430
1.898  13.362420
1.897  13.279217
1.896  13.367649
1.895  13.213441
1.894  13.335369
1.893  13.363522
1.892  13.403494
1.891  13.340601
1.890  13.437530
1.889  13.393716
1.888  13.533183
1.887  13.416941
1.886  13.515604
1.885  13.464658
1.884  13.604722
1.883  13.506433
1.882  13.579343
1.881  13.527705
1.880  13.510418
1.879  13.486420
1.878  13.572037
1.877  13.622908
1.876  13.605242
1.875  13.546374
1.874  13.684888
1.873  13.567391
1.872  13.630272
1.871  13.589598
1.870  13.668740
1.869  13.586699
1.868  13.704899
1.867  13.638972
1.866  13.705322
1.865  13.641489
1.864  13.711284
1.863  13.609922
1.862  13.658644
1.861  13.639172
1.860  13.658404
1.859  13.672864
1.858  13.708138
1.857  13.673350
1.856  13.718792
1.855  13.635641
1.854  13.743815
1.853  13.721857
1.852  13.738474
1.851  13.721594
1.850  13.757799
1.849  13.692568
1.848  13.756905
1.847  13.710077
1.846  13.737867
1.845  13.762618
1.844  13.809417
1.843  13.782553
1.842  13.800259
1.841  13.716841
1.840  13.798788
1.839  13.716969
1.838  13.766394
1.837  13.680928
1.836  13.745786
1.835  13.785717
1.834  13.758363
1.833  13.754457
1.832  13.778516
1.831  13.719471
1.830  13.817826
1.829  13.758127
1.828  13.837279
1.827  13.793187
1.826  13.779127
1.825  13.783995
1.824  13.814840
1.823  13.778718
1.822  13.770322
1.821  13.819466
1.820  13.786244
1.819  13.794175
1.818  13.863760
1.817  13.809356
1.816  13.887770
1.815  13.882008
1.814  13.826032
1.813  13.797308
1.812  13.803187
1.811  13.848698
1.810  13.892258
1.809  13.814975
1.808  13.875430
1.807  13.895732
1.806  13.881979
1.805  13.841303
1.804  13.846235
1.803  13.821321
1.802  13.848502
1.801  13.833256
1.800  13.830569
1.799  13.868922
1.798  13.890014
1.797  13.848563
1.796  13.894522
1.795  13.922496
1.794  13.903355
1.793  13.872102
1.792  13.857688
1.791  13.896894
1.790  13.895762
1.789  13.900457
1.788  13.905491
1.787  13.880475
1.786  13.852910
1.785  13.867829
1.784  13.920931
1.783  13.919593
1.782  13.902895
1.781  13.868952
1.780  13.873634
1.779  13.869839
1.778  13.888285
1.777  13.960779
1.776  13.894682
1.775  13.869125
1.774  13.891206
1.773  13.931697
1.772  13.939748
1.771  13.918218
1.770  13.879215
1.769  13.892817
1.768  13.908096
1.767  13.935061
1.766  13.862514
1.765  13.862840
1.764  13.865867
1.763  13.920856
1.762  13.903406
1.761  13.899446
1.760  13.879309
1.759  13.894406
1.758  13.875875
1.757  13.914812
1.756  13.867031
1.755  13.901727
1.754  13.890717
1.753  13.942599
1.752  13.908986
1.751  13.947029
1.750  13.921669
1.749  13.909524
1.748  13.884255
1.747  13.926413
1.746  13.860494
1.745  13.908604
1.744  13.899738
1.743  13.955306
1.742  13.969626
1.741  13.959780
1.740  13.900583
1.739  13.945107
1.738  13.958073
1.737  13.964922
1.736  13.906642
1.735  13.931749
1.734  13.891861
1.733  13.945783
1.732  13.852336
1.731  13.954500
1.730  13.917155
1.729  13.950628
1.728  13.925967
1.727  13.995357
1.726  13.942031
1.725  14.038696
1.724  13.999459
1.723  14.007707
1.722  13.955905
1.721  13.978277
1.720  13.908591
1.719  13.993628
1.718  13.922483
1.717  14.023007
1.716  13.963865
1.715  14.077281
1.714  13.987076
1.713  14.061120
1.712  13.995781
1.711  14.079030
1.710  13.963180
1.709  13.967720
1.708  13.992811
1.707  13.980021
1.706  13.939232
1.705  14.110154
1.704  13.956409
1.703  13.984205
1.702  13.932684
1.701  13.960612
1.700  13.954518
1.699  14.039354
1.698  14.008829
1.697  14.062532
1.696  14.053446
1.695  14.088786
1.694  13.965781
1.693  14.004205
1.692  13.939588
1.691  14.088357
1.690  13.925536
1.689  14.013302
1.688  14.030356
1.687  14.101163
1.686  13.964092
1.685  14.061160
1.684  13.979724
1.683  14.159555
1.682  14.026145
1.681  14.075000
1.680  13.944517
1.679  14.072145
1.678  13.953937
1.677  14.073148
1.676  14.017463
1.675  14.055995
1.674  14.005792
1.673  14.035766
1.672  14.055065
1.671  14.044798
1.670  13.994176
1.669  14.055729
1.668  13.894841
1.667  14.217792
1.666  14.002625
1.665  14.056372
1.664  13.975143
1.663  14.133317
1.662  14.053661
1.661  14.085888
1.660  13.993279
1.659  14.062917
1.658  14.001301
1.657  14.233296
1.656  14.043410
1.655  14.136599
1.654  14.035579
1.653  14.109483
1.652  14.024338
1.651  14.116192
1.650  14.081439
1.649  14.150628
1.648  14.109475
1.647  14.238188
1.646  14.092977
1.645  14.050097
1.644  14.082396
1.643  14.123939
1.642  14.049403
1.641  14.023049
1.640  14.174707
1.639  14.141575
1.638  14.086986
1.637  14.086901
1.636  14.068944
1.635  14.200003
1.634  14.046728
1.633  14.239410
1.632  14.126566
1.631  14.137354
1.630  14.031883
1.629  14.196986
1.628  14.060153
1.627  14.067869
1.626  14.076419
1.625  14.124951
1.624  14.071464
1.623  14.137862
1.622  14.095255
1.621  14.193876
1.620  14.077077
1.619  14.173237
1.618  14.184217
1.617  14.192877
1.616  14.069812
1.615  14.154052
1.614  14.103732
1.613  14.232243
1.612  14.085755
1.611  14.257030
1.610  14.101301
1.609  14.117678
1.608  14.081220
1.607  14.155559
1.606  14.097675
1.605  14.147208
1.604  14.140487
1.603  14.113713
1.602  14.133068
1.601  14.144763
1.600  14.091716
1.599  14.224358
1.598  14.090038
1.597  14.238715
1.596  14.164289
1.595  14.166074
1.594  14.095044
1.593  14.203161
1.592  14.093449
1.591  14.186915
1.590  14.143218
1.589  14.121217
1.588  14.044648
1.587  14.078056
1.586  14.089480
1.585  14.195054
1.584  14.165507
1.583  14.149034
1.582  14.125337
1.581  14.142995
1.580  14.206061
1.579  14.198993
1.578  14.101472
1.577  14.220310
1.576  14.052651
1.575  14.108417
1.574  14.075007
1.573  14.179604
1.572  14.057216
1.571  14.132829
1.570  14.168082
1.569  14.202957
1.568  14.112907
1.567  14.125937
1.566  14.067169
1.565  14.159515
1.564  14.098480
1.563  14.205775
1.562  14.174148
1.561  14.145315
1.560  14.099119
1.559  14.181815
1.558  14.109399
1.557  14.245407
1.556  14.196052
1.555  14.181397
1.554  14.160076
1.553  14.134587
1.552  14.050016
1.551  14.173450
1.550  14.117049
1.549  14.212027
1.548  14.110773
1.547  14.149668
1.546  14.136958
1.545  14.146390
1.544  14.127683
1.543  14.149436
1.542  14.222170
1.541  14.206585
1.540  14.144091
1.539  14.160972
1.538  14.158646
1.537  14.201729
1.536  14.194766
1.535  14.244610
1.534  14.126632
1.533  14.140796
1.532  14.152853
1.531  14.189977
1.530  14.202425
1.529  14.158732
1.528  14.157531
1.527  14.181555
1.526  14.140620
1.525  14.208912
1.524  14.196410
1.523  14.225722
1.522  14.213442
1.521  14.212935
1.520  14.201155
1.519  14.197114
1.518  14.134125
1.517  14.157684
1.516  14.177712
1.515  14.221112
1.514  14.192441
1.513  14.174269
1.512  14.172228
1.511  14.209853
1.510  14.206589
1.509  14.184413
1.508  14.193111
1.507  14.175455
1.506  14.166745
1.505  14.213737
1.504  14.231126
1.503  14.288394
1.502  14.284946
1.501  14.216386
1.500  14.234804
1.499  14.200599
1.498  14.194351
1.497  14.219738
1.496  14.211062
1.495  14.235548
1.494  14.245836
1.493  14.211476
1.492  14.175221
1.491  14.177992
1.490  14.268192
1.489  14.299133
1.488  14.188995
1.487  14.218245
1.486  14.228994
1.485  14.156741
1.484  14.159848
1.483  14.180528
1.482  14.203588
1.481  14.187480
1.480  14.218170
1.479  14.264035
1.478  14.271085
1.477  14.217044
1.476  14.181404
1.475  14.197475
1.474  14.179666
1.473  14.175318
1.472  14.195859
1.471  14.177745
1.470  14.204947
1.469  14.175154
1.468  14.223645
1.467  14.179254
1.466  14.210350
1.465  14.184322
1.464  14.196872
1.463  14.197780
1.462  14.222440
1.461  14.182193
1.460  14.232080
1.459  14.189873
1.458  14.217984
1.457  14.160858
1.456  14.140277
1.455  14.159099
1.454  14.219229
1.453  14.140407
1.452  14.240385
1.451  14.151904
1.450  14.199939
1.449  14.172454
1.448  14.265553
1.447  14.163193
1.446  14.174151
1.445  14.119020
1.444  14.181017
1.443  14.124611
1.442  14.166197
1.441  14.151505
1.440  14.167348
1.439  14.110054
1.438  14.190737
1.437  14.127821
1.436  14.156759
