Name: Tourmaline-Mica Schist
Type: Rock
Class: Metamorphic
Subclass:  Schist 
Particle Size: Solid surface
Sample No.: Ward89.txt
Owner: JPL
Wavelength range:  IR 
Origin: Ward's Collection of American Rocks.  Sample locality - near Custer, Black Hills, South Dakota.  Collected by - JPL.
Collected by:  Ward's Natural Science
Description: A light-colored schistose rock composed of small flakes of
white mica, and grains of quartz.  Abundant black prismatic tourmaline
crystals are arranged more or less parallel to the schistosity.



Measurement: Hemispherical reflectance
First Column: X
Second Column: Y
X Units: Wavelength (micrometers)
Y Units: Reflectance (percent)
First X Value: 15.3871
Last X Value: 1.9998
Number of X Values: 2257
Additional information: None

15.3871   3.95562
15.3416   4.17807
15.2964   4.26005
15.2514   4.36458
15.2066   4.21464
15.1622   3.98420
15.1180   3.80124
15.0740   3.93714
15.0303   4.02760
14.9869   3.95526
14.9437   4.20432
14.9008   4.48226
14.8581   4.61081
14.8156   4.49094
14.7734   4.34595
14.7314   4.48780
14.6897   4.72389
14.6482   4.72682
14.6069   4.66653
14.5659   5.12014
14.5251   5.69067
14.4845   5.71885
14.4442   5.79116
14.4041   6.02994
14.3642   5.85042
14.3245   5.52993
14.2850   5.64919
14.2458   5.84093
14.2068   6.00869
14.1679   6.35630
14.1293   6.70303
14.0909   6.78887
14.0528   6.80001
14.0148   6.76596
13.9770   6.66097
13.9394   6.38555
13.9021   6.13089
13.8649   5.91292
13.8279   5.59968
13.7911   5.18587
13.7546   4.84404
13.7182   4.72281
13.6820   4.80479
13.6460   4.80632
13.6101   4.67727
13.5745   4.68604
13.5391   4.90742
13.5038   5.20811
13.4687   5.34069
13.4339   5.53427
13.3991   5.99665
13.3646   6.29918
13.3302   6.29099
13.2961   6.26533
13.2621   6.37944
13.2282   6.57247
13.1946   6.66837
13.1611   6.78607
13.1278   6.88909
13.0946   7.05282
13.0616   7.30968
13.0288   7.72995
12.9962   8.11954
12.9637   8.86001
12.9313   9.73209
12.8992  10.79770
12.8672  11.96390
12.8353  12.65410
12.8036  12.94990
12.7721  13.00550
12.7407  12.64350
12.7095  11.69810
12.6784  10.66530
12.6475  10.12660
12.6167   9.98041
12.5861  10.28330
12.5556  10.69240
12.5253  10.66130
12.4951  10.24020
12.4651   9.61849
12.4352   8.70277
12.4054   7.41342
12.3758   5.91852
12.3463   4.45822
12.3170   3.61745
12.2878   3.48533
12.2588   3.61236
12.2299   3.68032
12.2011   3.74711
12.1725   3.88896
12.1439   4.09176
12.1156   4.31829
12.0873   4.67426
12.0592   4.74168
12.0312   4.58277
12.0034   4.76566
11.9757   5.09500
11.9481   5.18606
11.9206   5.04000
11.8933   5.07296
11.8661   5.32141
11.8390   5.55076
11.8120   5.75035
11.7852   5.89821
11.7584   5.87170
11.7318   5.81596
11.7053   5.93627
11.6790   6.13364
11.6527   6.14661
11.6266   6.14140
11.6006   6.30764
11.5747   6.45299
11.5489   6.45396
11.5233   6.54881
11.4977   6.62563
11.4723   6.74302
11.4469   7.02514
11.4217   7.14886
11.3966   7.14934
11.3716   7.24545
11.3468   7.45428
11.3220   7.47443
11.2973   7.47430
11.2728   7.58331
11.2483   7.78035
11.2240   7.86368
11.1997   8.02932
11.1756   8.27273
11.1515   8.37344
11.1276   8.46771
11.1038   8.53597
11.0801   8.50954
11.0564   8.60627
11.0329   8.72331
11.0095   8.86605
10.9862   8.98007
10.9629   9.24265
10.9398   9.44378
10.9168   9.45419
10.8938   9.46832
10.8710   9.52420
10.8483   9.72922
10.8256   9.97563
10.8031  10.15220
10.7806  10.32630
10.7582  10.46070
10.7360  10.70070
10.7138  10.92250
10.6917  11.02740
10.6697  11.20450
10.6478  11.36350
10.6260  11.58570
10.6042  11.96580
10.5826  12.31140
10.5610  12.56160
10.5396  12.85520
10.5182  13.26740
10.4969  13.71940
10.4757  13.96390
10.4546  14.09990
10.4335  14.46050
10.4126  14.82330
10.3917  15.24400
10.3709  15.71620
10.3502  16.00770
10.3296  16.13540
10.3091  16.28890
10.2886  16.46760
10.2683  16.80830
10.2480  17.07890
10.2277  17.33220
10.2076  17.58820
10.1876  17.76750
10.1676  17.89570
10.1477  18.04040
10.1279  18.25180
10.1081  18.44320
10.0885  18.62600
10.0689  19.00210
10.0494  19.26150
10.0299  19.58000
10.0106  19.93870
 9.9913  20.11770
 9.9720  20.27910
 9.9529  20.44320
 9.9338  20.52470
 9.9148  20.65280
 9.8959  21.01020
 9.8771  21.50510
 9.8583  21.83530
 9.8396  22.06700
 9.8210  22.67210
 9.8024  23.40290
 9.7839  24.10920
 9.7655  24.78580
 9.7471  25.32080
 9.7288  25.86640
 9.7106  26.83800
 9.6925  27.63860
 9.6744  28.08780
 9.6564  28.48280
 9.6384  28.77030
 9.6205  29.14100
 9.6027  29.63510
 9.5850  29.97440
 9.5673  30.23150
 9.5497  30.44830
 9.5321  30.78690
 9.5146  31.39510
 9.4972  31.78760
 9.4798  32.16420
 9.4625  32.60640
 9.4453  33.03680
 9.4281  33.59620
 9.4110  34.23790
 9.3940  34.88940
 9.3770  35.47850
 9.3600  35.68660
 9.3432  35.54870
 9.3264  35.29470
 9.3096  35.02100
 9.2930  34.60510
 9.2763  34.24020
 9.2598  33.88210
 9.2432  33.74030
 9.2268  33.84430
 9.2104  34.21420
 9.1941  34.70050
 9.1778  35.15090
 9.1616  35.61780
 9.1454  36.10580
 9.1293  36.58400
 9.1133  37.17490
 9.0973  37.67770
 9.0814  37.95080
 9.0655  37.99050
 9.0497  38.02990
 9.0339  38.13920
 9.0182  38.18570
 9.0025  37.86070
 8.9870  37.44700
 8.9714  37.04420
 8.9559  36.64450
 8.9405  36.12800
 8.9251  35.51640
 8.9097  34.81200
 8.8945  34.13860
 8.8792  33.40760
 8.8641  32.64220
 8.8489  31.81680
 8.8338  31.02130
 8.8188  30.13990
 8.8039  29.37370
 8.7889  28.77280
 8.7741  28.08570
 8.7592  27.33070
 8.7445  26.86720
 8.7297  26.33000
 8.7151  25.61760
 8.7005  24.95390
 8.6859  24.12160
 8.6714  22.70180
 8.6569  20.90130
 8.6425  19.17650
 8.6281  18.35320
 8.6137  19.21110
 8.5994  20.92300
 8.5852  22.40770
 8.5710  23.38390
 8.5569  24.09110
 8.5428  24.52140
 8.5287  24.64300
 8.5147  24.75660
 8.5008  24.92610
 8.4869  24.92570
 8.4730  24.71300
 8.4592  24.57640
 8.4454  24.55980
 8.4316  24.62220
 8.4180  24.68130
 8.4043  24.61450
 8.3907  24.50780
 8.3772  24.36520
 8.3637  24.24530
 8.3502  24.16910
 8.3368  24.04600
 8.3234  23.94150
 8.3100  23.73330
 8.2967  23.69860
 8.2835  23.62950
 8.2703  23.47000
 8.2571  23.35760
 8.2440  23.33320
 8.2309  23.08150
 8.2179  22.82750
 8.2049  22.48540
 8.1919  22.08630
 8.1790  21.55360
 8.1661  20.92800
 8.1532  20.00880
 8.1404  18.76110
 8.1277  17.59170
 8.1150  16.52390
 8.1023  15.42310
 8.0897  14.46550
 8.0770  13.61500
 8.0645  12.68600
 8.0520  11.82000
 8.0395  11.03690
 8.0270  10.35920
 8.0146   9.87084
 8.0023   9.30142
 7.9899   8.65344
 7.9776   8.04125
 7.9654   7.63963
 7.9532   7.37972
 7.9410   7.00749
 7.9288   6.51533
 7.9167   6.12480
 7.9047   5.83660
 7.8926   5.67278
 7.8807   5.40828
 7.8687   5.20538
 7.8568   5.06901
 7.8449   4.90929
 7.8330   4.71268
 7.8212   4.57316
 7.8094   4.55345
 7.7977   4.43151
 7.7860   4.41280
 7.7743   4.49569
 7.7627   4.46415
 7.7511   4.34296
 7.7395   4.26334
 7.7280   4.11473
 7.7165   3.94144
 7.7050   3.86371
 7.6936   3.83181
 7.6822   3.81063
 7.6708   3.71919
 7.6595   3.51502
 7.6482   3.37091
 7.6369   3.32348
 7.6257   3.26965
 7.6145   3.21021
 7.6033   3.13361
 7.5922   3.11242
 7.5811   3.08226
 7.5700   2.90952
 7.5590   2.84127
 7.5480   2.85746
 7.5370   2.87675
 7.5261   2.86805
 7.5152   2.95024
 7.5043   2.97794
 7.4935   2.97953
 7.4826   3.07051
 7.4718   3.13334
 7.4611   3.14254
 7.4504   3.19013
 7.4397   3.27448
 7.4290   3.29260
 7.4184   3.29477
 7.4078   3.29260
 7.3972   3.22831
 7.3867   3.18144
 7.3762   3.06892
 7.3657   2.93489
 7.3553   2.89537
 7.3449   2.86270
 7.3345   2.73002
 7.3241   2.61623
 7.3138   2.48924
 7.3035   2.33297
 7.2932   2.23708
 7.2830   2.25086
 7.2727   2.28195
 7.2626   2.10307
 7.2524   1.99749
 7.2423   2.03393
 7.2322   2.02551
 7.2221   1.92600
 7.2120   1.85370
 7.2020   1.74647
 7.1921   1.71984
 7.1821   1.68337
 7.1722   1.59516
 7.1623   1.62996
 7.1524   1.61201
 7.1425   1.52541
 7.1327   1.54846
 7.1229   1.61246
 7.1131   1.55112
 7.1034   1.59633
 7.0937   1.65528
 7.0840   1.69067
 7.0743   1.73675
 7.0647   1.74184
 7.0551   1.66131
 7.0455   1.62720
 7.0359   1.56568
 7.0264   1.65399
 7.0169   1.68082
 7.0074   1.63277
 6.9979   1.63569
 6.9885   1.69934
 6.9791   1.61395
 6.9697   1.55682
 6.9604   1.60465
 6.9510   1.63539
 6.9417   1.71662
 6.9324   1.74292
 6.9232   1.79487
 6.9140   1.83576
 6.9047   1.75473
 6.8956   1.77538
 6.8864   1.85028
 6.8773   1.90074
 6.8682   1.87419
 6.8591   1.84690
 6.8500   1.87549
 6.8410   1.85067
 6.8320   1.87156
 6.8230   1.90426
 6.8140   1.96232
 6.8051   2.00396
 6.7962   2.06239
 6.7873   2.05931
 6.7784   2.01593
 6.7695   2.09914
 6.7607   2.13293
 6.7519   2.06703
 6.7431   1.96744
 6.7344   1.97923
 6.7256   2.05888
 6.7169   2.07265
 6.7082   2.05868
 6.6996   2.02487
 6.6909   2.11682
 6.6823   2.25705
 6.6737   2.22578
 6.6651   2.17512
 6.6566   2.18030
 6.6480   2.28156
 6.6395   2.38611
 6.6310   2.39368
 6.6226   2.35579
 6.6141   2.29909
 6.6057   2.27356
 6.5973   2.33655
 6.5889   2.33747
 6.5805   2.37307
 6.5722   2.51634
 6.5639   2.48150
 6.5556   2.35094
 6.5473   2.30831
 6.5390   2.38178
 6.5308   2.45860
 6.5226   2.53965
 6.5144   2.62061
 6.5062   2.64046
 6.4981   2.56260
 6.4900   2.53449
 6.4818   2.49126
 6.4737   2.41449
 6.4657   2.50208
 6.4576   2.64254
 6.4496   2.67527
 6.4416   2.66762
 6.4336   2.72127
 6.4256   2.77864
 6.4177   2.82171
 6.4097   2.73645
 6.4018   2.63576
 6.3939   2.67819
 6.3860   2.71664
 6.3782   2.65310
 6.3704   2.54968
 6.3625   2.63059
 6.3547   2.74962
 6.3470   2.75003
 6.3392   2.77751
 6.3315   2.82416
 6.3237   2.70939
 6.3160   2.61429
 6.3083   2.67263
 6.3007   2.75706
 6.2930   2.74846
 6.2854   2.74777
 6.2778   2.75923
 6.2702   2.74766
 6.2626   2.77507
 6.2551   2.79820
 6.2476   2.83823
 6.2400   2.73665
 6.2325   2.60792
 6.2251   2.60813
 6.2176   2.71855
 6.2101   2.75921
 6.2027   2.74457
 6.1953   2.82469
 6.1879   2.95749
 6.1805   2.87618
 6.1732   2.81291
 6.1658   2.82533
 6.1585   2.76125
 6.1512   2.76160
 6.1439   2.79149
 6.1367   2.83801
 6.1294   2.89587
 6.1222   2.89029
 6.1149   2.95611
 6.1077   2.90804
 6.1006   2.83632
 6.0934   2.75040
 6.0862   2.75629
 6.0791   2.82753
 6.0720   2.82702
 6.0649   2.94574
 6.0578   2.99636
 6.0507   3.04603
 6.0437   2.96850
 6.0366   2.88496
 6.0296   2.93416
 6.0226   2.94879
 6.0156   2.85398
 6.0087   2.85026
 6.0017   2.83357
 5.9948   2.83987
 5.9878   2.83630
 5.9809   2.73301
 5.9740   2.73062
 5.9672   2.77519
 5.9603   2.87173
 5.9535   2.88113
 5.9466   2.67655
 5.9398   2.64369
 5.9330   2.74163
 5.9262   2.82058
 5.9195   2.87903
 5.9127   2.86730
 5.9060   2.89917
 5.8993   2.94191
 5.8926   2.92087
 5.8859   2.91023
 5.8792   2.92144
 5.8726   2.98250
 5.8659   3.06462
 5.8593   2.98350
 5.8527   3.02007
 5.8461   3.13856
 5.8395   3.18477
 5.8329   3.08683
 5.8264   3.09311
 5.8198   3.12128
 5.8133   3.13169
 5.8068   3.21681
 5.8003   3.28791
 5.7938   3.33014
 5.7874   3.28855
 5.7809   3.25530
 5.7745   3.33201
 5.7680   3.40423
 5.7616   3.38184
 5.7552   3.30915
 5.7489   3.27474
 5.7425   3.30024
 5.7361   3.32772
 5.7298   3.39052
 5.7235   3.40591
 5.7172   3.39383
 5.7109   3.36143
 5.7046   3.33520
 5.6983   3.37291
 5.6921   3.40019
 5.6858   3.43064
 5.6796   3.39834
 5.6734   3.29339
 5.6672   3.33808
 5.6610   3.38489
 5.6548   3.35821
 5.6487   3.37413
 5.6425   3.36895
 5.6364   3.30970
 5.6303   3.29733
 5.6242   3.37133
 5.6181   3.41464
 5.6120   3.40332
 5.6059   3.42076
 5.5999   3.39300
 5.5938   3.32651
 5.5878   3.36561
 5.5818   3.41497
 5.5758   3.39725
 5.5698   3.39893
 5.5638   3.40425
 5.5578   3.36305
 5.5519   3.30242
 5.5460   3.35279
 5.5400   3.45690
 5.5341   3.58792
 5.5282   3.59916
 5.5223   3.50443
 5.5164   3.41369
 5.5106   3.43257
 5.5047   3.49574
 5.4989   3.55526
 5.4931   3.59468
 5.4873   3.65803
 5.4815   3.62980
 5.4757   3.62429
 5.4699   3.75078
 5.4641   3.77403
 5.4584   3.81549
 5.4527   3.81293
 5.4469   3.78827
 5.4412   3.77758
 5.4355   3.76608
 5.4298   3.79653
 5.4241   3.81670
 5.4185   3.80379
 5.4128   3.74815
 5.4072   3.72426
 5.4015   3.71080
 5.3959   3.70045
 5.3903   3.67464
 5.3847   3.58122
 5.3791   3.65728
 5.3735   3.67934
 5.3680   3.65891
 5.3624   3.70194
 5.3569   3.74332
 5.3514   3.75905
 5.3458   3.73827
 5.3403   3.74208
 5.3348   3.75866
 5.3294   3.77983
 5.3239   3.75235
 5.3184   3.63798
 5.3130   3.59808
 5.3075   3.62345
 5.3021   3.70334
 5.2967   3.78615
 5.2913   3.84137
 5.2859   3.85301
 5.2805   3.81080
 5.2751   3.77293
 5.2698   3.79742
 5.2644   3.89307
 5.2591   3.96117
 5.2538   3.98515
 5.2485   3.94303
 5.2431   3.99706
 5.2378   4.11866
 5.2326   4.15722
 5.2273   4.24046
 5.2220   4.31836
 5.2168   4.30832
 5.2115   4.26703
 5.2063   4.23530
 5.2011   4.33740
 5.1959   4.38056
 5.1907   4.42218
 5.1855   4.57924
 5.1803   4.54894
 5.1751   4.60215
 5.1700   4.69025
 5.1648   4.65104
 5.1597   4.65065
 5.1545   4.69847
 5.1494   4.63580
 5.1443   4.54803
 5.1392   4.53621
 5.1341   4.56653
 5.1291   4.59303
 5.1240   4.65265
 5.1189   4.72148
 5.1139   4.74220
 5.1088   4.72751
 5.1038   4.72923
 5.0988   4.67937
 5.0938   4.72287
 5.0888   4.75740
 5.0838   4.68982
 5.0788   4.63857
 5.0738   4.70102
 5.0689   4.69566
 5.0639   4.56984
 5.0590   4.57526
 5.0541   4.56427
 5.0491   4.55304
 5.0442   4.62852
 5.0393   4.69601
 5.0344   4.74151
 5.0296   4.72584
 5.0247   4.73922
 5.0198   4.67796
 5.0150   4.62027
 5.0101   4.74130
 5.0053   4.79024
 5.0004   4.71984
 4.9956   4.71964
 4.9908   4.80736
 4.9860   4.85990
 4.9812   4.77973
 4.9765   4.69244
 4.9717   4.71344
 4.9669   4.74477
 4.9622   4.77805
 4.9574   4.86654
 4.9527   4.89349
 4.9480   4.94419
 4.9432   5.04675
 4.9385   5.01249
 4.9338   5.01897
 4.9291   5.07213
 4.9245   5.10674
 4.9198   5.07553
 4.9151   5.12903
 4.9105   5.22828
 4.9058   5.30031
 4.9012   5.35921
 4.8966   5.43904
 4.8919   5.51355
 4.8873   5.48866
 4.8827   5.53116
 4.8781   5.58241
 4.8736   5.68892
 4.8690   5.78788
 4.8644   5.82250
 4.8599   5.76755
 4.8553   5.73398
 4.8508   5.84886
 4.8462   5.96915
 4.8417   6.05424
 4.8372   6.11653
 4.8327   6.10004
 4.8282   6.10576
 4.8237   6.15660
 4.8192   6.14598
 4.8147   6.19625
 4.8103   6.20361
 4.8058   6.14693
 4.8014   6.17412
 4.7969   6.21645
 4.7925   6.17472
 4.7881   6.22478
 4.7836   6.34359
 4.7792   6.43434
 4.7748   6.45038
 4.7704   6.44753
 4.7660   6.49946
 4.7617   6.61997
 4.7573   6.65274
 4.7530   6.61612
 4.7486   6.57458
 4.7443   6.60764
 4.7399   6.62880
 4.7356   6.64963
 4.7313   6.73358
 4.7270   6.82658
 4.7226   6.84683
 4.7184   6.85962
 4.7141   6.90191
 4.7098   6.93403
 4.7055   6.88386
 4.7012   6.81889
 4.6970   6.95723
 4.6927   7.03981
 4.6885   6.93668
 4.6842   6.89557
 4.6800   6.94446
 4.6758   6.98724
 4.6716   7.09646
 4.6674   7.15198
 4.6632   7.25043
 4.6590   7.25835
 4.6548   7.19154
 4.6506   7.33136
 4.6465   7.52310
 4.6423   7.47042
 4.6382   7.42153
 4.6340   7.43727
 4.6299   7.48210
 4.6258   7.56292
 4.6216   7.57563
 4.6175   7.54387
 4.6134   7.57519
 4.6093   7.67671
 4.6052   7.75411
 4.6011   7.72584
 4.5971   7.71044
 4.5930   7.70377
 4.5889   7.70139
 4.5849   7.71494
 4.5808   7.74085
 4.5768   7.71795
 4.5727   7.75152
 4.5687   7.78671
 4.5647   7.72445
 4.5607   7.71116
 4.5567   7.66817
 4.5526   7.62819
 4.5487   7.66218
 4.5447   7.60557
 4.5407   7.59720
 4.5367   7.57234
 4.5328   7.49528
 4.5288   7.49393
 4.5248   7.41734
 4.5209   7.49332
 4.5170   7.57999
 4.5130   7.50560
 4.5091   7.41081
 4.5052   7.34714
 4.5013   7.31294
 4.4974   7.29292
 4.4935   7.26390
 4.4896   7.23215
 4.4857   7.21890
 4.4818   7.21066
 4.4779   7.24419
 4.4741   7.19191
 4.4702   7.17631
 4.4664   7.26821
 4.4625   7.43447
 4.4587   7.39160
 4.4549   7.36750
 4.4510   7.38864
 4.4472   7.32166
 4.4434   7.31903
 4.4396   7.36524
 4.4358   7.40679
 4.4320   7.51563
 4.4282   7.54043
 4.4245   7.43565
 4.4207   7.40453
 4.4169   7.45949
 4.4132   7.52025
 4.4094   7.60086
 4.4057   7.66201
 4.4019   7.73247
 4.3982   7.76604
 4.3945   7.79002
 4.3907   7.83896
 4.3870   7.79321
 4.3833   7.79463
 4.3796   7.85263
 4.3759   7.80176
 4.3722   7.88415
 4.3685   7.96844
 4.3649   7.97664
 4.3612   8.03014
 4.3575   7.98714
 4.3539   8.00713
 4.3502   8.01553
 4.3466   7.90740
 4.3429   7.93150
 4.3393   7.99371
 4.3357   7.98778
 4.3320   8.03838
 4.3284   8.06077
 4.3248   8.00837
 4.3212   7.96829
 4.3176   7.97242
 4.3140   7.96600
 4.3105   7.82954
 4.3069   7.70334
 4.3033   7.73761
 4.2997   7.73010
 4.2962   7.66644
 4.2926   7.65286
 4.2890   7.66206
 4.2855   7.57338
 4.2820   7.55667
 4.2784   7.53055
 4.2749   7.55719
 4.2714   7.59863
 4.2679   7.70173
 4.2644   7.92384
 4.2609   8.21209
 4.2574   8.26651
 4.2539   8.04241
 4.2504   7.79258
 4.2469   7.55994
 4.2434   7.59904
 4.2400   7.60012
 4.2365   7.56919
 4.2330   7.60488
 4.2296   7.67785
 4.2261   7.73496
 4.2227   7.84798
 4.2193   7.94998
 4.2158   8.09816
 4.2124   8.16860
 4.2090   8.45805
 4.2056   8.68209
 4.2022   8.67888
 4.1988   8.69477
 4.1954   8.77779
 4.1920   8.82639
 4.1886   8.97688
 4.1852   9.08784
 4.1818   9.11516
 4.1785   9.11019
 4.1751   9.10180
 4.1717   9.15231
 4.1684   9.26142
 4.1650   9.27060
 4.1617   9.27096
 4.1584   9.26998
 4.1550   9.30330
 4.1517   9.44136
 4.1484   9.42809
 4.1451   9.42613
 4.1418   9.48167
 4.1384   9.48733
 4.1351   9.56849
 4.1319   9.67819
 4.1286   9.65326
 4.1253   9.62588
 4.1220   9.73282
 4.1187   9.74888
 4.1155   9.78983
 4.1122   9.87173
 4.1089   9.86964
 4.1057   9.98948
 4.1024  10.03880
 4.0992  10.06400
 4.0959  10.16080
 4.0927  10.17150
 4.0895  10.13120
 4.0863  10.01900
 4.0830  10.08970
 4.0798  10.26560
 4.0766  10.38090
 4.0734  10.30720
 4.0702  10.23970
 4.0670  10.32540
 4.0639  10.37890
 4.0607  10.38250
 4.0575  10.35800
 4.0543  10.26960
 4.0511  10.20150
 4.0480  10.33810
 4.0448  10.56470
 4.0417  10.62280
 4.0385  10.37470
 4.0354  10.19890
 4.0323  10.31790
 4.0291  10.23970
 4.0260  10.18040
 4.0229  10.24120
 4.0197  10.28970
 4.0166  10.30560
 4.0135  10.32300
 4.0104  10.28030
 4.0073  10.17060
 4.0042  10.29720
 4.0011  10.25440
 3.9981  10.07260
 3.9950  10.05840
 3.9919  10.06140
 3.9888   9.97605
 3.9857  10.00030
 3.9827  10.20650
 3.9796  10.20860
 3.9766  10.12340
 3.9735  10.19310
 3.9705  10.29550
 3.9675  10.28490
 3.9644  10.11310
 3.9614   9.90640
 3.9584   9.98805
 3.9554  10.18980
 3.9523  10.22710
 3.9493  10.18970
 3.9463  10.14040
 3.9433  10.01910
 3.9403   9.94788
 3.9373  10.00590
 3.9343  10.08390
 3.9314  10.26610
 3.9284  10.25230
 3.9254  10.17480
 3.9224  10.10240
 3.9195  10.01600
 3.9165  10.04580
 3.9136  10.04010
 3.9106   9.94892
 3.9077   9.90558
 3.9047   9.90082
 3.9018   9.88721
 3.8988   9.87968
 3.8959   9.85976
 3.8930   9.76716
 3.8901   9.66798
 3.8872   9.59137
 3.8842   9.57683
 3.8813   9.60154
 3.8784   9.59912
 3.8755   9.64188
 3.8726   9.66429
 3.8697   9.50610
 3.8669   9.40855
 3.8640   9.43139
 3.8611   9.42416
 3.8582   9.40328
 3.8554   9.36562
 3.8525   9.16324
