Name: Chlorite
Type: Mineral
Class: Silicates
Subclass: Phyllosilicates
Particle Size: 0-45um
Sample No.: PS-12C
Owner: JPL
Wavelength range: IR
Origin: USA, California
Collected by Ward's
Description: 





Measurement: Hemispherical reflectance
First Column: X
Second Column: Y
X Units:  Wavelength (micrometers)
Y Units:  Reflectance (percent)
First X Value: 15.3853
Last X Value: 2.00032
Number of X Values: 2256
Additional information: ps12ca.txt
 
15.3853	3.59237
15.3397	3.76101
15.2945	3.63243
15.2495	3.56468
15.2048	3.37463
15.1603	3.16854
15.1161	3.09814
15.0722	3.03395
15.0285	2.75854
14.9851	2.75829
14.9419	2.67179
14.8989	2.54212
14.8563	2.56824
14.8138	2.5027
14.7716	2.51121
14.7296	2.51864
14.6879	2.54423
14.6464	2.43544
14.6052	2.46981
14.5641	2.4544
14.5233	2.22851
14.4828	2.12316
14.4424	2.19745
14.4023	2.41737
14.3624	2.51346
14.3227	2.29991
14.2833	2.05801
14.244	1.93229
14.205	1.86334
14.1662	2.01588
14.1276	2.09054
14.0892	1.99114
14.051	2.02063
14.0131	2.16933
13.9753	1.953
13.9377	1.81637
13.9004	2.05662
13.8632	2.22909
13.8262	2.11956
13.7895	2.21439
13.7529	2.32142
13.7165	2.24127
13.6803	2.17678
13.6443	2.13104
13.6085	2.19404
13.5729	2.14419
13.5374	2.09973
13.5022	2.08417
13.4671	2.13036
13.4322	2.20467
13.3975	2.29295
13.363	2.44412
13.3286	2.40431
13.2944	2.28795
13.2604	2.33691
13.2266	2.25297
13.193	2.16058
13.1595	2.16241
13.1262	2.11848
13.093	2.17076
13.06	2.39174
13.0272	2.28705
12.9946	2.07916
12.9621	1.95989
12.9298	1.83818
12.8976	1.73987
12.8656	1.69975
12.8337	1.74604
12.8021	1.75974
12.7705	1.72753
12.7391	1.64887
12.7079	1.55944
12.6769	1.57282
12.6459	1.4806
12.6152	1.33662
12.5845	1.36482
12.5541	1.34131
12.5238	1.36931
12.4936	1.43506
12.4635	1.38931
12.4337	1.43801
12.4039	1.43764
12.3743	1.25114
12.3448	1.28839
12.3155	1.58525
12.2863	1.63479
12.2573	1.48949
12.2284	1.59406
12.1996	1.81265
12.171	1.84192
12.1425	1.84639
12.1141	1.80076
12.0859	1.80505
12.0578	1.91959
12.0298	1.99149
12.0019	2.15094
11.9742	2.18678
11.9466	2.2739
11.9192	2.42817
11.8918	2.58314
11.8646	2.70855
11.8375	2.88656
11.8106	2.92522
11.7837	3.02167
11.757	3.08162
11.7304	3.14192
11.7039	3.37058
11.6776	3.55868
11.6513	3.59417
11.6252	3.63386
11.5992	3.54423
11.5733	3.47728
11.5475	3.56144
11.5219	3.75574
11.4963	3.80978
11.4709	3.7353
11.4455	3.75133
11.4203	3.8977
11.3952	3.84677
11.3702	3.85728
11.3454	4.02912
11.3206	4.17286
11.2959	4.21716
11.2714	4.26606
11.2469	4.39675
11.2226	4.43972
11.1983	4.34972
11.1742	4.37847
11.1502	4.49598
11.1263	4.58083
11.1024	4.62165
11.0787	4.72237
11.0551	4.76894
11.0316	4.76533
11.0081	4.80323
10.9848	4.85761
10.9616	4.84311
10.9385	4.89455
10.9154	4.97904
10.8925	4.96858
10.8697	4.9436
10.8469	5.09977
10.8243	5.15635
10.8017	5.2538
10.7793	5.44361
10.7569	5.50852
10.7346	5.56518
10.7125	5.66866
10.6904	5.67072
10.6684	5.6663
10.6465	5.81786
10.6247	6.02887
10.6029	6.10763
10.5813	6.28584
10.5597	6.44065
10.5383	6.56343
10.5169	6.71356
10.4956	6.75847
10.4744	6.8351
10.4533	6.92989
10.4323	7.03105
10.4113	7.01715
10.3904	6.90796
10.3697	6.86897
10.349	6.83054
10.3284	6.72507
10.3078	6.811
10.2874	6.8511
10.267	6.80238
10.2467	6.87296
10.2265	6.92392
10.2064	6.97307
10.1863	7.18375
10.1663	7.37333
10.1464	7.57327
10.1266	7.78077
10.1069	7.96783
10.0872	8.09553
10.0676	8.28499
10.0481	8.51609
10.0287	8.71225
10.0093	8.85984
9.99005	9.01917
9.97084	9.16547
9.95169	9.4533
9.93263	9.80975
9.91364	10.158
9.89472	10.4336
9.87587	10.7539
9.8571	10.9936
9.83839	11.2045
9.81976	11.4918
9.80119	11.7236
9.78271	12.0183
9.76428	12.1853
9.74592	12.1888
9.72764	12.255
9.70943	12.2545
9.69128	12.0882
9.6732	11.9121
9.65518	11.5468
9.63724	11.0172
9.61935	10.5402
9.60155	10.1799
9.5838	9.83745
9.56611	9.46047
9.5485	9.13502
9.53094	8.85106
9.51345	8.57014
9.49604	8.42314
9.47867	8.22368
9.46137	7.9668
9.44414	7.86185
9.42697	7.95912
9.40986	8.22436
9.39281	8.39516
9.37583	8.46028
9.35891	8.55286
9.34204	8.54432
9.32524	8.36794
9.3085	7.98462
9.29182	7.76984
9.27519	7.41031
9.25863	6.89027
9.24213	6.59394
9.22568	6.2922
9.2093	5.87173
9.19297	5.56145
9.17669	5.45132
9.16048	5.34959
9.14433	5.17051
9.12823	5.00632
9.11218	4.95478
9.0962	4.88835
9.08027	4.66762
9.06439	4.3802
9.04858	4.00218
9.03281	3.66227
9.0171	3.35211
9.00145	3.1706
8.98585	3.02929
8.9703	2.76409
8.9548	2.5033
8.93937	2.33596
8.92398	2.00652
8.90865	1.78511
8.89337	1.66297
8.87814	1.60088
8.86296	1.54361
8.84784	1.33608
8.83277	1.13908
8.81774	1.08773
8.80277	1.0566
8.78786	1.01346
8.77298	0.884877
8.75816	0.799291
8.7434	0.679971
8.72868	0.635446
8.714	0.72193
8.69938	0.804453
8.68481	0.618171
8.67029	0.597995
8.65581	0.60414
8.64139	0.606283
8.62701	0.711577
8.61268	0.650848
8.5984	0.574304
8.58416	0.631928
8.56997	0.607146
8.55583	0.820329
8.54174	0.971573
8.52769	0.932432
8.51368	0.934135
8.49973	0.935471
8.48582	1.17182
8.47195	1.44293
8.45813	1.46868
8.44436	1.36397
8.43062	1.44142
8.41693	1.64024
8.4033	1.68254
8.3897	1.80595
8.37614	1.95314
8.36264	2.10419
8.34917	2.25731
8.33574	2.42924
8.32236	2.49365
8.30903	2.56812
8.29573	2.79121
8.28248	2.98456
8.26927	3.11231
8.2561	3.33103
8.24298	3.34748
8.2299	3.35567
8.21685	3.50607
8.20385	3.86514
8.19089	4.09785
8.17797	4.20002
8.16509	4.27185
8.15225	4.14069
8.13946	4.27989
8.1267	4.62575
8.11398	4.85526
8.10131	5.04244
8.08867	5.15263
8.07606	5.13646
8.0635	5.2902
8.05099	5.56491
8.0385	5.77972
8.02606	5.81779
8.01366	5.90236
8.00129	6.08425
7.98896	6.24925
7.97667	6.28022
7.96442	6.41626
7.9522	6.65453
7.94002	6.69587
7.92788	6.78853
7.91578	6.93388
7.90371	7.08275
7.89168	7.36264
7.87969	7.54832
7.86773	7.57545
7.85581	7.64324
7.84392	7.73263
7.83207	7.8893
7.82026	8.05404
7.80849	8.18579
7.79674	8.28149
7.78503	8.37529
7.77337	8.49824
7.76173	8.60007
7.75012	8.6918
7.73856	8.86519
7.72703	9.01856
7.71553	9.07619
7.70406	9.11284
7.69263	9.1899
7.68123	9.29604
7.66987	9.40702
7.65855	9.55983
7.64725	9.71324
7.63598	9.78021
7.62475	9.87088
7.61356	10.0436
7.60239	10.1792
7.59126	10.2392
7.58017	10.2677
7.5691	10.308
7.55806	10.401
7.54707	10.468
7.5361	10.5333
7.52516	10.7434
7.51425	10.8587
7.50338	10.8833
7.49253	10.8903
7.48172	11.08
7.47094	11.2675
7.46019	11.3367
7.44947	11.3303
7.43879	11.4399
7.42813	11.6077
7.4175	11.6061
7.4069	11.6104
7.39634	11.7675
7.3858	11.8088
7.37529	11.8204
7.36482	11.9971
7.35437	12.1797
7.34396	12.2544
7.33357	12.3276
7.32321	12.4649
7.31288	12.5887
7.30258	12.637
7.29231	12.7123
7.28207	12.8499
7.27185	12.996
7.26167	13.1267
7.25152	13.2192
7.24139	13.3357
7.23129	13.4586
7.22122	13.5594
7.21117	13.7172
7.20116	13.8281
7.19117	13.8381
7.18121	13.9309
7.17128	14.1037
7.16137	14.1912
7.1515	14.2522
7.14164	14.3598
7.13182	14.4265
7.12203	14.5236
7.11225	14.4962
7.10251	14.5413
7.0928	14.6783
7.08311	14.8456
7.07344	14.9687
7.06381	14.9969
7.0542	15.1968
7.04461	15.3989
7.03506	15.2809
7.02552	15.2662
7.01601	15.3626
7.00653	15.4189
6.99708	15.5888
6.98765	15.7096
6.97824	15.7495
6.96886	15.9967
6.95951	16.2734
6.95018	16.2193
6.94087	16.2268
6.9316	16.322
6.92234	16.3849
6.91311	16.4359
6.90391	16.5749
6.89473	16.6314
6.88557	16.6016
6.87644	16.6908
6.86733	17.0238
6.85824	17.0454
6.84918	16.8703
6.84015	16.9168
6.83114	17.0175
6.82215	17.0056
6.81319	16.9465
6.80424	17.0388
6.79532	17.2551
6.78643	17.2835
6.77756	17.1897
6.76871	17.1792
6.75989	17.1813
6.75109	17.2106
6.74231	17.1672
6.73355	17.155
6.72482	17.3017
6.71611	17.4812
6.70742	17.4056
6.69875	17.2198
6.69011	17.3444
6.68149	17.4967
6.67289	17.3256
6.66431	17.2425
6.65576	17.2774
6.64722	17.5181
6.63871	17.872
6.63022	17.6969
6.62175	17.3736
6.61331	17.3247
6.60488	17.216
6.59648	17.2695
6.5881	17.3348
6.57974	17.3617
6.5714	17.402
6.56308	17.1563
6.55478	17.0563
6.54651	16.9328
6.53825	16.7898
6.53001	16.6763
6.5218	16.7026
6.51361	16.5599
6.50544	16.5433
6.49729	16.7813
6.48915	16.7084
6.48104	16.3339
6.47295	15.9369
6.46488	15.6368
6.45683	15.5988
6.4488	15.512
6.44079	15.4241
6.4328	15.4322
6.42482	15.4538
6.41687	15.6027
6.40894	15.4045
6.40103	14.8934
6.39314	14.6272
6.38526	14.5774
6.37741	14.5423
6.36957	14.4519
6.36176	14.2908
6.35396	14.2346
6.34618	14.3871
6.33843	14.2374
6.33069	13.9756
6.32297	13.8276
6.31527	13.7552
6.30758	13.7758
6.29992	13.8788
6.29227	13.9647
6.28465	13.9793
6.27704	13.9737
6.26945	14.0418
6.26188	14.1182
6.25432	14.1036
6.24679	14.1925
6.23927	14.2594
6.23177	14.2539
6.22429	14.2241
6.21683	14.2513
6.20938	14.3329
6.20195	14.3768
6.19454	14.4269
6.18715	14.6802
6.17978	14.5874
6.17242	14.4063
6.16508	14.4786
6.15776	14.6961
6.15045	14.7544
6.14317	14.668
6.1359	14.6098
6.12864	14.6244
6.12141	14.8212
6.11419	15.1233
6.10699	15.0396
6.0998	14.9003
6.09263	14.9174
6.08549	14.9747
6.07835	15.1999
6.07123	15.3577
6.06413	15.3132
6.05705	15.5542
6.04998	16.0771
6.04293	15.8428
6.0359	15.5126
6.02888	15.5565
6.02187	15.5787
6.01489	15.662
6.00792	15.6597
6.00096	15.6815
5.99403	15.8656
5.98711	15.9682
5.9802	15.9186
5.97331	15.9491
5.96644	16.0252
5.95958	15.9429
5.95274	15.9485
5.94591	16.0694
5.9391	16.377
5.9323	16.2735
5.92552	16.0541
5.91876	16.1315
5.91201	16.2033
5.90528	16.2108
5.89856	16.4443
5.89186	16.5054
5.88517	16.7332
5.8785	16.8145
5.87184	16.5373
5.8652	16.6395
5.85857	16.7383
5.85196	16.7698
5.84536	16.7712
5.83878	16.9289
5.83221	17.2234
5.82566	17.5451
5.81912	17.5987
5.81259	17.4365
5.80608	17.403
5.79959	17.4777
5.79311	17.6483
5.78665	17.8436
5.78019	17.9831
5.77376	18.234
5.76734	18.5814
5.76093	18.5585
5.75453	18.5205
5.74815	18.7105
5.74179	18.8385
5.73543	18.8977
5.7291	18.9539
5.72277	19.1088
5.71646	19.2998
5.71017	19.4286
5.70389	19.3632
5.69762	19.3583
5.69136	19.4261
5.68513	19.4461
5.6789	19.5679
5.67268	19.6439
5.66648	19.6441
5.6603	19.7774
5.65413	19.9002
5.64797	19.9859
5.64182	20.1257
5.63569	20.0685
5.62957	19.8888
5.62347	19.8414
5.61737	19.9389
5.61129	19.9708
5.60522	19.9677
5.59917	20.0751
5.59313	20.1412
5.5871	20.1506
5.58109	20.2699
5.57509	20.3549
5.5691	20.3117
5.56312	20.3137
5.55716	20.4126
5.55121	20.4417
5.54528	20.3985
5.53935	20.4556
5.53344	20.5101
5.52754	20.5628
5.52166	20.6316
5.51578	20.636
5.50992	20.6377
5.50407	20.7995
5.49823	20.8756
5.49241	20.8328
5.4866	20.8929
5.4808	21.0391
5.47501	21.1499
5.46923	21.3453
5.46347	21.4785
5.45772	21.4579
5.45198	21.5695
5.44625	21.6758
5.44054	21.7363
5.43484	21.7726
5.42914	21.9247
5.42347	22.2019
5.4178	22.2372
5.41214	22.2447
5.4065	22.3143
5.40087	22.3123
5.39525	22.3899
5.38964	22.4624
5.38404	22.5902
5.37846	22.7219
5.37288	22.8485
5.36732	22.9886
5.36177	23.0404
5.35623	23.095
5.35071	23.1754
5.34519	23.1904
5.33968	23.2066
5.33419	23.2815
5.32871	23.3379
5.32324	23.3546
5.31778	23.448
5.31233	23.5913
5.30689	23.6516
5.30147	23.6327
5.29605	23.6905
5.29065	23.7674
5.28525	23.7572
5.27987	23.8613
5.2745	24.0088
5.26914	24.0472
5.26379	24.0622
5.25845	24.1174
5.25312	24.1804
5.24781	24.2733
5.2425	24.3526
5.23721	24.4546
5.23192	24.585
5.22665	24.6258
5.22138	24.7064
5.21613	24.9351
5.21089	25.0044
5.20566	24.9783
5.20044	25.0363
5.19522	25.1392
5.19002	25.2403
5.18483	25.3253
5.17965	25.4373
5.17448	25.5065
5.16933	25.5474
5.16418	25.5769
5.15904	25.6327
5.15391	25.7639
5.14879	25.8311
5.14368	25.8508
5.13859	25.8914
5.1335	25.8774
5.12842	25.8672
5.12335	25.9392
5.1183	26.036
5.11325	26.1242
5.10821	26.0968
5.10318	26.0261
5.09817	25.9856
5.09316	25.9877
5.08816	26.0597
5.08317	26.0927
5.07819	26.0229
5.07322	26.0671
5.06826	26.0848
5.06331	26.0058
5.05837	25.9895
5.05344	26.0631
5.04852	26.1099
5.04361	26.0921
5.03871	26.0155
5.03382	25.9826
5.02894	25.9301
5.02406	25.8757
5.0192	25.8874
5.01435	25.961
5.0095	25.9862
5.00467	26.0147
4.99984	26.0823
4.99502	26.0453
4.99021	26.0595
4.98542	26.1864
4.98063	26.2892
4.97585	26.3327
4.97108	26.423
4.96632	26.5557
4.96156	26.6979
4.95682	26.887
4.95209	27.0503
4.94736	27.2477
4.94264	27.41
4.93794	27.6389
4.93324	27.877
4.92855	28.0828
4.92387	28.3137
4.9192	28.5514
4.91453	28.8162
4.90988	29.0388
4.90524	29.2312
4.9006	29.5129
4.89597	29.7505
4.89135	30.0029
4.88674	30.242
4.88214	30.4377
4.87755	30.6564
4.87296	30.9053
4.86839	31.2116
4.86382	31.5314
4.85926	31.7829
4.85471	31.9511
4.85017	32.1042
4.84564	32.3517
4.84111	32.6437
4.8366	32.8218
4.83209	33.0355
4.82759	33.2008
4.8231	33.3432
4.81862	33.5625
4.81415	33.773
4.80968	33.9896
4.80522	34.2168
4.80077	34.4108
4.79633	34.5744
4.7919	34.7236
4.78747	34.9035
4.78306	35.0811
4.77865	35.2911
4.77425	35.5201
4.76986	35.7061
4.76547	35.8366
4.7611	36.0533
4.75673	36.2795
4.75237	36.4197
4.74802	36.6067
4.74367	36.879
4.73934	37.1741
4.73501	37.4655
4.73069	37.7666
4.72638	38.0674
4.72207	38.3926
4.71777	38.6894
4.71348	39.0555
4.7092	39.3741
4.70493	39.6311
4.70066	39.8854
4.69641	40.2616
4.69216	40.6587
4.68791	40.9239
4.68368	41.1849
4.67945	41.4619
4.67523	41.7698
4.67102	42.0932
4.66682	42.4043
4.66262	42.7303
4.65843	42.9918
4.65425	43.2221
4.65007	43.4651
4.64591	43.6981
4.64175	43.8093
4.6376	43.9839
4.63345	44.1843
4.62932	44.324
4.62519	44.4826
4.62106	44.6636
4.61695	44.8618
4.61284	45.1033
4.60874	45.3106
4.60465	45.4687
4.60056	45.7334
4.59648	46.0439
4.59241	46.3294
4.58835	46.6665
4.58429	46.9952
4.58024	47.3416
4.5762	47.6211
4.57216	47.9232
4.56814	48.1721
4.56411	48.4429
4.5601	48.7362
4.55609	48.9962
4.55209	49.2588
4.5481	49.5151
4.54411	49.6605
4.54013	49.7345
4.53616	49.8639
4.5322	50.0845
4.52824	50.27
4.52429	50.4371
4.52034	50.505
4.51641	50.5302
4.51247	50.5762
4.50855	50.7831
4.50463	51.0126
4.50072	51.1294
4.49682	51.214
4.49292	51.2434
4.48903	51.3692
4.48515	51.5094
4.48127	51.6293
4.4774	51.7184
4.47354	51.8081
4.46968	51.8849
4.46584	51.9566
4.46199	52.1012
4.45815	52.2736
4.45432	52.3814
4.4505	52.4676
4.44668	52.5397
4.44287	52.5903
4.43907	52.7239
4.43527	52.8722
4.43148	52.8928
4.4277	52.9154
4.42392	53.0371
4.42015	53.129
4.41638	53.1633
4.41262	53.2526
4.40887	53.3937
4.40513	53.4985
4.40139	53.5709
4.39765	53.6124
4.39393	53.6515
4.39021	53.7483
4.38649	53.8236
4.38278	53.8051
4.37908	53.8836
4.37539	54.0154
4.3717	54.1084
4.36801	54.1761
4.36434	54.1955
4.36067	54.2538
4.357	54.392
4.35335	54.4694
4.34969	54.4601
4.34605	54.4679
4.34241	54.5509
4.33877	54.6479
4.33514	54.6878
4.33152	54.6781
4.32791	54.7726
4.3243	54.8842
4.32069	54.9611
4.3171	55.0135
4.31351	55.0478
4.30992	55.1733
4.30634	55.2532
4.30277	55.255
4.2992	55.2943
4.29564	55.3091
4.29208	55.4125
4.28853	55.5243
4.28499	55.615
4.28145	55.7096
4.27792	55.6899
4.27439	55.6914
4.27087	55.7921
4.26735	55.7396
4.26384	55.727
4.26034	55.8219
4.25684	55.8853
4.25335	55.9826
4.24986	56.0982
4.24638	56.1954
4.24291	56.2848
4.23944	56.334
4.23598	56.3982
4.23252	56.4555
4.22906	56.5024
4.22562	56.5653
4.22218	56.6345
4.21874	56.6179
4.21531	56.6279
4.21189	56.6298
4.20847	56.6399
4.20506	56.7165
4.20165	56.7463
4.19825	56.7555
4.19485	56.785
4.19146	56.8031
4.18807	56.843
4.18469	56.8514
4.18132	56.873
4.17795	56.8994
4.17458	56.9453
4.17123	57.0632
4.16787	57.1631
4.16453	57.2044
4.16118	57.2675
4.15785	57.3095
4.15451	57.3757
4.15119	57.4454
4.14787	57.4353
4.14455	57.3891
4.14124	57.4341
4.13794	57.5214
4.13464	57.5887
4.13134	57.5955
4.12805	57.5541
4.12477	57.5756
4.12149	57.6722
4.11822	57.744
4.11495	57.7713
4.11168	57.7836
4.10843	57.8289
4.10517	57.9112
4.10192	57.9263
4.09868	57.9475
4.09545	57.937
4.09221	57.8733
4.08899	57.9431
4.08576	58.0441
4.08255	58.0638
4.07933	58.0767
4.07613	58.1051
4.07292	58.196
4.06973	58.2317
4.06654	58.1707
4.06335	58.1822
4.06017	58.2157
4.05699	58.209
4.05382	58.2509
4.05065	58.2441
4.04749	58.2036
4.04433	58.2295
4.04118	58.2601
4.03803	58.2277
4.03489	58.2511
4.03175	58.3112
4.02862	58.3055
4.02549	58.3123
4.02237	58.3382
4.01925	58.3533
4.01614	58.3249
4.01303	58.3481
4.00993	58.3448
4.00683	58.3133
4.00373	58.2709
4.00064	58.3068
3.99756	58.3759
3.99448	58.4115
3.9914	58.3952
3.98833	58.3692
3.98527	58.3229
3.98221	58.3072
3.97915	58.3598
3.9761	58.3508
3.97305	58.3131
3.97001	58.2947
3.96697	58.2926
3.96394	58.3049
3.96091	58.3064
3.95789	58.2424
3.95487	58.1956
3.95186	58.225
3.94885	58.2506
3.94584	58.2762
3.94284	58.2751
3.93984	58.2749
3.93685	58.2462
3.93386	58.1802
3.93088	58.1716
3.9279	58.2047
3.92493	58.2286
3.92196	58.2602
3.919	58.2716
3.91604	58.1937
3.91308	58.1376
3.91013	58.1573
3.90718	58.132
3.90424	58.1245
3.9013	58.1157
3.89837	58.0925
3.89544	58.0848
3.89252	58.0532
3.8896	57.9968
3.88668	57.9474
3.88377	57.9058
3.88086	57.936
3.87796	57.8952
3.87506	57.8287
3.87217	57.8049
3.86928	57.7411
3.86639	57.7427
3.86351	57.7387
3.86064	57.7349
3.85776	57.6837
3.8549	57.6364
3.85203	57.574
3.84917	57.4542
3.84631	57.432
3.84346	57.4974
3.84062	57.418
3.83777	57.2867
3.83494	57.2678
3.8321	57.2236
3.82927	57.1939
3.82644	57.1342
3.82362	57.0624
3.82081	57.0374
3.81799	57.023
3.81518	56.9439
3.81238	56.9001
3.80958	56.8181
3.80678	56.7623
3.80399	56.7417
3.8012	56.7246
3.79841	56.736
3.79563	56.6856
3.79286	56.6192
3.79008	56.6084
3.78731	56.599
3.78455	56.5786
3.78179	56.5735
3.77903	56.5572
3.77628	56.5291
3.77353	56.4174
3.77079	56.3327
3.76805	56.3498
3.76531	56.3333
3.76258	56.3177
3.75985	56.3019
3.75713	56.2255
3.7544	56.1461
3.75169	56.0879
3.74898	56.0893
3.74627	56.0327
3.74356	55.9688
3.74086	55.9445
3.73816	55.9399
3.73547	55.8339
3.73278	55.759
3.7301	55.7429
3.72741	55.6918
3.72474	55.602
3.72206	55.4668
3.71939	55.4114
3.71673	55.3732
3.71406	55.3103
3.71141	55.2106
3.70875	55.1044
3.7061	55.0071
3.70345	54.8772
3.70081	54.8051
3.69817	54.8259
3.69553	54.7249
3.6929	54.7275
3.69027	54.7728
3.68765	54.7348
3.68503	54.6556
3.68241	54.5651
3.6798	54.5262
3.67719	54.4661
3.67458	54.4173
3.67198	54.365
3.66938	54.3142
3.66678	54.241
3.66419	54.1425
3.66161	54.1088
3.65902	54.0677
3.65644	53.9406
3.65387	53.8398
3.65129	53.8182
3.64872	53.7375
3.64616	53.6307
3.64359	53.5973
3.64103	53.5137
3.63848	53.4076
3.63593	53.3678
3.63338	53.3442
3.63084	53.2997
3.6283	53.1628
3.62576	53.0297
3.62322	52.9295
3.62069	52.8681
3.61817	52.7497
3.61564	52.5972
3.61312	52.4957
3.61061	52.405
3.6081	52.3178
3.60559	52.2345
3.60308	52.1682
3.60058	52.0545
3.59808	51.845
3.59558	51.7001
3.59309	51.5234
3.59061	51.3378
3.58812	51.2355
3.58564	51.069
3.58316	50.7952
3.58069	50.6115
3.57822	50.4678
3.57575	50.3228
3.57328	50.0901
3.57082	49.9481
3.56836	49.914
3.56591	49.8276
3.56346	49.7482
3.56101	49.7636
3.55857	49.755
3.55613	49.6634
3.55369	49.6278
3.55126	49.6295
3.54883	49.5411
3.5464	49.4485
3.54397	49.2772
3.54155	49.1619
3.53914	49.1877
3.53672	49.0777
3.53431	48.9266
3.5319	48.7989
3.5295	48.6456
3.5271	48.4572
3.5247	48.2841
3.52231	48.1037
3.51991	47.9932
3.51753	47.9606
3.51514	47.8632
3.51276	47.6751
3.51038	47.5493
3.50801	47.4082
3.50563	47.2393
3.50327	47.1127
3.5009	47.0126
3.49854	46.957
3.49618	46.8299
3.49382	46.6209
3.49147	46.5939
3.48912	46.5884
3.48677	46.3952
3.48443	46.2453
3.48209	46.1337
3.47975	46.01
3.47742	45.9247
3.47509	45.8119
3.47276	45.699
3.47044	45.612
3.46812	45.5546
