Name: Oolitic Limestone
Type: Rock
Class: Sedimentary
Subclass:  Limestone 
Particle Size: Solid surface
Sample No.: Ward72.txt
Owner: JPL
Wavelength range:  VNIR SWIR IR
Origin: Ward's Collection of American Rocks.  Sample locality - Bedford, Lawrence County, Indiana.
Collected by:  Ward's Natural Science
Description: A grayish rock showing oolitic texture.  Micro fossils are
quite common.
Geologic age - Mississippian.



Measurement: Hemispherical reflectance
First Column: X
Second Column: Y
X Units: Wavelength (micrometers)
Y Units: Reflectance (percent)
First X Value: 2.500
Last X Value: 0.400
Number of X Values: 2101
Additional information: None

2.500  38.670230
2.499  38.497275
2.498  38.890765
2.497  38.755620
2.496  38.742245
2.495  39.183543
2.494  39.248297
2.493  39.256853
2.492  39.476010
2.491  39.553862
2.490  39.794402
2.489  39.938323
2.488  39.967227
2.487  40.263879
2.486  40.412794
2.485  40.605308
2.484  40.672787
2.483  41.033391
2.482  41.141045
2.481  41.253190
2.480  41.733969
2.479  41.763174
2.478  42.046105
2.477  42.254991
2.476  42.752777
2.475  42.901328
2.474  43.418927
2.473  43.613068
2.472  44.064371
2.471  44.264546
2.470  44.677527
2.469  44.962160
2.468  45.354483
2.467  45.608424
2.466  46.137599
2.465  46.397745
2.464  46.793529
2.463  47.108469
2.462  47.486872
2.461  47.911826
2.460  48.225155
2.459  48.425551
2.458  49.091486
2.457  49.187386
2.456  49.620409
2.455  49.911008
2.454  50.144618
2.453  50.405476
2.452  50.831169
2.451  51.107973
2.450  51.426235
2.449  51.587063
2.448  51.953585
2.447  52.292350
2.446  52.455567
2.445  52.634150
2.444  52.933698
2.443  53.139496
2.442  53.412961
2.441  53.635975
2.440  53.899885
2.439  54.096612
2.438  54.313601
2.437  54.559591
2.436  54.784451
2.435  55.018440
2.434  55.244314
2.433  55.389778
2.432  55.622750
2.431  55.821564
2.430  55.994046
2.429  56.245157
2.428  56.421738
2.427  56.628528
2.426  56.793183
2.425  57.012009
2.424  57.228224
2.423  57.256348
2.422  57.499399
2.421  57.686773
2.420  57.950779
2.419  58.000946
2.418  58.175634
2.417  58.495380
2.416  58.487881
2.415  58.641654
2.414  58.733667
2.413  58.755388
2.412  58.887383
2.411  59.043000
2.410  59.171834
2.409  59.214663
2.408  59.384558
2.407  59.387814
2.406  59.478472
2.405  59.487623
2.404  59.618666
2.403  59.644147
2.402  59.685763
2.401  59.771805
2.400  59.725877
2.399  59.766358
2.398  59.901690
2.397  59.840686
2.396  59.909753
2.395  60.015379
2.394  60.123992
2.393  60.184082
2.392  60.115678
2.391  60.137503
2.390  60.147308
2.389  60.147417
2.388  60.175040
2.387  60.194469
2.386  60.168465
2.385  60.139487
2.384  60.124153
2.383  60.121768
2.382  59.992640
2.381  59.862441
2.380  59.761530
2.379  59.649621
2.378  59.553089
2.377  59.363811
2.376  59.251650
2.375  59.049479
2.374  58.794780
2.373  58.568043
2.372  58.322819
2.371  58.040628
2.370  57.713690
2.369  57.443064
2.368  57.063819
2.367  56.697791
2.366  56.257899
2.365  55.815572
2.364  55.367905
2.363  54.885781
2.362  54.386182
2.361  53.907915
2.360  53.383569
2.359  52.762240
2.358  52.200582
2.357  51.737740
2.356  51.136397
2.355  50.521600
2.354  50.008700
2.353  49.471861
2.352  48.910187
2.351  48.380612
2.350  47.886168
2.349  47.432677
2.348  47.005640
2.347  46.557685
2.346  46.146686
2.345  45.788180
2.344  45.456759
2.343  45.194409
2.342  44.977823
2.341  44.783782
2.340  44.608141
2.339  44.510055
2.338  44.393228
2.337  44.322199
2.336  44.336374
2.335  44.424643
2.334  44.525190
2.333  44.632076
2.332  44.681788
2.331  44.826712
2.330  45.035818
2.329  45.244466
2.328  45.436282
2.327  45.693264
2.326  45.879878
2.325  46.102749
2.324  46.387954
2.323  46.666925
2.322  46.805856
2.321  46.979818
2.320  47.229357
2.319  47.544820
2.318  47.761286
2.317  48.033058
2.316  48.287744
2.315  48.482581
2.314  48.624592
2.313  48.780309
2.312  48.969830
2.311  49.196458
2.310  49.350218
2.309  49.517044
2.308  49.630316
2.307  49.829475
2.306  49.945939
2.305  50.056595
2.304  50.177790
2.303  50.353568
2.302  50.468836
2.301  50.543712
2.300  50.616679
2.299  50.797979
2.298  50.923133
2.297  51.106964
2.296  51.270041
2.295  51.423803
2.294  51.573342
2.293  51.708130
2.292  51.853716
2.291  52.025824
2.290  52.223066
2.289  52.496539
2.288  52.679937
2.287  52.876800
2.286  53.037384
2.285  53.245586
2.284  53.483150
2.283  53.789049
2.282  54.093736
2.281  54.396362
2.280  54.579826
2.279  54.853074
2.278  55.132951
2.277  55.444444
2.276  55.672508
2.275  56.002976
2.274  56.294362
2.273  56.561216
2.272  56.900869
2.271  57.088830
2.270  57.388095
2.269  57.640004
2.268  57.971561
2.267  58.181334
2.266  58.407062
2.265  58.694446
2.264  58.847576
2.263  59.117962
2.262  59.419139
2.261  59.574948
2.260  59.709509
2.259  60.056509
2.258  60.265840
2.257  60.473939
2.256  60.632874
2.255  60.952542
2.254  60.998176
2.253  61.227127
2.252  61.434245
2.251  61.606366
2.250  61.787015
2.249  62.051729
2.248  62.096430
2.247  62.424440
2.246  62.444122
2.245  62.721263
2.244  62.732336
2.243  63.009349
2.242  63.071222
2.241  63.238901
2.240  63.390014
2.239  63.532856
2.238  63.671041
2.237  63.928199
2.236  63.937749
2.235  64.057301
2.234  64.274414
2.233  64.339009
2.232  64.431738
2.231  64.606567
2.230  64.786906
2.229  64.871319
2.228  64.888632
2.227  65.059371
2.226  65.276204
2.225  65.311290
2.224  65.405789
2.223  65.496908
2.222  65.594524
2.221  65.693386
2.220  65.708876
2.219  65.936608
2.218  65.915906
2.217  66.112558
2.216  66.123543
2.215  66.250987
2.214  66.286528
2.213  66.355599
2.212  66.473945
2.211  66.513316
2.210  66.630854
2.209  66.620081
2.208  66.721482
2.207  66.826507
2.206  66.829469
2.205  66.947281
2.204  66.993488
2.203  67.088105
2.202  67.135007
2.201  67.266689
2.200  67.310749
2.199  67.224038
2.198  67.324305
2.197  67.320168
2.196  67.375277
2.195  67.504704
2.194  67.434598
2.193  67.524593
2.192  67.519853
2.191  67.530031
2.190  67.601906
2.189  67.626085
2.188  67.639123
2.187  67.663911
2.186  67.600175
2.185  67.585602
2.184  67.594905
2.183  67.631501
2.182  67.579950
2.181  67.597663
2.180  67.546396
2.179  67.528287
2.178  67.468701
2.177  67.483921
2.176  67.449632
2.175  67.488474
2.174  67.356797
2.173  67.211738
2.172  67.224026
2.171  67.211572
2.170  67.226401
2.169  67.160126
2.168  67.109938
2.167  67.056632
2.166  66.955153
2.165  66.951622
2.164  66.879213
2.163  66.871591
2.162  66.829742
2.161  66.820368
2.160  66.819080
2.159  66.809272
2.158  66.785823
2.157  66.768620
2.156  66.785569
2.155  66.755429
2.154  66.826615
2.153  66.865470
2.152  66.942316
2.151  66.925879
2.150  66.948424
2.149  67.042633
2.148  67.011709
2.147  67.127039
2.146  67.154398
2.145  67.254831
2.144  67.351943
2.143  67.531793
2.142  67.679959
2.141  67.705735
2.140  67.656566
2.139  67.802868
2.138  67.885853
2.137  67.940284
2.136  67.971814
2.135  68.122195
2.134  68.151834
2.133  68.158829
2.132  68.201869
2.131  68.245134
2.130  68.270670
2.129  68.315170
2.128  68.274291
2.127  68.234270
2.126  68.275874
2.125  68.270476
2.124  68.236401
2.123  68.268814
2.122  68.215329
2.121  68.204803
2.120  68.208898
2.119  68.187753
2.118  68.097037
2.117  68.150263
2.116  68.099600
2.115  68.062315
2.114  67.996578
2.113  68.041717
2.112  68.018072
2.111  67.949572
2.110  67.956119
2.109  67.913603
2.108  67.906428
2.107  67.891788
2.106  67.782946
2.105  67.805849
2.104  67.812447
2.103  67.769126
2.102  67.698175
2.101  67.743889
2.100  67.725106
2.099  67.763191
2.098  67.763707
2.097  67.744317
2.096  67.720308
2.095  67.712393
2.094  67.716569
2.093  67.752598
2.092  67.791008
2.091  67.795312
2.090  67.797136
2.089  67.833866
2.088  67.855729
2.087  67.858117
2.086  67.811717
2.085  67.787990
2.084  67.749480
2.083  67.762248
2.082  67.803994
2.081  67.794844
2.080  67.759394
2.079  67.802690
2.078  67.754318
2.077  67.724025
2.076  67.736095
2.075  67.715515
2.074  67.699978
2.073  67.710946
2.072  67.680161
2.071  67.631203
2.070  67.658218
2.069  67.658042
2.068  67.620814
2.067  67.620758
2.066  67.599099
2.065  67.544967
2.064  67.550147
2.063  67.594701
2.062  67.532802
2.061  67.489666
2.060  67.482648
2.059  67.430186
2.058  67.406889
2.057  67.409744
2.056  67.387736
2.055  67.407585
2.054  67.392179
2.053  67.348104
2.052  67.277150
2.051  67.244917
2.050  67.218226
2.049  67.210595
2.048  67.243568
2.047  67.121720
2.046  67.050801
2.045  67.041080
2.044  67.029364
2.043  66.957126
2.042  66.940396
2.041  66.932701
2.040  66.927612
2.039  66.885942
2.038  66.793832
2.037  66.719132
2.036  66.736916
2.035  66.714519
2.034  66.655878
2.033  66.520500
2.032  66.467235
2.031  66.432042
2.030  66.372025
2.029  66.368392
2.028  66.264934
2.027  66.147227
2.026  66.090453
2.025  65.994057
2.024  65.939864
2.023  65.857466
2.022  65.688881
2.021  65.701597
2.020  65.646413
2.019  65.545198
2.018  65.432749
2.017  65.378216
2.016  65.323690
2.015  65.141611
2.014  65.062066
2.013  65.001465
2.012  64.928674
2.011  64.749616
2.010  64.641132
2.009  64.433971
2.008  64.351621
2.007  64.201830
2.006  64.029194
2.005  63.844144
2.004  63.680627
2.003  63.535971
2.002  63.447012
2.001  63.154543
2.000  63.092871
1.999  62.982603
1.998  62.914719
1.997  62.791401
1.996  62.719647
1.995  62.658649
1.994  62.631964
1.993  62.645568
1.992  62.655232
1.991  62.642909
1.990  62.773298
1.989  62.679541
1.988  62.735906
1.987  62.773457
1.986  62.830316
1.985  62.781915
1.984  62.811201
1.983  62.696346
1.982  62.745869
1.981  62.722947
1.980  62.656777
1.979  62.638709
1.978  62.578180
1.977  62.563161
1.976  62.490683
1.975  62.391416
1.974  62.462444
1.973  62.295040
1.972  62.341093
1.971  62.244450
1.970  62.302049
1.969  62.125342
1.968  62.119221
1.967  62.109922
1.966  62.007217
1.965  62.024888
1.964  62.001919
1.963  61.809681
1.962  61.926655
1.961  61.884211
1.960  61.835041
1.959  61.831999
1.958  61.755031
1.957  61.736986
1.956  61.746818
1.955  61.682143
1.954  61.670950
1.953  61.642583
1.952  61.679891
1.951  61.603884
1.950  61.598580
1.949  61.510807
1.948  61.600576
1.947  61.486917
1.946  61.536299
1.945  61.411627
1.944  61.539461
1.943  61.545884
1.942  61.494188
1.941  61.384790
1.940  61.418571
1.939  61.333286
1.938  61.377479
1.937  61.418534
1.936  61.463738
1.935  61.341886
1.934  61.457631
1.933  61.410649
1.932  61.427969
1.931  61.355673
1.930  61.439410
1.929  61.558361
1.928  61.555206
1.927  61.515150
1.926  61.569367
1.925  61.517539
1.924  61.606541
1.923  61.775659
1.922  61.757691
1.921  61.797808
1.920  61.878910
1.919  61.999391
1.918  62.062499
1.917  62.109790
1.916  62.279567
1.915  62.254371
1.914  62.424819
1.913  62.494825
1.912  62.623278
1.911  62.603820
1.910  62.801205
1.909  62.904988
1.908  63.171531
1.907  63.250963
1.906  63.461187
1.905  63.571965
1.904  63.789540
1.903  63.972180
1.902  64.243272
1.901  64.402359
1.900  64.545475
1.899  64.769448
1.898  65.039748
1.897  65.192308
1.896  65.434676
1.895  65.603982
1.894  65.731382
1.893  65.999428
1.892  66.154686
1.891  66.338434
1.890  66.535528
1.889  66.749715
1.888  66.857696
1.887  66.868892
1.886  67.101431
1.885  67.100788
1.884  67.221969
1.883  67.178064
1.882  67.251283
1.881  67.243147
1.880  67.269411
1.879  67.322848
1.878  67.314540
1.877  67.346951
1.876  67.335382
1.875  67.453744
1.874  67.681211
1.873  67.746618
1.872  67.955114
1.871  68.159880
1.870  68.297456
1.869  68.625063
1.868  68.900197
1.867  69.011104
1.866  69.214580
1.865  69.398367
1.864  69.473112
1.863  69.596628
1.862  69.812256
1.861  69.828210
1.860  69.951712
1.859  70.017047
1.858  70.159501
1.857  70.229426
1.856  70.237533
1.855  70.333971
1.854  70.391150
1.853  70.443841
1.852  70.517332
1.851  70.544247
1.850  70.590725
1.849  70.588536
1.848  70.671259
1.847  70.721622
1.846  70.757228
1.845  70.768695
1.844  70.841213
1.843  70.852953
1.842  70.902404
1.841  70.909870
1.840  70.963848
1.839  70.957057
1.838  71.009047
1.837  71.034759
1.836  71.074460
1.835  71.199083
1.834  71.300390
1.833  71.253316
1.832  71.239344
1.831  71.202259
1.830  71.233844
1.829  71.311477
1.828  71.385864
1.827  71.413339
1.826  71.453885
1.825  71.484639
1.824  71.501301
1.823  71.546042
1.822  71.598162
1.821  71.577572
1.820  71.567952
1.819  71.563286
1.818  71.660834
1.817  71.633034
1.816  71.645090
1.815  71.654659
1.814  71.669546
1.813  71.685631
1.812  71.661286
1.811  71.674211
1.810  71.701242
1.809  71.733155
1.808  71.811146
1.807  71.761401
1.806  71.775137
1.805  71.785914
1.804  71.783629
1.803  71.819545
1.802  71.828004
1.801  71.800888
1.800  71.756717
1.799  71.841916
1.798  71.885429
1.797  71.865040
1.796  71.840679
1.795  71.823072
1.794  71.822098
1.793  71.795999
1.792  71.811709
1.791  71.782812
1.790  71.763734
1.789  71.795158
1.788  71.800097
1.787  71.727182
1.786  71.667389
1.785  71.738897
1.784  71.782017
1.783  71.765209
1.782  71.797889
1.781  71.793351
1.780  71.757135
1.779  71.715091
1.778  71.658344
1.777  71.662293
1.776  71.657591
1.775  71.651642
1.774  71.649393
1.773  71.609026
1.772  71.580208
1.771  71.578661
1.770  71.582960
1.769  71.569464
1.768  71.513102
1.767  71.505673
1.766  71.522978
1.765  71.462802
1.764  71.491798
1.763  71.502992
1.762  71.380262
1.761  71.415763
1.760  71.390209
1.759  71.374982
1.758  71.436291
1.757  71.460198
1.756  71.417322
1.755  71.408006
1.754  71.397224
1.753  71.456453
1.752  71.500074
1.751  71.463500
1.750  71.471520
1.749  71.515535
1.748  71.489136
1.747  71.430225
1.746  71.502490
1.745  71.505373
1.744  71.506565
1.743  71.545257
1.742  71.555269
1.741  71.554090
1.740  71.531852
1.739  71.581425
1.738  71.565784
1.737  71.549797
1.736  71.501138
1.735  71.495024
1.734  71.547118
1.733  71.536374
1.732  71.579233
1.731  71.575939
1.730  71.577168
1.729  71.543820
1.728  71.528210
1.727  71.528670
1.726  71.543591
1.725  71.585695
1.724  71.638103
1.723  71.598740
1.722  71.603346
1.721  71.618369
1.720  71.594516
1.719  71.619090
1.718  71.652944
1.717  71.673453
1.716  71.620977
1.715  71.643040
1.714  71.689835
1.713  71.751941
1.712  71.678539
1.711  71.684934
1.710  71.730021
1.709  71.711342
1.708  71.751817
1.707  71.659216
1.706  71.647013
1.705  71.701190
1.704  71.754507
1.703  71.730833
1.702  71.754180
1.701  71.764591
1.700  71.719925
1.699  71.725941
1.698  71.689752
1.697  71.690344
1.696  71.667990
1.695  71.769223
1.694  71.763380
1.693  71.848391
1.692  71.790873
1.691  71.730876
1.690  71.767130
1.689  71.726882
1.688  71.661735
1.687  71.776879
1.686  71.754737
1.685  71.728901
1.684  71.751314
1.683  71.760398
1.682  71.778620
1.681  71.740923
1.680  71.743386
1.679  71.790296
1.678  71.711702
1.677  71.652536
1.676  71.787831
1.675  71.775046
1.674  71.741856
1.673  71.710452
1.672  71.765028
1.671  71.823292
1.670  71.764606
1.669  71.793943
1.668  71.723915
1.667  71.713982
1.666  71.779758
1.665  71.753313
1.664  71.671239
1.663  71.742762
1.662  71.718025
1.661  71.741722
1.660  71.664140
1.659  71.726306
1.658  71.692125
1.657  71.744946
1.656  71.710171
1.655  71.646591
1.654  71.677938
1.653  71.673166
1.652  71.695467
1.651  71.657695
1.650  71.637259
1.649  71.700508
1.648  71.645918
1.647  71.614423
1.646  71.610792
1.645  71.705836
1.644  71.554359
1.643  71.620068
1.642  71.541913
1.641  71.613596
1.640  71.593610
1.639  71.582685
1.638  71.495553
1.637  71.597575
1.636  71.546903
1.635  71.574924
1.634  71.472154
1.633  71.637728
1.632  71.544557
1.631  71.619799
1.630  71.493034
1.629  71.446902
1.628  71.485392
1.627  71.537829
1.626  71.574528
1.625  71.536822
1.624  71.496034
1.623  71.556702
1.622  71.412855
1.621  71.614153
1.620  71.492938
1.619  71.515370
1.618  71.573736
1.617  71.494220
1.616  71.485775
1.615  71.485386
1.614  71.487506
1.613  71.425126
1.612  71.388035
1.611  71.411267
1.610  71.414318
1.609  71.453809
1.608  71.408730
1.607  71.392712
1.606  71.371578
1.605  71.466494
1.604  71.408524
1.603  71.356545
1.602  71.373860
1.601  71.354415
1.600  71.339205
1.599  71.334521
1.598  71.273254
1.597  71.283479
1.596  71.199614
1.595  71.227039
1.594  71.292383
1.593  71.288481
1.592  71.249799
1.591  71.177195
1.590  71.222741
1.589  71.209247
1.588  71.207646
1.587  71.184690
1.586  71.123823
1.585  71.139194
1.584  71.094624
1.583  71.102103
1.582  71.059061
1.581  71.090256
1.580  71.038475
1.579  70.996022
1.578  71.007262
1.577  70.985404
1.576  70.919578
1.575  70.927383
1.574  70.913302
1.573  70.914019
1.572  70.872547
1.571  70.868381
1.570  70.842581
1.569  70.814005
1.568  70.814654
1.567  70.777216
1.566  70.777609
1.565  70.705428
1.564  70.652114
1.563  70.689649
1.562  70.734822
1.561  70.694664
1.560  70.627939
1.559  70.632256
1.558  70.691861
1.557  70.609527
1.556  70.619941
1.555  70.670954
1.554  70.543948
1.553  70.515975
1.552  70.534874
1.551  70.542366
1.550  70.543045
1.549  70.569068
1.548  70.517473
1.547  70.493037
1.546  70.430591
1.545  70.449392
1.544  70.382637
1.543  70.344621
1.542  70.327541
1.541  70.316547
1.540  70.284578
1.539  70.308654
1.538  70.251242
1.537  70.251568
1.536  70.248567
1.535  70.250477
1.534  70.183140
1.533  70.151194
1.532  70.139726
1.531  70.118733
1.530  70.119357
1.529  70.090614
1.528  70.039510
1.527  70.046830
1.526  70.047757
1.525  69.989169
1.524  69.953922
1.523  69.950498
1.522  69.955567
1.521  69.907422
1.520  69.815762
1.519  69.812482
1.518  69.803758
1.517  69.772913
1.516  69.740640
1.515  69.781422
1.514  69.773481
1.513  69.712415
1.512  69.689711
1.511  69.615068
1.510  69.607070
1.509  69.594436
1.508  69.492532
1.507  69.483909
1.506  69.489892
1.505  69.465894
1.504  69.447256
1.503  69.431152
1.502  69.398450
1.501  69.355295
1.500  69.310214
1.499  69.273618
1.498  69.212068
1.497  69.200475
1.496  69.172266
1.495  69.161340
1.494  69.108808
1.493  69.040632
1.492  69.034026
1.491  68.995383
1.490  68.983577
1.489  68.940255
1.488  68.912615
1.487  68.847478
1.486  68.800607
1.485  68.806684
1.484  68.799458
1.483  68.760999
1.482  68.701878
1.481  68.662832
1.480  68.632028
1.479  68.615376
1.478  68.657468
1.477  68.578480
1.476  68.536010
1.475  68.541960
1.474  68.487144
1.473  68.444792
1.472  68.375684
1.471  68.360949
1.470  68.423025
1.469  68.342799
1.468  68.330557
1.467  68.322390
1.466  68.310870
1.465  68.230803
1.464  68.189711
1.463  68.232459
1.462  68.209981
1.461  68.143744
1.460  68.156529
1.459  68.147124
1.458  68.112397
1.457  68.080255
1.456  68.072688
1.455  68.070311
1.454  68.096675
1.453  68.038898
1.452  68.069167
1.451  68.073711
1.450  68.089874
1.449  68.070055
1.448  68.046303
1.447  68.016321
1.446  68.042974
1.445  68.034147
1.444  68.028550
1.443  68.034713
1.442  68.003049
1.441  68.003000
1.440  68.027306
1.439  68.029080
1.438  67.994820
1.437  67.954841
1.436  67.987223
1.435  67.968267
1.434  67.937667
1.433  67.984031
1.432  67.978465
1.431  67.956732
1.430  67.977627
1.429  67.993815
1.428  68.008379
