Name: Grossular Garnet Ca_3Al_2(SiO_4)_3
Type: Mineral
Class: Silicates
Subclass: Nesosilicates
Particle Size: 0-45um
Sample No.: NS-3B
Owner: JPL
Wavelength range: IR
Origin: Mexico, Lake Jaco
Collected by New, David
Description: 





Measurement: Hemispherical reflectance
First Column: X
Second Column: Y
X Units:  Wavelength (micrometers)
Y Units:  Reflectance (percent)
First X Value: 15.3853
Last X Value: 2.00032
Number of X Values: 2256
Additional information: ns03ba.txt
 
15.3853	5.21087
15.3397	5.73699
15.2945	6.4498
15.2495	7.15027
15.2048	7.63269
15.1603	7.8932
15.1161	8.29601
15.0722	8.77417
15.0285	9.22726
14.9851	9.60594
14.9419	9.71234
14.8989	9.66367
14.8563	9.75216
14.8138	9.86925
14.7716	10.1368
14.7296	10.4537
14.6879	10.6448
14.6464	10.8613
14.6052	11.1173
14.5641	11.4828
14.5233	11.9986
14.4828	12.255
14.4424	12.4889
14.4023	12.7592
14.3624	12.9314
14.3227	13.0532
14.2833	12.9266
14.244	12.9202
14.205	12.9956
14.1662	13.0629
14.1276	13.228
14.0892	13.2867
14.051	13.0569
14.0131	13.0198
13.9753	13.149
13.9377	13.0105
13.9004	12.7303
13.8632	12.5229
13.8262	12.3031
13.7895	12.0491
13.7529	11.6078
13.7165	10.9517
13.6803	10.5331
13.6443	10.2735
13.6085	9.98885
13.5729	9.51724
13.5374	8.91551
13.5022	8.33369
13.4671	7.754
13.4322	7.13107
13.3975	6.56856
13.363	6.12325
13.3286	5.92552
13.2944	5.75611
13.2604	5.50659
13.2266	5.39333
13.193	5.28563
13.1595	5.21558
13.1262	5.41694
13.093	5.86274
13.06	6.15279
13.0272	6.48892
12.9946	6.85005
12.9621	6.92107
12.9298	7.00472
12.8976	7.32886
12.8656	7.71743
12.8337	7.86796
12.8021	7.68908
12.7705	7.6235
12.7391	7.67805
12.7079	7.43557
12.6769	7.19582
12.6459	7.24284
12.6152	7.17999
12.5845	7.22153
12.5541	7.33725
12.5238	7.25494
12.4936	7.34047
12.4635	7.43196
12.4337	7.397
12.4039	7.37512
12.3743	7.42298
12.3448	7.68067
12.3155	8.01045
12.2863	8.16443
12.2573	8.14222
12.2284	8.23949
12.1996	8.70923
12.171	9.19888
12.1425	9.61843
12.1141	10.0375
12.0859	10.5525
12.0578	11.0022
12.0298	11.5793
12.0019	12.1785
11.9742	12.5337
11.9466	12.4947
11.9192	12.215
11.8918	11.9364
11.8646	11.6414
11.8375	11.3377
11.8106	11.0737
11.7837	11.0945
11.757	11.3816
11.7304	11.7544
11.7039	12.364
11.6776	12.9112
11.6513	13.1663
11.6252	13.1571
11.5992	12.9852
11.5733	12.6791
11.5475	12.3263
11.5219	11.7552
11.4963	11.0263
11.4709	10.3665
11.4455	9.53447
11.4203	8.49317
11.3952	7.24045
11.3702	5.901
11.3454	4.88328
11.3206	4.12778
11.2959	3.60436
11.2714	3.48628
11.2469	3.68514
11.2226	4.08899
11.1983	4.50549
11.1742	5.29538
11.1502	6.37778
11.1263	7.51953
11.1024	8.68104
11.0787	9.95043
11.0551	11.2243
11.0316	12.3952
11.0081	13.2391
10.9848	13.8554
10.9616	14.315
10.9385	14.5253
10.9154	14.7218
10.8925	14.848
10.8697	14.8681
10.8469	14.7745
10.8243	14.6566
10.8017	14.5908
10.7793	14.4658
10.7569	14.4694
10.7346	14.686
10.7125	14.847
10.6904	15.0739
10.6684	15.3622
10.6465	15.5437
10.6247	15.6947
10.6029	15.7778
10.5813	15.6853
10.5597	15.5696
10.5383	15.6666
10.5169	15.7733
10.4956	15.9274
10.4744	16.2046
10.4533	16.5132
10.4323	16.9339
10.4113	17.2611
10.3904	17.4602
10.3697	17.6622
10.349	17.6699
10.3284	17.6844
10.3078	17.5623
10.2874	17.5055
10.267	17.6711
10.2467	17.6848
10.2265	17.6154
10.2064	17.657
10.1863	17.7738
10.1663	17.941
10.1464	18.0279
10.1266	18.0644
10.1069	17.914
10.0872	17.7076
10.0676	17.3254
10.0481	16.7609
10.0287	16.1507
10.0093	15.517
9.99005	14.8042
9.97084	13.9379
9.95169	13.031
9.93263	12.1787
9.91364	11.3239
9.89472	10.6227
9.87587	10.0084
9.8571	9.50407
9.83839	9.06954
9.81976	8.37062
9.80119	7.71194
9.78271	7.14178
9.76428	6.57503
9.74592	5.93133
9.72764	5.20127
9.70943	4.67503
9.69128	4.3771
9.6732	3.94185
9.65518	3.56144
9.63724	3.31744
9.61935	2.84308
9.60155	2.39706
9.5838	2.18209
9.56611	1.98649
9.5485	1.59778
9.53094	1.39481
9.51345	1.19458
9.49604	1.04831
9.47867	1.03061
9.46137	0.971463
9.44414	0.83725
9.42697	0.750626
9.40986	0.778366
9.39281	0.777549
9.37583	0.851459
9.35891	0.842054
9.34204	0.632187
9.32524	0.518852
9.3085	0.518431
9.29182	0.562025
9.27519	0.614591
9.25863	0.582361
9.24213	0.616624
9.22568	0.652699
9.2093	0.578708
9.19297	0.613214
9.17669	0.73037
9.16048	0.809942
9.14433	0.827503
9.12823	0.842692
9.11218	0.900178
9.0962	1.05929
9.08027	1.12234
9.06439	1.1941
9.04858	1.34876
9.03281	1.54366
9.0171	1.51551
9.00145	1.46132
8.98585	1.65704
8.9703	1.92188
8.9548	1.93583
8.93937	2.04071
8.92398	2.12313
8.90865	2.18423
8.89337	2.2671
8.87814	2.47219
8.86296	2.56253
8.84784	2.60748
8.83277	2.80686
8.81774	2.945
8.80277	3.06732
8.78786	3.17641
8.77298	3.41386
8.75816	3.70947
8.7434	4.00086
8.72868	4.14813
8.714	4.33006
8.69938	4.57823
8.68481	4.79657
8.67029	4.89006
8.65581	5.04131
8.64139	5.40891
8.62701	5.67115
8.61268	5.86541
8.5984	6.12606
8.58416	6.35116
8.56997	6.51017
8.55583	6.78145
8.54174	7.04345
8.52769	7.24758
8.51368	7.44648
8.49973	7.68373
8.48582	8.00664
8.47195	8.30576
8.45813	8.51814
8.44436	8.69408
8.43062	8.76227
8.41693	9.0494
8.4033	9.38872
8.3897	9.43357
8.37614	9.69636
8.36264	10.0859
8.34917	10.3558
8.33574	10.5096
8.32236	10.7198
8.30903	11.0882
8.29573	11.3869
8.28248	11.5687
8.26927	11.8343
8.2561	12.1389
8.24298	12.3784
8.2299	12.6488
8.21685	12.8995
8.20385	13.1322
8.19089	13.3852
8.17797	13.6362
8.16509	13.9788
8.15225	14.2157
8.13946	14.2473
8.1267	14.4569
8.11398	14.7471
8.10131	14.9834
8.08867	15.1062
8.07606	15.2125
8.0635	15.4317
8.05099	15.7258
8.0385	15.8693
8.02606	15.9424
8.01366	16.0705
8.00129	16.1537
7.98896	16.2986
7.97667	16.4524
7.96442	16.4802
7.9522	16.548
7.94002	16.6869
7.92788	16.7987
7.91578	16.8484
7.90371	16.9186
7.89168	17.0063
7.87969	17.1244
7.86773	17.2005
7.85581	17.179
7.84392	17.166
7.83207	17.3058
7.82026	17.496
7.80849	17.6091
7.79674	17.6572
7.78503	17.7904
7.77337	18.021
7.76173	18.1615
7.75012	18.2695
7.73856	18.5466
7.72703	18.7635
7.71553	18.8554
7.70406	18.981
7.69263	19.1057
7.68123	19.2712
7.66987	19.4525
7.65855	19.5419
7.64725	19.614
7.63598	19.7792
7.62475	19.9693
7.61356	20.0611
7.60239	20.1665
7.59126	20.3208
7.58017	20.3879
7.5691	20.4187
7.55806	20.4277
7.54707	20.4406
7.5361	20.5483
7.52516	20.6342
7.51425	20.6365
7.50338	20.6879
7.49253	20.7188
7.48172	20.8045
7.47094	21.1178
7.46019	21.3037
7.44947	21.2114
7.43879	21.3987
7.42813	21.7119
7.4175	21.9877
7.4069	22.157
7.39634	22.1922
7.3858	22.2781
7.37529	22.4287
7.36482	22.537
7.35437	22.6287
7.34396	22.7857
7.33357	22.824
7.32321	22.7145
7.31288	22.6278
7.30258	22.5716
7.29231	22.6228
7.28207	22.7961
7.27185	22.9415
7.26167	22.8811
7.25152	22.9011
7.24139	23.0133
7.23129	23.099
7.22122	23.1857
7.21117	23.4537
7.20116	23.5015
7.19117	23.4702
7.18121	23.6177
7.17128	23.8656
7.16137	23.9026
7.1515	23.9914
7.14164	23.9911
7.13182	23.9341
7.12203	24.1006
7.11225	24.2154
7.10251	24.3865
7.0928	24.6998
7.08311	24.8417
7.07344	24.9721
7.06381	25.2016
7.0542	25.716
7.04461	26.1586
7.03506	25.8659
7.02552	25.7561
7.01601	25.8444
7.00653	25.9099
6.99708	26.1652
6.98765	26.2704
6.97824	26.2885
6.96886	26.6799
6.95951	27.1338
6.95018	26.6876
6.94087	26.4309
6.9316	26.542
6.92234	26.6339
6.91311	26.7132
6.90391	26.7809
6.89473	26.6698
6.88557	26.7353
6.87644	27.0885
6.86733	28.294
6.85824	28.5475
6.84918	27.8423
6.84015	27.7272
6.83114	28.2202
6.82215	28.3989
6.81319	28.1638
6.80424	28.2396
6.79532	28.9359
6.78643	29.2669
6.77756	29.0182
6.76871	28.9297
6.75989	28.932
6.75109	29.2082
6.74231	29.4587
6.73355	29.8096
6.72482	30.2552
6.71611	30.7025
6.70742	30.8929
6.69875	30.8194
6.69011	31.3964
6.68149	32.1355
6.67289	32.2284
6.66431	32.1367
6.65576	32.2168
6.64722	33.2942
6.63871	34.833
6.63022	34.5208
6.62175	33.76
6.61331	33.812
6.60488	34.1124
6.59648	34.7117
6.5881	35.1663
6.57974	35.9262
6.5714	36.6598
6.56308	36.2964
6.55478	36.4077
6.54651	36.5482
6.53825	36.5742
6.53001	36.9456
6.5218	37.7429
6.51361	37.7032
6.50544	38.2926
6.49729	40.1517
6.48915	40.6212
6.48104	39.9021
6.47295	39.5194
6.46488	39.1732
6.45683	39.2852
6.4488	39.5915
6.44079	39.9287
6.4328	40.4974
6.42482	41.2422
6.41687	43.0418
6.40894	42.6947
6.40103	40.8365
6.39314	40.4403
6.38526	40.5191
6.37741	40.8773
6.36957	41.349
6.36176	40.9963
6.35396	41.3014
6.34618	42.4639
6.33843	42.1511
6.33069	41.4086
6.32297	41.3483
6.31527	41.2761
6.30758	41.2927
6.29992	41.353
6.29227	41.3975
6.28465	41.3049
6.27704	41.2979
6.26945	41.2618
6.26188	41.1689
6.25432	41.0173
6.24679	40.8221
6.23927	40.6453
6.23177	40.4808
6.22429	40.3109
6.21683	40.0924
6.20938	39.7338
6.20195	39.3256
6.19454	39.3421
6.18715	39.897
6.17978	39.1241
6.17242	37.9142
6.16508	37.6111
6.15776	37.241
6.15045	36.4677
6.14317	35.8994
6.1359	35.1292
6.12864	34.3407
6.12141	34.2032
6.11419	34.3094
6.10699	33.0505
6.0998	31.6938
6.09263	30.8855
6.08549	30.2409
6.07835	30.1725
6.07123	29.7945
6.06413	28.6666
6.05705	28.4922
6.04998	29.238
6.04293	27.7257
6.0359	26.0062
6.02888	25.2961
6.02187	24.9601
6.01489	24.6841
6.00792	24.0521
6.00096	23.4908
5.99403	23.4224
5.98711	23.0587
5.9802	22.3191
5.97331	22.026
5.96644	21.6463
5.95958	20.9083
5.95274	20.5483
5.94591	20.5438
5.9391	21.154
5.9323	20.7958
5.92552	19.9422
5.91876	19.7648
5.91201	19.6739
5.90528	19.812
5.89856	20.5081
5.89186	20.499
5.88517	20.9059
5.8785	21.2362
5.87184	20.5964
5.8652	20.6425
5.85857	20.7053
5.85196	20.7361
5.84536	20.8867
5.83878	21.2053
5.83221	21.7039
5.82566	22.3641
5.81912	22.4813
5.81259	22.0011
5.80608	22.0071
5.79959	22.2366
5.79311	22.4076
5.78665	22.7534
5.78019	23.1701
5.77376	23.8391
5.76734	24.8388
5.76093	24.7487
5.75453	24.6106
5.74815	25.1327
5.74179	25.3153
5.73543	25.6139
5.7291	25.9173
5.72277	26.3331
5.71646	26.8076
5.71017	27.203
5.70389	27.1893
5.69762	27.442
5.69136	27.9042
5.68513	28.1264
5.6789	28.6545
5.67268	29.0824
5.66648	29.1709
5.6603	29.656
5.65413	30.206
5.64797	30.7275
5.64182	31.3198
5.63569	31.0221
5.62957	30.7972
5.62347	30.9164
5.61737	31.1104
5.61129	31.1985
5.60522	31.3133
5.59917	31.3794
5.59313	31.3332
5.5871	31.6026
5.58109	32.0661
5.57509	32.0089
5.5691	31.6983
5.56312	31.755
5.55716	32.0033
5.55121	32.2332
5.54528	32.2454
5.53935	32.3281
5.53344	32.3664
5.52754	32.404
5.52166	32.448
5.51578	32.3525
5.50992	32.2947
5.50407	32.4133
5.49823	32.3949
5.49241	32.2601
5.4866	32.213
5.4808	32.4365
5.47501	32.4428
5.46923	32.5735
5.46347	32.7742
5.45772	32.7044
5.45198	32.7992
5.44625	33.0361
5.44054	33.2458
5.43484	33.5706
5.42914	34.0485
5.42347	34.7337
5.4178	34.8
5.41214	34.7005
5.4065	34.8634
5.40087	35.0997
5.39525	35.3853
5.38964	35.681
5.38404	35.9978
5.37846	36.3229
5.37288	36.6018
5.36732	36.9223
5.36177	37.34
5.35623	37.9163
5.35071	38.4376
5.34519	38.5493
5.33968	38.6944
5.33419	39.0893
5.32871	39.5067
5.32324	40.0277
5.31778	40.5734
5.31233	41.1382
5.30689	41.746
5.30147	42.3268
5.29605	43.0659
5.29065	43.8497
5.28525	44.4394
5.27987	45.0625
5.2745	45.5767
5.26914	46.0376
5.26379	46.5227
5.25845	46.9788
5.25312	47.4103
5.24781	47.7454
5.2425	48.0014
5.23721	48.4067
5.23192	48.6756
5.22665	48.828
5.22138	49.0466
5.21613	49.465
5.21089	49.6391
5.20566	49.6279
5.20044	49.8049
5.19522	49.8701
5.19002	49.9071
5.18483	50.0673
5.17965	50.1832
5.17448	50.303
5.16933	50.5108
5.16418	50.5946
5.15904	50.6893
5.15391	50.933
5.14879	51.2052
5.14368	51.2578
5.13859	51.3285
5.1335	51.4637
5.12842	51.5959
5.12335	51.7332
5.1183	51.855
5.11325	51.9711
5.10821	52.1027
5.10318	52.315
5.09817	52.4306
5.09316	52.5697
5.08816	52.7119
5.08317	52.8282
5.07819	52.8332
5.07322	52.9176
5.06826	53.0643
5.06331	53.1693
5.05837	53.2715
5.05344	53.2907
5.04852	53.3629
5.04361	53.4795
5.03871	53.5607
5.03382	53.6833
5.02894	53.7452
5.02406	53.8296
5.0192	54.0117
5.01435	54.1028
5.0095	54.2502
5.00467	54.3915
4.99984	54.433
4.99502	54.537
4.99021	54.6304
4.98542	54.8038
4.98063	54.9484
4.97585	55.0414
4.97108	55.1597
4.96632	55.2775
4.96156	55.4099
4.95682	55.5275
4.95209	55.5569
4.94736	55.6268
4.94264	55.7419
4.93794	55.7999
4.93324	55.8619
4.92855	55.9378
4.92387	55.9812
4.9192	56.0213
4.91453	56.1247
4.90988	56.2797
4.90524	56.3731
4.9006	56.4332
4.89597	56.4801
4.89135	56.5354
4.88674	56.5735
4.88214	56.6536
4.87755	56.7381
4.87296	56.8483
4.86839	56.8995
4.86382	56.8745
4.85926	56.9162
4.85471	57.0168
4.85017	57.1011
4.84564	57.2169
4.84111	57.2679
4.8366	57.2797
4.83209	57.3525
4.82759	57.4397
4.8231	57.5021
4.81862	57.5829
4.81415	57.652
4.80968	57.7169
4.80522	57.7661
4.80077	57.8292
4.79633	57.9479
4.7919	58.0105
4.78747	58.0326
4.78306	58.1454
4.77865	58.2072
4.77425	58.3444
4.76986	58.3928
4.76547	58.4744
4.7611	58.5003
4.75673	58.5537
4.75237	58.6105
4.74802	58.6716
4.74367	58.7852
4.73934	58.8326
4.73501	58.8911
4.73069	58.963
4.72638	59.0258
4.72207	59.0607
4.71777	59.1042
4.71348	59.1558
4.7092	59.2488
4.70493	59.2572
4.70066	59.2493
4.69641	59.2411
4.69216	59.3398
4.68791	59.4663
4.68368	59.4884
4.67945	59.4985
4.67523	59.5472
4.67102	59.5865
4.66682	59.6309
4.66262	59.6736
4.65843	59.629
4.65425	59.6674
4.65007	59.779
4.64591	59.7932
4.64175	59.8172
4.6376	59.8347
4.63345	59.843
4.62932	59.9022
4.62519	59.9907
4.62106	60.0293
4.61695	60.1034
4.61284	60.1419
4.60874	60.1286
4.60465	60.1451
4.60056	60.1209
4.59648	60.0891
4.59241	60.1209
4.58835	60.1271
4.58429	60.0981
4.58024	60.1389
4.5762	60.228
4.57216	60.2892
4.56814	60.2613
4.56411	60.2758
4.5601	60.304
4.55609	60.3492
4.55209	60.3592
4.5481	60.3479
4.54411	60.398
4.54013	60.4561
4.53616	60.4484
4.5322	60.4366
4.52824	60.3792
4.52429	60.398
4.52034	60.4666
4.51641	60.4332
4.51247	60.4258
4.50855	60.4773
4.50463	60.4997
4.50072	60.5315
4.49682	60.5356
4.49292	60.4895
4.48903	60.4984
4.48515	60.5537
4.48127	60.5663
4.4774	60.5438
4.47354	60.5001
4.46968	60.4866
4.46584	60.4684
4.46199	60.458
4.45815	60.4601
4.45432	60.4888
4.4505	60.5073
4.44668	60.436
4.44287	60.485
4.43907	60.5569
4.43527	60.5522
4.43148	60.5241
4.4277	60.4507
4.42392	60.4228
4.42015	60.4541
4.41638	60.4241
4.41262	60.4203
4.40887	60.4734
4.40513	60.4821
4.40139	60.4339
4.39765	60.3242
4.39393	60.2745
4.39021	60.3038
4.38649	60.3445
4.38278	60.3741
4.37908	60.3448
4.37539	60.3646
4.3717	60.4336
4.36801	60.4194
4.36434	60.3589
4.36067	60.3271
4.357	60.3276
4.35335	60.2817
4.34969	60.2716
4.34605	60.3396
4.34241	60.3776
4.33877	60.3572
4.33514	60.334
4.33152	60.2902
4.32791	60.2544
4.3243	60.1887
4.32069	60.1594
4.3171	60.2029
4.31351	60.2431
4.30992	60.224
4.30634	60.1574
4.30277	60.1036
4.2992	60.1202
4.29564	60.1238
4.29208	60.0753
4.28853	60.0061
4.28499	59.9663
4.28145	59.932
4.27792	59.9433
4.27439	59.9663
4.27087	59.9125
4.26735	59.8736
4.26384	59.8894
4.26034	59.9281
4.25684	59.9287
4.25335	59.9028
4.24986	59.8607
4.24638	59.8012
4.24291	59.7228
4.23944	59.5807
4.23598	59.5204
4.23252	59.4271
4.22906	59.4374
4.22562	59.5285
4.22218	59.5131
4.21874	59.4233
4.21531	59.3778
4.21189	59.383
4.20847	59.3043
4.20506	59.2147
4.20165	59.2688
4.19825	59.2828
4.19485	59.2306
4.19146	59.2239
4.18807	59.244
4.18469	59.2188
4.18132	59.1635
4.17795	59.0901
4.17458	59.0347
4.17123	58.9946
4.16787	59.0064
4.16453	58.9596
4.16118	58.9147
4.15785	58.8852
4.15451	58.8764
4.15119	58.8247
4.14787	58.7697
4.14455	58.7489
4.14124	58.7564
4.13794	58.7482
4.13464	58.6954
4.13134	58.6883
4.12805	58.6648
4.12477	58.5967
4.12149	58.5311
4.11822	58.5192
4.11495	58.4429
4.11168	58.3051
4.10843	58.2825
4.10517	58.2952
4.10192	58.2546
4.09868	58.1431
4.09545	58.0892
4.09221	58.0217
4.08899	57.953
4.08576	57.9012
4.08255	57.92
4.07933	57.9129
4.07613	57.8121
4.07292	57.7353
4.06973	57.6858
4.06654	57.5963
4.06335	57.5138
4.06017	57.4267
4.05699	57.359
4.05382	57.3403
4.05065	57.3052
4.04749	57.2576
4.04433	57.2367
4.04118	57.1869
4.03803	57.1447
4.03489	57.1339
4.03175	57.1254
4.02862	57.1205
4.02549	57.0802
4.02237	56.9506
4.01925	56.9157
4.01614	56.9446
4.01303	57.0023
4.00993	56.9948
4.00683	56.9663
4.00373	56.9731
4.00064	56.9883
3.99756	56.9975
3.99448	57.0346
3.9914	57.0324
3.98833	57.0408
3.98527	57.044
3.98221	57.1237
3.97915	57.2112
3.9761	57.2682
3.97305	57.3101
3.97001	57.3441
3.96697	57.3947
3.96394	57.5092
3.96091	57.6511
3.95789	57.7779
3.95487	57.8397
3.95186	57.9296
3.94885	58.0819
3.94584	58.2268
3.94284	58.3013
3.93984	58.3908
3.93685	58.4019
3.93386	58.3945
3.93088	58.4956
3.9279	58.5945
3.92493	58.6934
3.92196	58.7195
3.919	58.6805
3.91604	58.7158
3.91308	58.7809
3.91013	58.802
3.90718	58.8259
3.90424	58.8487
3.9013	58.8713
3.89837	58.8813
3.89544	58.9356
3.89252	59.0396
3.8896	59.0635
3.88668	59.0707
3.88377	59.0869
3.88086	59.0977
3.87796	59.1192
3.87506	59.0879
3.87217	59.0825
3.86928	59.1418
3.86639	59.1972
3.86351	59.1688
3.86064	59.138
3.85776	59.1347
3.8549	59.181
3.85203	59.2277
3.84917	59.2796
3.84631	59.3573
3.84346	59.4139
3.84062	59.4436
3.83777	59.4489
3.83494	59.4806
3.8321	59.5067
3.82927	59.5088
3.82644	59.5689
3.82362	59.6513
3.82081	59.7653
3.81799	59.8117
3.81518	59.6833
3.81238	59.7005
3.80958	59.7891
3.80678	59.9009
3.80399	60.0327
3.8012	60.0398
3.79841	60.0603
3.79563	60.1391
3.79286	60.1625
3.79008	60.1486
3.78731	60.2057
3.78455	60.2974
3.78179	60.306
3.77903	60.4199
3.77628	60.5089
3.77353	60.5475
3.77079	60.6349
3.76805	60.6663
3.76531	60.707
3.76258	60.79
3.75985	60.8292
3.75713	60.8633
3.7544	60.9278
3.75169	60.9884
3.74898	61.0865
3.74627	61.2023
3.74356	61.2381
3.74086	61.3155
3.73816	61.3451
3.73547	61.3639
3.73278	61.4659
3.7301	61.59
3.72741	61.6578
3.72474	61.7621
3.72206	61.8939
3.71939	61.9648
3.71673	61.9932
3.71406	62.0263
3.71141	62.0738
3.70875	62.1282
3.7061	62.1818
3.70345	62.2433
3.70081	62.3574
3.69817	62.4005
3.69553	62.3985
3.6929	62.5095
3.69027	62.6283
3.68765	62.629
3.68503	62.6215
3.68241	62.6693
3.6798	62.7472
3.67719	62.8014
3.67458	62.8058
3.67198	62.8235
3.66938	62.8678
3.66678	62.8559
3.66419	62.8253
3.66161	62.8334
3.65902	62.8564
3.65644	62.9622
3.65387	62.9473
3.65129	62.8726
3.64872	62.8717
3.64616	62.8892
3.64359	62.8614
3.64103	62.8668
3.63848	62.9225
3.63593	62.9524
3.63338	62.9312
3.63084	62.8856
3.6283	62.8411
3.62576	62.8191
3.62322	62.7161
3.62069	62.6698
3.61817	62.7129
3.61564	62.7109
3.61312	62.669
3.61061	62.6792
3.6081	62.6275
3.60559	62.5333
3.60308	62.4822
3.60058	62.4674
3.59808	62.5071
3.59558	62.4451
3.59309	62.3535
3.59061	62.3196
3.58812	62.3127
3.58564	62.289
3.58316	62.2998
3.58069	62.1801
3.57822	62.0959
3.57575	62.0636
3.57328	62.077
3.57082	62.0979
3.56836	62.0763
3.56591	62.0525
3.56346	61.9714
3.56101	61.8588
3.55857	61.7917
3.55613	61.8144
3.55369	61.8001
3.55126	61.7656
3.54883	61.7818
3.5464	61.7914
3.54397	61.7212
3.54155	61.6889
3.53914	61.6193
3.53672	61.491
3.53431	61.3608
3.5319	61.2754
3.5295	61.1859
3.5271	61.0298
3.5247	60.8442
3.52231	60.6827
3.51991	60.4466
3.51753	60.1115
3.51514	59.7768
3.51276	59.484
3.51038	59.1714
3.50801	58.8555
3.50563	58.5303
3.50327	58.3362
3.5009	58.399
3.49854	58.4998
3.49618	58.6798
3.49382	58.8956
3.49147	59.0387
3.48912	59.1761
3.48677	59.2077
3.48443	59.2429
3.48209	59.3289
3.47975	59.3489
3.47742	59.4411
3.47509	59.6572
3.47276	59.83
3.47044	59.8884
3.46812	59.9277
