Name: Quartz SiO_2
Type: Mineral
Class: Silicates
Subclass: Tectosilicates
Particle Size: 0-45um
Sample No.: TS-1C
Owner: JPL
Wavelength range: IR
Origin: USA, South Dakota, Custer County, Custer
Collected by Ward's
Description:  Rose quartz. 





Measurement: Hemispherical reflectance
First Column: X
Second Column: Y
X Units:  Wavelength (micrometers)
Y Units:  Reflectance (percent)
First X Value: 15.3853
Last X Value: 2.00032
Number of X Values: 2256
Additional information: ts01ca.txt
 
15.3853	17.1237
15.3397	17.3511
15.2945	17.2752
15.2495	17.226
15.2048	17.3855
15.1603	17.2386
15.1161	16.9335
15.0722	16.543
15.0285	16.211
14.9851	15.9953
14.9419	15.5578
14.8989	14.8783
14.8563	14.3362
14.8138	13.8407
14.7716	13.2827
14.7296	12.6935
14.6879	11.8059
14.6464	10.5905
14.6052	9.21223
14.5641	7.94404
14.5233	6.9134
14.4828	5.92119
14.4424	4.79041
14.4023	3.99536
14.3624	3.45037
14.3227	3.30376
14.2833	3.86729
14.244	4.94259
14.205	6.1305
14.1662	7.31333
14.1276	8.45936
14.0892	9.55312
14.051	10.3763
14.0131	11.1971
13.9753	11.9808
13.9377	12.5685
13.9004	12.9475
13.8632	13.2531
13.8262	13.4624
13.7895	13.7322
13.7529	13.9222
13.7165	13.9849
13.6803	14.0878
13.6443	13.9727
13.6085	13.6782
13.5729	13.3458
13.5374	13.374
13.5022	13.5301
13.4671	13.2238
13.4322	12.8609
13.3975	12.6932
13.363	12.4003
13.3286	11.9215
13.2944	11.6003
13.2604	11.1559
13.2266	10.4854
13.193	9.86171
13.1595	9.29179
13.1262	8.56234
13.093	7.84531
13.06	7.48523
13.0272	7.17863
12.9946	6.91297
12.9621	6.68062
12.9298	6.55124
12.8976	6.74425
12.8656	7.24494
12.8337	7.63055
12.8021	7.64871
12.7705	7.27698
12.7391	6.66627
12.7079	6.09851
12.6769	5.42754
12.6459	5.04626
12.6152	4.98987
12.5845	5.23391
12.5541	5.6832
12.5238	5.8726
12.4936	5.93455
12.4635	5.64049
12.4337	5.03376
12.4039	4.21556
12.3743	3.08933
12.3448	2.18764
12.3155	1.63421
12.2863	1.47731
12.2573	1.70457
12.2284	2.16462
12.1996	2.6343
12.171	3.21729
12.1425	3.92712
12.1141	4.65071
12.0859	5.47493
12.0578	6.36169
12.0298	7.13927
12.0019	7.81439
11.9742	8.43355
11.9466	9.07854
11.9192	9.61587
11.8918	10.0763
11.8646	10.557
11.8375	11.0736
11.8106	11.555
11.7837	11.9361
11.757	12.4766
11.7304	12.9442
11.7039	13.2087
11.6776	13.6125
11.6513	13.9098
11.6252	13.9618
11.5992	14.0173
11.5733	14.1408
11.5475	14.3726
11.5219	14.5585
11.4963	14.6797
11.4709	14.8701
11.4455	15.1109
11.4203	15.4223
11.3952	15.7334
11.3702	15.8983
11.3454	16.097
11.3206	16.231
11.2959	16.2521
11.2714	16.1782
11.2469	16.1356
11.2226	16.1673
11.1983	16.2181
11.1742	16.3848
11.1502	16.6414
11.1263	16.8057
11.1024	16.8001
11.0787	16.7954
11.0551	16.9361
11.0316	17.0733
11.0081	17.0468
10.9848	17.0707
10.9616	17.1896
10.9385	17.2502
10.9154	17.2086
10.8925	17.1071
10.8697	17.06
10.8469	16.9784
10.8243	16.8247
10.8017	16.7145
10.7793	16.5226
10.7569	16.3932
10.7346	16.2917
10.7125	16.2343
10.6904	16.0782
10.6684	15.8983
10.6465	15.5571
10.6247	15.1764
10.6029	14.9437
10.5813	14.9474
10.5597	14.9684
10.5383	14.7816
10.5169	14.6669
10.4956	14.6562
10.4744	14.601
10.4533	14.5974
10.4323	14.4403
10.4113	14.265
10.3904	14.1498
10.3697	13.9944
10.349	13.8141
10.3284	13.6548
10.3078	13.5323
10.2874	13.4432
10.267	13.287
10.2467	13.2354
10.2265	13.1979
10.2064	13.0168
10.1863	12.6987
10.1663	12.311
10.1464	12.0069
10.1266	11.6741
10.1069	11.2931
10.0872	11.158
10.0676	11.1582
10.0481	11.1614
10.0287	11.0517
10.0093	10.9636
9.99005	11.0103
9.97084	10.9883
9.95169	10.9705
9.93263	10.9477
9.91364	11.0231
9.89472	11.1708
9.87587	11.1259
9.8571	11.0066
9.83839	10.9228
9.81976	10.8325
9.80119	10.5875
9.78271	10.5287
9.76428	10.5527
9.74592	10.3758
9.72764	10.1733
9.70943	10.1555
9.69128	10.09
9.6732	9.9477
9.65518	9.87693
9.63724	9.85887
9.61935	9.79631
9.60155	9.81253
9.5838	9.94604
9.56611	10.1313
9.5485	10.2366
9.53094	10.5667
9.51345	10.9992
9.49604	11.2961
9.47867	11.6707
9.46137	12.3233
9.44414	13.0864
9.42697	14.0043
9.40986	15.3212
9.39281	16.8868
9.37583	18.4653
9.35891	19.9746
9.34204	21.3053
9.32524	22.3229
9.3085	23.0032
9.29182	23.2457
9.27519	23.3476
9.25863	23.5247
9.24213	23.5609
9.22568	23.5714
9.2093	23.5103
9.19297	23.425
9.17669	23.4843
9.16048	23.4433
9.14433	23.3245
9.12823	23.2796
9.11218	23.3562
9.0962	23.4249
9.08027	23.3483
9.06439	23.134
9.04858	23.1107
9.03281	23.0917
9.0171	23.0758
9.00145	23.1798
8.98585	23.1376
8.9703	22.9379
8.9548	22.8475
8.93937	22.9512
8.92398	22.9059
8.90865	22.7256
8.89337	22.6565
8.87814	22.6186
8.86296	22.393
8.84784	22.1363
8.83277	21.9667
8.81774	21.7299
8.80277	21.5071
8.78786	21.3082
8.77298	21.057
8.75816	20.8626
8.7434	20.6223
8.72868	20.2392
8.714	19.7664
8.69938	19.1915
8.68481	18.6149
8.67029	17.6075
8.65581	15.9727
8.64139	14.3333
8.62701	13.659
8.61268	14.3672
8.5984	16.0882
8.58416	17.7514
8.56997	18.7903
8.55583	19.4557
8.54174	19.9218
8.52769	20.2184
8.51368	20.2635
8.49973	20.2401
8.48582	20.4028
8.47195	20.3401
8.45813	20.0604
8.44436	19.8931
8.43062	19.9139
8.41693	19.8725
8.4033	19.7805
8.3897	19.7213
8.37614	19.697
8.36264	19.7755
8.34917	19.8706
8.33574	19.8359
8.32236	19.9383
8.30903	20.2584
8.29573	20.5822
8.28248	20.8972
8.26927	21.2659
8.2561	21.7909
8.24298	22.3052
8.2299	22.6389
8.21685	22.9482
8.20385	23.2763
8.19089	23.5163
8.17797	23.4705
8.16509	23.2623
8.15225	22.7751
8.13946	21.9239
8.1267	20.83
8.11398	19.8333
8.10131	18.881
8.08867	17.8642
8.07606	16.893
8.0635	15.9576
8.05099	15.1017
8.0385	14.3516
8.02606	13.6327
8.01366	12.8917
8.00129	12.2636
7.98896	11.6636
7.97667	11.0219
7.96442	10.3703
7.9522	9.73736
7.94002	9.10378
7.92788	8.40919
7.91578	7.71261
7.90371	7.16224
7.89168	6.63771
7.87969	6.0591
7.86773	5.6013
7.85581	5.18351
7.84392	4.80628
7.83207	4.52689
7.82026	4.27231
7.80849	4.11879
7.79674	3.97517
7.78503	3.72039
7.77337	3.57462
7.76173	3.53724
7.75012	3.37438
7.73856	3.19608
7.72703	3.05574
7.71553	2.91404
7.70406	2.74883
7.69263	2.60255
7.68123	2.39948
7.66987	2.17659
7.65855	2.01664
7.64725	1.90396
7.63598	1.72572
7.62475	1.59239
7.61356	1.45382
7.60239	1.24559
7.59126	1.20821
7.58017	1.1237
7.5691	0.997926
7.55806	0.946518
7.54707	0.919849
7.5361	0.896203
7.52516	0.892987
7.51425	0.858094
7.50338	0.690985
7.49253	0.653695
7.48172	0.628908
7.47094	0.541147
7.46019	0.425867
7.44947	0.457632
7.43879	0.516634
7.42813	0.453129
7.4175	0.42692
7.4069	0.486876
7.39634	0.399656
7.3858	0.39045
7.37529	0.446272
7.36482	0.457679
7.35437	0.434555
7.34396	0.402504
7.33357	0.476494
7.32321	0.51412
7.31288	0.474393
7.30258	0.543784
7.29231	0.62463
7.28207	0.716644
7.27185	0.780606
7.26167	0.792959
7.25152	0.80286
7.24139	0.929767
7.23129	0.990581
7.22122	0.998966
7.21117	1.05383
7.20116	1.20664
7.19117	1.37444
7.18121	1.49871
7.17128	1.56973
7.16137	1.58667
7.1515	1.58616
7.14164	1.70601
7.13182	1.84233
7.12203	1.91281
7.11225	2.10971
7.10251	2.36056
7.0928	2.43649
7.08311	2.50571
7.07344	2.57633
7.06381	2.71908
7.0542	2.87751
7.04461	2.98212
7.03506	3.03487
7.02552	3.18686
7.01601	3.33821
7.00653	3.57265
6.99708	3.79695
6.98765	3.91746
6.97824	4.0401
6.96886	4.20285
6.95951	4.35242
6.95018	4.48965
6.94087	4.67869
6.9316	4.89022
6.92234	5.04385
6.91311	5.1606
6.90391	5.16396
6.89473	5.24215
6.88557	5.36196
6.87644	5.3652
6.86733	5.39272
6.85824	5.38952
6.84918	5.34423
6.84015	5.33717
6.83114	5.34613
6.82215	5.36903
6.81319	5.35189
6.80424	5.40641
6.79532	5.51503
6.78643	5.43409
6.77756	5.27292
6.76871	5.09861
6.75989	5.00972
6.75109	4.94662
6.74231	4.83946
6.73355	4.78389
6.72482	4.7416
6.71611	4.67294
6.70742	4.67756
6.69875	4.74425
6.69011	4.89757
6.68149	5.13354
6.67289	5.3433
6.66431	5.47489
6.65576	5.66054
6.64722	5.87272
6.63871	6.00716
6.63022	6.02346
6.62175	5.89091
6.61331	5.80476
6.60488	5.77334
6.59648	5.71333
6.5881	5.6104
6.57974	5.6248
6.5714	5.69481
6.56308	5.60629
6.55478	5.50159
6.54651	5.55978
6.53825	5.74214
6.53001	6.0926
6.5218	6.73857
6.51361	7.50783
6.50544	8.26476
6.49729	9.19941
6.48915	10.0255
6.48104	10.6268
6.47295	11.1765
6.46488	11.7293
6.45683	12.2334
6.4488	12.7094
6.44079	13.1059
6.4328	13.3483
6.42482	13.4847
6.41687	13.7303
6.40894	13.5997
6.40103	13.1103
6.39314	12.7171
6.38526	12.3423
6.37741	11.8382
6.36957	11.2016
6.36176	10.6489
6.35396	10.2917
6.34618	10.0952
6.33843	9.68467
6.33069	9.10138
6.32297	8.60038
6.31527	8.14108
6.30758	7.74062
6.29992	7.37368
6.29227	6.87834
6.28465	6.46904
6.27704	6.22931
6.26945	6.00564
6.26188	5.73081
6.25432	5.39995
6.24679	5.15026
6.23927	4.97992
6.23177	4.81716
6.22429	4.71433
6.21683	4.74885
6.20938	4.77152
6.20195	4.76464
6.19454	4.82868
6.18715	5.00467
6.17978	5.29027
6.17242	5.70593
6.16508	6.19499
6.15776	6.70554
6.15045	7.30132
6.14317	8.03976
6.1359	8.76038
6.12864	9.4337
6.12141	10.0863
6.11419	10.7412
6.10699	11.2114
6.0998	11.7015
6.09263	12.306
6.08549	12.7951
6.07835	13.2559
6.07123	13.57
6.06413	13.5664
6.05705	13.7615
6.04998	14.0561
6.04293	13.9123
6.0359	13.6522
6.02888	13.57
6.02187	13.5335
6.01489	13.3578
6.00792	13.0255
6.00096	12.7085
5.99403	12.4325
5.98711	12.0102
5.9802	11.514
5.97331	11.0915
5.96644	10.5921
5.95958	10.1348
5.95274	9.83053
5.94591	9.66186
5.9391	9.71407
5.9323	9.70593
5.92552	9.75594
5.91876	10.0899
5.91201	10.5865
5.90528	11.1374
5.89856	11.8469
5.89186	12.5736
5.88517	13.3364
5.8785	14.0034
5.87184	14.3721
5.8652	15.0257
5.85857	15.5937
5.85196	16.1876
5.84536	16.8043
5.83878	17.4301
5.83221	18.0715
5.82566	18.8069
5.81912	19.4197
5.81259	19.8067
5.80608	20.2597
5.79959	20.7879
5.79311	21.2387
5.78665	21.7947
5.78019	22.3392
5.77376	22.9543
5.76734	23.6716
5.76093	23.9465
5.75453	24.0976
5.74815	24.552
5.74179	24.8848
5.73543	25.1716
5.7291	25.4427
5.72277	25.72
5.71646	25.8726
5.71017	25.9327
5.70389	25.7297
5.69762	25.4139
5.69136	24.9662
5.68513	24.3462
5.6789	23.6625
5.67268	22.7115
5.66648	21.5271
5.6603	20.2833
5.65413	19.0135
5.64797	17.8499
5.64182	16.758
5.63569	15.6597
5.62957	14.7245
5.62347	14.0388
5.61737	13.5688
5.61129	13.1988
5.60522	12.8661
5.59917	12.5531
5.59313	12.2726
5.5871	12.154
5.58109	12.2063
5.57509	12.2227
5.5691	12.2242
5.56312	12.3623
5.55716	12.622
5.55121	12.8802
5.54528	13.1624
5.53935	13.4554
5.53344	13.8216
5.52754	14.361
5.52166	14.8956
5.51578	15.437
5.50992	16.0185
5.50407	16.619
5.49823	17.1629
5.49241	17.7045
5.4866	18.292
5.4808	18.9046
5.47501	19.4214
5.46923	19.8301
5.46347	20.1377
5.45772	20.2097
5.45198	20.2121
5.44625	20.1068
5.44054	19.7398
5.43484	19.1659
5.42914	18.4605
5.42347	17.6684
5.4178	16.514
5.41214	15.1814
5.4065	13.9685
5.40087	12.7909
5.39525	11.5529
5.38964	10.4762
5.38404	9.48871
5.37846	8.62824
5.37288	7.94253
5.36732	7.41388
5.36177	7.10106
5.35623	6.93607
5.35071	6.78288
5.34519	6.74674
5.33968	6.68821
5.33419	6.70349
5.32871	6.81079
5.32324	6.91618
5.31778	7.01841
5.31233	7.12967
5.30689	7.26515
5.30147	7.42904
5.29605	7.69739
5.29065	8.0694
5.28525	8.36254
5.27987	8.65621
5.2745	9.0757
5.26914	9.56363
5.26379	10.0708
5.25845	10.6779
5.25312	11.5185
5.24781	12.4232
5.2425	13.3754
5.23721	14.4348
5.23192	15.5294
5.22665	16.5973
5.22138	17.6693
5.21613	18.6729
5.21089	19.4054
5.20566	19.9312
5.20044	20.3109
5.19522	20.4902
5.19002	20.4986
5.18483	20.4059
5.17965	20.2906
5.17448	20.1627
5.16933	20.0833
5.16418	19.9581
5.15904	19.8529
5.15391	19.7867
5.14879	19.605
5.14368	19.4547
5.13859	19.3186
5.1335	19.2183
5.12842	19.146
5.12335	19.1481
5.1183	19.2128
5.11325	19.2151
5.10821	19.1361
5.10318	18.9671
5.09817	18.6071
5.09316	18.1941
5.08816	17.7981
5.08317	17.4226
5.07819	17.0966
5.07322	16.7156
5.06826	16.4238
5.06331	16.2898
5.05837	16.2271
5.05344	16.1827
5.04852	16.149
5.04361	16.1041
5.03871	16.0601
5.03382	16.0325
5.02894	15.9958
5.02406	15.8722
5.0192	15.7284
5.01435	15.7165
5.0095	15.7976
5.00467	15.9246
4.99984	16.1266
4.99502	16.4022
4.99021	16.6749
4.98542	17.0257
4.98063	17.624
4.97585	18.4061
4.97108	19.3211
4.96632	20.389
4.96156	21.3966
4.95682	22.2908
4.95209	23.0803
4.94736	23.6955
4.94264	24.1609
4.93794	24.6052
4.93324	25.0508
4.92855	25.5219
4.92387	26.2269
4.9192	27.2481
4.91453	28.5366
4.90988	30.1398
4.90524	31.9818
4.9006	34.0312
4.89597	36.195
4.89135	38.2536
4.88674	40.1055
4.88214	41.9449
4.87755	43.6046
4.87296	45.0333
4.86839	46.3174
4.86382	47.5451
4.85926	48.5881
4.85471	49.5115
4.85017	50.3303
4.84564	51.127
4.84111	51.9322
4.8366	52.5807
4.83209	53.161
4.82759	53.7488
4.8231	54.3095
4.81862	54.832
4.81415	55.3335
4.80968	55.8082
4.80522	56.2787
4.80077	56.7407
4.79633	57.1378
4.7919	57.549
4.78747	57.9305
4.78306	58.2792
4.77865	58.6563
4.77425	59.0154
4.76986	59.3061
4.76547	59.6101
4.7611	59.9015
4.75673	60.2674
4.75237	60.5285
4.74802	60.6769
4.74367	60.8518
4.73934	61.0222
4.73501	61.1641
4.73069	61.303
4.72638	61.3057
4.72207	61.2562
4.71777	61.2527
4.71348	61.0215
4.7092	60.6567
4.70493	60.1333
4.70066	59.4709
4.69641	58.733
4.69216	57.9826
4.68791	57.3671
4.68368	57.1236
4.67945	57.2323
4.67523	57.5769
4.67102	58.1782
4.66682	58.921
4.66262	59.7358
4.65843	60.4631
4.65425	61.0726
4.65007	61.7007
4.64591	62.3627
4.64175	62.937
4.6376	63.5252
4.63345	64.1205
4.62932	64.6302
4.62519	65.0612
4.62106	65.3754
4.61695	65.725
4.61284	66.0317
4.60874	66.1954
4.60465	66.313
4.60056	66.4686
4.59648	66.6494
4.59241	66.7519
4.58835	66.7713
4.58429	66.8429
4.58024	66.9441
4.5762	66.9245
4.57216	66.8215
4.56814	66.6876
4.56411	66.5456
4.5601	66.3339
4.55609	66.0774
4.55209	65.7435
4.5481	65.3522
4.54411	64.8741
4.54013	64.2993
4.53616	63.6408
4.5322	62.902
4.52824	62.1754
4.52429	61.479
4.52034	60.6957
4.51641	59.7441
4.51247	58.7635
4.50855	57.821
4.50463	56.94
4.50072	56.2049
4.49682	55.5366
4.49292	55.0008
4.48903	54.6375
4.48515	54.4161
4.48127	54.2237
4.4774	53.897
4.47354	53.6103
4.46968	53.5078
4.46584	53.5739
4.46199	53.7568
4.45815	54.1455
4.45432	54.6602
4.4505	55.0882
4.44668	55.4432
4.44287	55.7519
4.43907	55.9792
4.43527	56.2033
4.43148	56.529
4.4277	56.7942
4.42392	57.1377
4.42015	57.5594
4.41638	57.9431
4.41262	58.2659
4.40887	58.6431
4.40513	59.1506
4.40139	59.6093
4.39765	60.0016
4.39393	60.4883
4.39021	61.0438
4.38649	61.5897
4.38278	62.0685
4.37908	62.5732
4.37539	63.1154
4.3717	63.6207
4.36801	64.0473
4.36434	64.4818
4.36067	64.9564
4.357	65.4044
4.35335	65.7528
4.34969	66.0418
4.34605	66.2595
4.34241	66.5024
4.33877	66.7331
4.33514	66.9122
4.33152	67.0396
4.32791	67.0885
4.3243	67.1391
4.32069	67.1332
4.3171	67.0441
4.31351	66.9017
4.30992	66.7853
4.30634	66.6649
4.30277	66.506
4.2992	66.3978
4.29564	66.3198
4.29208	66.262
4.28853	66.3279
4.28499	66.3286
4.28145	66.3898
4.27792	66.5737
4.27439	66.6852
4.27087	66.8399
4.26735	67.1356
4.26384	67.4739
4.26034	67.7672
4.25684	67.9861
4.25335	67.9936
4.24986	67.8352
4.24638	67.6858
4.24291	67.5666
4.23944	67.4566
4.23598	67.3435
4.23252	67.2881
4.22906	67.4393
4.22562	67.5594
4.22218	67.6963
4.21874	67.9148
4.21531	68.0511
4.21189	68.0872
4.20847	68.1682
4.20506	68.1811
4.20165	68.1889
4.19825	68.272
4.19485	68.3766
4.19146	68.5023
4.18807	68.6274
4.18469	68.7205
4.18132	68.8712
4.17795	69.0942
4.17458	69.2957
4.17123	69.3783
4.16787	69.4528
4.16453	69.5667
4.16118	69.694
4.15785	69.8255
4.15451	69.927
4.15119	70.0475
4.14787	70.1505
4.14455	70.2324
4.14124	70.3635
4.13794	70.47
4.13464	70.592
4.13134	70.7649
4.12805	70.9101
4.12477	70.9685
4.12149	71.1481
4.11822	71.3232
4.11495	71.4859
4.11168	71.641
4.10843	71.8082
4.10517	71.9381
4.10192	72.0851
4.09868	72.2696
4.09545	72.4357
4.09221	72.5492
4.08899	72.6442
4.08576	72.7733
4.08255	72.9151
4.07933	72.987
4.07613	73.039
4.07292	73.1291
4.06973	73.1849
4.06654	73.2198
4.06335	73.2801
4.06017	73.3484
4.05699	73.4016
4.05382	73.3913
4.05065	73.3536
4.04749	73.3339
4.04433	73.3196
4.04118	73.2822
4.03803	73.2487
4.03489	73.2351
4.03175	73.2286
4.02862	73.1923
4.02549	73.1146
4.02237	73.0856
4.01925	73.0535
4.01614	72.9899
4.01303	73.0469
4.00993	73.1055
4.00683	73.1242
4.00373	73.1692
4.00064	73.1822
3.99756	73.1422
3.99448	73.1909
3.9914	73.3048
3.98833	73.36
3.98527	73.4022
3.98221	73.4678
3.97915	73.5664
3.9761	73.637
3.97305	73.6302
3.97001	73.6962
3.96697	73.8562
3.96394	73.9927
3.96091	74.1115
3.95789	74.2822
3.95487	74.3551
3.95186	74.3444
3.94885	74.3718
3.94584	74.4934
3.94284	74.5697
3.93984	74.6372
3.93685	74.7652
3.93386	74.8107
3.93088	74.8186
3.9279	74.8778
3.92493	74.8741
3.92196	74.9342
3.919	74.9982
3.91604	75.025
3.91308	74.9633
3.91013	74.9087
3.90718	74.8897
3.90424	74.8749
3.9013	74.8715
3.89837	74.847
3.89544	74.7797
3.89252	74.6704
3.8896	74.6092
3.88668	74.5693
3.88377	74.5379
3.88086	74.4612
3.87796	74.3894
3.87506	74.3632
3.87217	74.2819
3.86928	74.2467
3.86639	74.1729
3.86351	74.0759
3.86064	74.1046
3.85776	74.1417
3.8549	74.1229
3.85203	74.0998
3.84917	74.0633
3.84631	74.1067
3.84346	74.1131
3.84062	74.1051
3.83777	74.1891
3.83494	74.2652
3.8321	74.2599
3.82927	74.252
3.82644	74.3025
3.82362	74.3828
3.82081	74.41
3.81799	74.4707
3.81518	74.5108
3.81238	74.5282
3.80958	74.524
3.80678	74.561
3.80399	74.5563
3.8012	74.4829
3.79841	74.4673
3.79563	74.5754
3.79286	74.5948
3.79008	74.5512
3.78731	74.4682
3.78455	74.4354
3.78179	74.4524
3.77903	74.4245
3.77628	74.3593
3.77353	74.2962
3.77079	74.2224
3.76805	74.1554
3.76531	74.0834
3.76258	74.0829
3.75985	74.0156
3.75713	73.9314
3.7544	73.8852
3.75169	73.8855
3.74898	73.8544
3.74627	73.8694
3.74356	73.8693
3.74086	73.7848
3.73816	73.7532
3.73547	73.7974
3.73278	73.8252
3.7301	73.8335
3.72741	73.9389
3.72474	74.041
3.72206	74.1105
3.71939	74.1195
3.71673	74.1734
3.71406	74.2644
3.71141	74.3423
3.70875	74.4646
3.7061	74.5867
3.70345	74.635
3.70081	74.7553
3.69817	74.8845
3.69553	75.0484
3.6929	75.2222
3.69027	75.2571
3.68765	75.2981
3.68503	75.376
3.68241	75.5385
3.6798	75.6552
3.67719	75.7229
3.67458	75.805
3.67198	75.8989
3.66938	75.9231
3.66678	75.9425
3.66419	75.9996
3.66161	76.0883
3.65902	76.1556
3.65644	76.2296
3.65387	76.2024
3.65129	76.1474
3.64872	76.2346
3.64616	76.3323
3.64359	76.3534
3.64103	76.3839
3.63848	76.3801
3.63593	76.3781
3.63338	76.3431
3.63084	76.345
3.6283	76.3299
3.62576	76.2841
3.62322	76.3173
3.62069	76.3658
3.61817	76.3447
3.61564	76.2726
3.61312	76.2249
3.61061	76.319
3.6081	76.3667
3.60559	76.3126
3.60308	76.2617
3.60058	76.2933
3.59808	76.4039
3.59558	76.4371
3.59309	76.4477
3.59061	76.4552
3.58812	76.4044
3.58564	76.3596
3.58316	76.3656
3.58069	76.4056
3.57822	76.5088
3.57575	76.5669
3.57328	76.5423
3.57082	76.5584
3.56836	76.5418
3.56591	76.5742
3.56346	76.6374
3.56101	76.6465
3.55857	76.6106
3.55613	76.6311
3.55369	76.6415
3.55126	76.6703
3.54883	76.6703
3.5464	76.6859
3.54397	76.7346
3.54155	76.7252
3.53914	76.6735
3.53672	76.7117
3.53431	76.8649
3.5319	76.8509
3.5295	76.785
3.5271	76.7862
3.5247	76.705
3.52231	76.6173
3.51991	76.599
3.51753	76.6226
3.51514	76.5235
3.51276	76.4492
3.51038	76.341
3.50801	76.1666
3.50563	75.9912
3.50327	75.9368
3.5009	75.8924
3.49854	75.8704
3.49618	75.9209
3.49382	76.0309
3.49147	76.1169
3.48912	76.2093
3.48677	76.3209
3.48443	76.4221
3.48209	76.372
3.47975	76.2904
3.47742	76.3514
3.47509	76.3991
3.47276	76.412
