Name: Apatite Ca_5(PO_4)_3F
Type: Mineral
Class: Phosphates
Subclass: 
Particle Size: 0-45um
Sample No.: P-1A
Owner: JPL
Wavelength range: IR
Origin: Canada, Ontario, Lanark County, Perth
Collected by Ward's
Description: 





Measurement: Hemispherical reflectance
First Column: X
Second Column: Y
X Units:  Wavelength (micrometers)
Y Units:  Reflectance (percent)
First X Value: 15.3853
Last X Value: 2.00032
Number of X Values: 2256
Additional information: p01aa.txt
 
15.3853	3.84544
15.3397	3.92757
15.2945	4.09005
15.2495	4.52044
15.2048	4.7515
15.1603	5.13819
15.1161	5.43246
15.0722	5.51481
15.0285	5.82535
14.9851	6.14731
14.9419	6.2214
14.8989	6.17918
14.8563	6.33964
14.8138	6.44676
14.7716	6.61158
14.7296	6.96115
14.6879	7.23322
14.6464	7.25415
14.6052	7.35055
14.5641	7.69289
14.5233	8.09558
14.4828	8.51888
14.4424	8.95612
14.4023	9.08391
14.3624	9.33711
14.3227	9.82765
14.2833	9.99349
14.244	10.1936
14.205	10.3803
14.1662	10.1777
14.1276	9.94755
14.0892	9.33901
14.051	8.42473
14.0131	8.20172
13.9753	8.61455
13.9377	9.05433
13.9004	9.25253
13.8632	9.29839
13.8262	9.29175
13.7895	9.31118
13.7529	9.22954
13.7165	9.03021
13.6803	8.78489
13.6443	8.5231
13.6085	8.09361
13.5729	7.68788
13.5374	7.20685
13.5022	6.81856
13.4671	6.63639
13.4322	6.50833
13.3975	6.40192
13.363	6.45614
13.3286	6.69443
13.2944	7.28946
13.2604	7.89862
13.2266	8.69797
13.193	9.74667
13.1595	10.786
13.1262	11.837
13.093	12.7883
13.06	13.698
13.0272	14.6307
12.9946	15.4084
12.9621	15.9121
12.9298	16.3069
12.8976	16.5667
12.8656	16.9233
12.8337	17.3094
12.8021	17.4584
12.7705	17.4407
12.7391	17.6421
12.7079	17.8889
12.6769	17.8811
12.6459	17.9033
12.6152	18.0466
12.5845	18.2331
12.5541	18.4685
12.5238	18.5796
12.4936	18.721
12.4635	18.9403
12.4337	19.1991
12.4039	19.4584
12.3743	19.7406
12.3448	20.1651
12.3155	20.468
12.2863	20.6425
12.2573	20.7985
12.2284	20.9921
12.1996	21.171
12.171	21.2784
12.1425	21.3421
12.1141	21.3981
12.0859	21.5849
12.0578	21.5557
12.0298	21.5967
12.0019	21.6928
11.9742	21.651
11.9466	21.4727
11.9192	21.4236
11.8918	21.2108
11.8646	20.9438
11.8375	20.4832
11.8106	19.3308
11.7837	18.6336
11.757	18.924
11.7304	19.0433
11.7039	18.9498
11.6776	18.8517
11.6513	18.6673
11.6252	18.3504
11.5992	17.6578
11.5733	16.3932
11.5475	15.7246
11.5219	15.6358
11.4963	15.0079
11.4709	14.2026
11.4455	13.623
11.4203	13.6261
11.3952	13.8063
11.3702	14.131
11.3454	14.5254
11.3206	15.079
11.2959	16.0058
11.2714	16.7702
11.2469	17.0492
11.2226	17.1025
11.1983	17.2093
11.1742	17.2051
11.1502	17.2656
11.1263	17.3453
11.1024	17.3479
11.0787	17.3639
11.0551	17.3214
11.0316	17.1638
11.0081	17.0807
10.9848	16.8666
10.9616	16.6242
10.9385	16.4066
10.9154	16.0821
10.8925	15.8242
10.8697	15.5551
10.8469	15.1085
10.8243	14.6009
10.8017	14.1352
10.7793	13.8023
10.7569	13.5982
10.7346	13.4192
10.7125	13.3735
10.6904	13.2807
10.6684	13.1373
10.6465	13.1042
10.6247	13.0855
10.6029	12.9338
10.5813	12.4699
10.5597	11.9569
10.5383	11.5453
10.5169	11.4255
10.4956	11.1775
10.4744	10.5461
10.4533	9.84788
10.4323	8.8621
10.4113	7.66029
10.3904	6.53063
10.3697	5.64834
10.349	5.53371
10.3284	6.49197
10.3078	7.94745
10.2874	9.31666
10.267	10.3823
10.2467	11.0071
10.2265	11.2001
10.2064	11.2147
10.1863	11.1524
10.1663	11.1488
10.1464	11.2192
10.1266	11.0635
10.1069	10.7767
10.0872	10.615
10.0676	10.373
10.0481	10.0318
10.0287	9.80248
10.0093	9.69288
9.99005	9.57975
9.97084	9.31129
9.95169	9.09949
9.93263	9.05512
9.91364	8.98196
9.89472	8.86675
9.87587	8.77226
9.8571	8.85603
9.83839	8.93466
9.81976	9.08828
9.80119	9.39423
9.78271	9.76572
9.76428	10.2678
9.74592	10.9703
9.72764	11.8778
9.70943	13.1247
9.69128	14.414
9.6732	15.5592
9.65518	16.6416
9.63724	17.5738
9.61935	18.1013
9.60155	18.2099
9.5838	18.1176
9.56611	17.9894
9.5485	18.0047
9.53094	17.8882
9.51345	17.7488
9.49604	17.7486
9.47867	17.745
9.46137	17.8332
9.44414	17.79
9.42697	17.6487
9.40986	17.7253
9.39281	17.9108
9.37583	18.0397
9.35891	17.9088
9.34204	17.7173
9.32524	17.4503
9.3085	17.0837
9.29182	16.5314
9.27519	15.6421
9.25863	14.0949
9.24213	11.836
9.22568	9.67053
9.2093	9.16819
9.19297	10.4051
9.17669	12.1819
9.16048	13.9787
9.14433	15.397
9.12823	16.3436
9.11218	17.0905
9.0962	17.4803
9.08027	17.6802
9.06439	17.8858
9.04858	18.0626
9.03281	18.2052
9.0171	18.3834
9.00145	18.7656
8.98585	19.1597
8.9703	19.6409
8.9548	20.2277
8.93937	20.5905
8.92398	20.4906
8.90865	20.1261
8.89337	19.5344
8.87814	18.7717
8.86296	18.0702
8.84784	17.277
8.83277	16.1771
8.81774	14.8661
8.80277	13.3786
8.78786	12.0138
8.77298	10.8159
8.75816	9.78882
8.7434	8.79181
8.72868	7.88939
8.714	7.20305
8.69938	6.70912
8.68481	6.40431
8.67029	5.87699
8.65581	5.20586
8.64139	4.82945
8.62701	4.51617
8.61268	4.44456
8.5984	4.33355
8.58416	4.20304
8.56997	4.17098
8.55583	4.0789
8.54174	4.06086
8.52769	4.11591
8.51368	4.02657
8.49973	3.7949
8.48582	3.68705
8.47195	3.83502
8.45813	3.96423
8.44436	4.06951
8.43062	4.19605
8.41693	4.32507
8.4033	4.44605
8.3897	4.48383
8.37614	4.48414
8.36264	4.63461
8.34917	4.84031
8.33574	5.02216
8.32236	5.16129
8.30903	5.32277
8.29573	5.57578
8.28248	5.68109
8.26927	5.738
8.2561	5.8947
8.24298	6.05881
8.2299	6.15148
8.21685	6.17688
8.20385	6.55759
8.19089	7.01378
8.17797	7.12879
8.16509	7.21282
8.15225	7.44731
8.13946	7.7378
8.1267	7.99269
8.11398	8.12152
8.10131	8.25134
8.08867	8.39113
8.07606	8.52122
8.0635	8.65568
8.05099	8.78841
8.0385	9.00831
8.02606	9.29415
8.01366	9.47903
8.00129	9.67677
7.98896	9.82453
7.97667	10.0556
7.96442	10.2778
7.9522	10.5064
7.94002	10.7256
7.92788	10.9003
7.91578	11.1351
7.90371	11.4401
7.89168	11.6772
7.87969	11.935
7.86773	12.2215
7.85581	12.4547
7.84392	12.7277
7.83207	13.0455
7.82026	13.3342
7.80849	13.549
7.79674	13.7932
7.78503	14.1372
7.77337	14.4793
7.76173	14.8199
7.75012	15.0539
7.73856	15.2515
7.72703	15.5125
7.71553	15.8317
7.70406	15.9564
7.69263	16.1075
7.68123	16.3098
7.66987	16.4647
7.65855	16.5679
7.64725	16.6377
7.63598	16.7113
7.62475	16.8047
7.61356	16.8769
7.60239	17.0335
7.59126	17.1601
7.58017	17.3791
7.5691	17.5983
7.55806	17.7379
7.54707	17.9029
7.5361	18.0289
7.52516	18.1525
7.51425	18.2955
7.50338	18.5287
7.49253	18.7094
7.48172	18.8218
7.47094	18.9158
7.46019	18.9576
7.44947	18.9605
7.43879	18.9323
7.42813	18.9216
7.4175	19.0057
7.4069	19.0306
7.39634	19.0798
7.3858	19.0996
7.37529	19.0756
7.36482	19.0734
7.35437	19.0082
7.34396	18.9181
7.33357	18.6961
7.32321	18.4127
7.31288	18.2986
7.30258	18.1095
7.29231	17.7964
7.28207	17.6148
7.27185	17.5093
7.26167	17.3156
7.25152	17.0466
7.24139	16.8086
7.23129	16.6173
7.22122	16.4084
7.21117	16.2375
7.20116	15.9313
7.19117	15.552
7.18121	15.2675
7.17128	15.0908
7.16137	14.8818
7.1515	14.5976
7.14164	14.1735
7.13182	13.7968
7.12203	13.6381
7.11225	13.464
7.10251	13.2505
7.0928	12.9195
7.08311	12.5789
7.07344	12.2693
7.06381	11.9668
7.0542	11.7503
7.04461	11.4286
7.03506	10.801
7.02552	10.2738
7.01601	9.82913
7.00653	9.7866
6.99708	10.1087
6.98765	10.6243
6.97824	11.363
6.96886	12.1924
6.95951	12.7863
6.95018	12.8743
6.94087	12.791
6.9316	12.549
6.92234	12.0216
6.91311	11.3185
6.90391	10.496
6.89473	9.61239
6.88557	8.97715
6.87644	9.05334
6.86733	9.92978
6.85824	10.419
6.84918	10.4051
6.84015	10.6566
6.83114	11.0984
6.82215	11.4719
6.81319	11.7767
6.80424	12.282
6.79532	12.9421
6.78643	13.3632
6.77756	13.5699
6.76871	13.9126
6.75989	14.1786
6.75109	14.5308
6.74231	14.8122
6.73355	15.2948
6.72482	15.8456
6.71611	16.3334
6.70742	16.6445
6.69875	16.7638
6.69011	17.1332
6.68149	17.7089
6.67289	18.033
6.66431	18.2899
6.65576	18.6079
6.64722	19.4858
6.63871	20.7185
6.63022	21.0502
6.62175	21.0996
6.61331	21.5631
6.60488	22.1184
6.59648	23.0496
6.5881	23.773
6.57974	24.4756
6.5714	25.2977
6.56308	25.4133
6.55478	25.6851
6.54651	25.9899
6.53825	26.1783
6.53001	26.5614
6.5218	27.278
6.51361	27.4402
6.50544	27.9883
6.49729	29.4893
6.48915	29.9397
6.48104	29.481
6.47295	29.3775
6.46488	29.4053
6.45683	29.853
6.4488	30.5733
6.44079	31.2411
6.4328	32.0802
6.42482	33.0154
6.41687	34.7294
6.40894	34.5195
6.40103	33.1313
6.39314	33.036
6.38526	33.2721
6.37741	33.6335
6.36957	34.002
6.36176	33.5084
6.35396	33.3915
6.34618	33.8852
6.33843	33.4687
6.33069	33.1067
6.32297	33.5765
6.31527	34.0672
6.30758	34.536
6.29992	34.9544
6.29227	35.4549
6.28465	35.9751
6.27704	36.472
6.26945	36.7748
6.26188	36.9688
6.25432	37.1212
6.24679	37.2891
6.23927	37.2409
6.23177	37.1638
6.22429	37.1432
6.21683	37.1987
6.20938	37.1168
6.20195	37.0294
6.19454	37.4424
6.18715	38.4095
6.17978	38.2278
6.17242	37.9181
6.16508	38.4732
6.15776	38.8449
6.15045	38.8203
6.14317	39.1091
6.1359	39.2267
6.12864	39.2847
6.12141	39.997
6.11419	40.9974
6.10699	40.4803
6.0998	39.8122
6.09263	39.735
6.08549	40.0188
6.07835	40.8502
6.07123	41.4081
6.06413	41.1369
6.05705	42.0323
6.04998	44.1083
6.04293	43.3242
6.0359	42.1762
6.02888	42.3637
6.02187	42.9613
6.01489	43.722
6.00792	43.873
6.00096	44.1621
5.99403	45.1951
5.98711	45.7292
5.9802	45.6129
5.97331	46.2272
5.96644	46.7193
5.95958	46.4364
5.95274	46.8227
5.94591	47.693
5.9391	49.2537
5.9323	48.9851
5.92552	47.9673
5.91876	47.9521
5.91201	48.033
5.90528	48.5251
5.89856	49.8168
5.89186	49.8875
5.88517	50.6144
5.8785	51.2219
5.87184	50.1809
5.8652	50.5535
5.85857	50.8186
5.85196	50.8231
5.84536	50.9035
5.83878	51.3246
5.83221	52.1065
5.82566	53.1612
5.81912	53.2199
5.81259	52.0868
5.80608	51.7367
5.79959	51.802
5.79311	51.7051
5.78665	51.8597
5.78019	52.2212
5.77376	53.0544
5.76734	54.3078
5.76093	53.6215
5.75453	53.0827
5.74815	53.7122
5.74179	53.725
5.73543	53.8546
5.7291	54.0874
5.72277	54.5453
5.71646	55.0198
5.71017	55.205
5.70389	54.674
5.69762	54.5304
5.69136	54.6922
5.68513	54.6412
5.6789	55.3075
5.67268	55.7646
5.66648	55.6394
5.6603	56.1421
5.65413	56.5915
5.64797	56.8676
5.64182	57.1291
5.63569	56.2377
5.62957	55.3653
5.62347	54.7236
5.61737	53.9913
5.61129	52.7762
5.60522	51.2128
5.59917	48.9752
5.59313	45.7746
5.5871	42.02
5.58109	38.9565
5.57509	37.3775
5.5691	36.9739
5.56312	37.2018
5.55716	38.8248
5.55121	42.4114
5.54528	46.6851
5.53935	50.3604
5.53344	53.0321
5.52754	54.9641
5.52166	56.2383
5.51578	57.0639
5.50992	57.7203
5.50407	58.4482
5.49823	58.9062
5.49241	59.3867
5.4866	59.9109
5.4808	60.6336
5.47501	60.9436
5.46923	61.3741
5.46347	61.8464
5.45772	61.7337
5.45198	61.7227
5.44625	61.9855
5.44054	62.1573
5.43484	62.2252
5.42914	62.5054
5.42347	63.0593
5.4178	62.6709
5.41214	62.1152
5.4065	61.8156
5.40087	61.4656
5.39525	61.0802
5.38964	60.7408
5.38404	60.4644
5.37846	60.2407
5.37288	60.0453
5.36732	59.7649
5.36177	59.6424
5.35623	59.8751
5.35071	60.0784
5.34519	59.7988
5.33968	59.61
5.33419	59.6391
5.32871	59.6377
5.32324	59.7517
5.31778	59.8413
5.31233	59.9258
5.30689	59.95
5.30147	59.9395
5.29605	60.0976
5.29065	60.2748
5.28525	60.2103
5.27987	60.3681
5.2745	60.572
5.26914	60.6501
5.26379	60.6995
5.25845	60.8478
5.25312	61.0225
5.24781	61.142
5.2425	61.2472
5.23721	61.3682
5.23192	61.2985
5.22665	61.1637
5.22138	61.0832
5.21613	61.135
5.21089	60.8059
5.20566	60.0675
5.20044	59.1765
5.19522	57.9176
5.19002	56.8624
5.18483	56.7166
5.17965	57.4477
5.17448	58.3994
5.16933	59.2007
5.16418	59.8062
5.15904	60.1418
5.15391	60.413
5.14879	60.6284
5.14368	60.4035
5.13859	60.0684
5.1335	59.7927
5.12842	59.4984
5.12335	59.1366
5.1183	58.6485
5.11325	58.0162
5.10821	57.2388
5.10318	56.3937
5.09817	55.5454
5.09316	54.7584
5.08816	53.8601
5.08317	52.8987
5.07819	51.694
5.07322	50.2889
5.06826	48.6151
5.06331	46.6509
5.05837	44.2192
5.05344	41.4032
5.04852	38.1623
5.04361	34.3794
5.03871	30.1961
5.03382	26.1055
5.02894	22.4958
5.02406	19.9405
5.0192	18.6801
5.01435	18.2978
5.0095	18.6705
5.00467	19.3939
4.99984	19.9239
4.99502	20.0355
4.99021	19.6435
4.98542	19.1026
4.98063	18.7719
4.97585	19.1689
4.97108	20.2998
4.96632	21.8006
4.96156	23.3236
4.95682	24.6745
4.95209	25.77
4.94736	26.846
4.94264	27.768
4.93794	28.4395
4.93324	28.9672
4.92855	29.5184
4.92387	30.18
4.9192	30.8027
4.91453	31.2798
4.90988	31.6364
4.90524	31.9371
4.9006	32.1192
4.89597	31.9882
4.89135	31.4425
4.88674	30.6605
4.88214	29.8215
4.87755	29.0397
4.87296	28.7019
4.86839	29.0426
4.86382	29.9432
4.85926	30.8461
4.85471	31.1401
4.85017	30.7859
4.84564	30.1195
4.84111	29.2479
4.8366	28.3808
4.83209	27.6774
4.82759	27.0586
4.8231	26.314
4.81862	25.4225
4.81415	24.4142
4.80968	23.6324
4.80522	23.4497
4.80077	23.8303
4.79633	24.4263
4.7919	25.0526
4.78747	25.7677
4.78306	26.6114
4.77865	27.4571
4.77425	28.3294
4.76986	29.2826
4.76547	30.2902
4.7611	31.2601
4.75673	32.0589
4.75237	32.8152
4.74802	33.6105
4.74367	34.3888
4.73934	34.9068
4.73501	35.1752
4.73069	35.3883
4.72638	35.53
4.72207	35.6316
4.71777	35.6116
4.71348	35.4106
4.7092	35.1714
4.70493	34.9449
4.70066	34.7266
4.69641	34.6694
4.69216	34.7401
4.68791	34.8679
4.68368	34.926
4.67945	34.9194
4.67523	34.8575
4.67102	34.6452
4.66682	34.2748
4.66262	33.8308
4.65843	33.5167
4.65425	33.5454
4.65007	33.6935
4.64591	33.9449
4.64175	34.2336
4.6376	34.3944
4.63345	34.5677
4.62932	34.8279
4.62519	35.331
4.62106	36.1262
4.61695	37.1881
4.61284	38.5547
4.60874	39.9765
4.60465	41.3487
4.60056	42.8592
4.59648	44.3041
4.59241	45.2768
4.58835	45.9051
4.58429	46.3412
4.58024	46.5828
4.5762	46.7447
4.57216	46.9463
4.56814	47.2175
4.56411	47.6267
4.5601	48.3293
4.55609	49.1688
4.55209	50.1
4.5481	50.9874
4.54411	51.674
4.54013	52.3268
4.53616	53.1056
4.5322	54.1247
4.52824	55.4339
4.52429	56.9066
4.52034	58.2985
4.51641	59.5185
4.51247	60.549
4.50855	61.4192
4.50463	62.1611
4.50072	62.7831
4.49682	63.2194
4.49292	63.6589
4.48903	64.1546
4.48515	64.6108
4.48127	65.0306
4.4774	65.4057
4.47354	65.6914
4.46968	65.9777
4.46584	66.3259
4.46199	66.656
4.45815	67.0081
4.45432	67.3223
4.4505	67.5479
4.44668	67.7762
4.44287	68.0614
4.43907	68.3922
4.43527	68.6291
4.43148	68.8414
4.4277	69.0719
4.42392	69.2845
4.42015	69.5256
4.41638	69.7239
4.41262	69.8109
4.40887	69.9888
4.40513	70.1715
4.40139	70.2791
4.39765	70.2978
4.39393	70.3209
4.39021	70.2567
4.38649	70.2177
4.38278	70.2079
4.37908	70.1758
4.37539	70.1633
4.3717	70.249
4.36801	70.3199
4.36434	70.3603
4.36067	70.3148
4.357	70.3308
4.35335	70.4871
4.34969	70.6662
4.34605	70.8829
4.34241	71.1357
4.33877	71.3849
4.33514	71.5974
4.33152	71.8006
4.32791	72.0279
4.3243	72.2864
4.32069	72.5361
4.3171	72.73
4.31351	72.964
4.30992	73.2143
4.30634	73.4265
4.30277	73.5841
4.2992	73.7965
4.29564	74.0359
4.29208	74.1727
4.28853	74.3085
4.28499	74.4974
4.28145	74.7075
4.27792	74.873
4.27439	74.9469
4.27087	75.0132
4.26735	75.0602
4.26384	75.0684
4.26034	75.0278
4.25684	75.0867
4.25335	75.3561
4.24986	75.6438
4.24638	75.8939
4.24291	76.1586
4.23944	76.3997
4.23598	76.5667
4.23252	76.6535
4.22906	76.6767
4.22562	76.6033
4.22218	76.6427
4.21874	76.66
4.21531	76.5538
4.21189	76.4391
4.20847	76.4386
4.20506	76.4528
4.20165	76.4284
4.19825	76.3981
4.19485	76.4069
4.19146	76.4216
4.18807	76.4548
4.18469	76.5336
4.18132	76.5477
4.17795	76.4871
4.17458	76.4552
4.17123	76.5105
4.16787	76.5831
4.16453	76.5613
4.16118	76.5324
4.15785	76.5411
4.15451	76.5842
4.15119	76.5941
4.14787	76.5227
4.14455	76.4242
4.14124	76.3716
4.13794	76.3302
4.13464	76.2352
4.13134	76.0871
4.12805	75.9432
4.12477	75.8467
4.12149	75.7719
4.11822	75.6419
4.11495	75.5267
4.11168	75.4186
4.10843	75.2975
4.10517	75.1928
4.10192	75.0088
4.09868	74.7748
4.09545	74.6077
4.09221	74.4266
4.08899	74.2714
4.08576	73.9972
4.08255	73.7677
4.07933	73.5151
4.07613	73.2805
4.07292	73.0239
4.06973	72.7572
4.06654	72.4634
4.06335	72.181
4.06017	71.7477
4.05699	71.2781
4.05382	70.7514
4.05065	70.0562
4.04749	69.2543
4.04433	68.3541
4.04118	67.3334
4.03803	66.3084
4.03489	65.2609
4.03175	64.2607
4.02862	63.29
4.02549	62.2595
4.02237	61.3347
4.01925	60.5441
4.01614	59.6017
4.01303	58.3646
4.00993	56.7486
4.00683	55.052
4.00373	53.4984
4.00064	52.0296
3.99756	50.6085
3.99448	49.3953
3.9914	48.3615
3.98833	47.4277
3.98527	46.8481
3.98221	46.6148
3.97915	46.6164
3.9761	46.7101
3.97305	46.9771
3.97001	47.3801
3.96697	47.8294
3.96394	48.3923
3.96091	49.1294
3.95789	50.0092
3.95487	51.0658
3.95186	52.3391
3.94885	53.6669
3.94584	54.8899
3.94284	56.259
3.93984	57.645
3.93685	58.5216
3.93386	58.8671
3.93088	58.9678
3.9279	59.1871
3.92493	59.5561
3.92196	59.8804
3.919	60.1318
3.91604	60.3375
3.91308	60.5016
3.91013	60.6266
3.90718	60.7436
3.90424	60.8543
3.9013	60.9496
3.89837	61.0433
3.89544	61.1437
3.89252	61.2352
3.8896	61.3296
3.88668	61.388
3.88377	61.4278
3.88086	61.4661
3.87796	61.5981
3.87506	61.7211
3.87217	61.7161
3.86928	61.6235
3.86639	61.7425
3.86351	61.8714
3.86064	61.8766
3.85776	61.9214
3.8549	62.0242
3.85203	62.1655
3.84917	62.2851
3.84631	62.4431
3.84346	62.6801
3.84062	63.0195
3.83777	63.3603
3.83494	63.8967
3.8321	64.6173
3.82927	65.2703
3.82644	65.8688
3.82362	66.5026
3.82081	67.1479
3.81799	67.7558
3.81518	68.3349
3.81238	68.9734
3.80958	69.5851
3.80678	70.2371
3.80399	70.9758
3.8012	71.678
3.79841	72.3484
3.79563	73.0193
3.79286	73.569
3.79008	73.9699
3.78731	74.3109
3.78455	74.513
3.78179	74.6462
3.77903	74.7842
3.77628	74.8639
3.77353	74.901
3.77079	74.9278
3.76805	74.9768
3.76531	74.9962
3.76258	74.9917
3.75985	75.0003
3.75713	75.0047
3.7544	75.007
3.75169	75.039
3.74898	75.0103
3.74627	74.9672
3.74356	74.9373
3.74086	74.9322
3.73816	74.908
3.73547	74.9031
3.73278	74.9104
3.7301	74.9644
3.72741	75.0003
3.72474	74.9813
3.72206	74.9285
3.71939	74.9607
3.71673	74.9913
3.71406	74.9503
3.71141	74.9375
3.70875	74.9131
3.7061	74.9027
3.70345	74.8401
3.70081	74.7335
3.69817	74.6991
3.69553	74.7641
3.6929	74.7594
3.69027	74.7456
3.68765	74.7479
3.68503	74.7149
3.68241	74.6637
3.6798	74.625
3.67719	74.5983
3.67458	74.6022
3.67198	74.4989
3.66938	74.4779
3.66678	74.4774
3.66419	74.409
3.66161	74.3995
3.65902	74.3454
3.65644	74.2444
3.65387	74.2304
3.65129	74.2309
3.64872	74.1995
3.64616	74.1778
3.64359	74.181
3.64103	74.1389
3.63848	74.0744
3.63593	74.0709
3.63338	73.9961
3.63084	73.9103
3.6283	73.9346
3.62576	73.8665
3.62322	73.7848
3.62069	73.7427
3.61817	73.6837
3.61564	73.7012
3.61312	73.6192
3.61061	73.4589
3.6081	73.4337
3.60559	73.3593
3.60308	73.2449
3.60058	73.1563
3.59808	72.9757
3.59558	72.8657
3.59309	72.7756
3.59061	72.6088
3.58812	72.3945
3.58564	72.2586
3.58316	72.153
3.58069	71.9006
3.57822	71.5473
3.57575	71.2165
3.57328	71.054
3.57082	71.0726
3.56836	71.0581
3.56591	71.0425
3.56346	70.9896
3.56101	70.9441
3.55857	70.8695
3.55613	70.7525
3.55369	70.571
3.55126	70.3215
3.54883	70.0858
3.5464	69.869
3.54397	69.4883
3.54155	69.1054
3.53914	68.7637
3.53672	68.3328
3.53431	67.7674
3.5319	67.0373
3.5295	66.2336
3.5271	65.2112
3.5247	64.0676
3.52231	62.8706
3.51991	61.6846
3.51753	60.6785
3.51514	59.8077
3.51276	59.0573
3.51038	58.4539
3.50801	57.928
3.50563	57.4007
3.50327	56.9525
3.5009	56.5264
3.49854	56.0057
3.49618	55.5534
3.49382	55.1666
3.49147	54.7546
3.48912	54.3804
3.48677	53.9081
3.48443	53.4367
3.48209	53.0722
3.47975	52.7747
3.47742	52.6688
3.47509	52.972
3.47276	53.6841
3.47044	54.8228
3.46812	56.0461
3.4658	57.1199
3.46348	58.0155
