Name: Riebeckite Na_2(Fe^2+,Mg)_3,Fe_2^3+Si_8O_22(OH)_2
Type: Mineral
Class: Silicates
Subclass: Inosilicates
Particle Size: 45-125um
Sample No.: IN-7A
Owner: JPL
Wavelength range: IR
Origin: Canada, Ontario
Collected by Ward's
Description: 





Measurement: Hemispherical reflectance
First Column: X
Second Column: Y
X Units:  Wavelength (micrometers)
Y Units:  Reflectance (percent)
First X Value: 15.3853
Last X Value: 2.00032
Number of X Values: 2256
Additional information: in07aa.txt
 
15.3853	2.20174
15.3397	2.21394
15.2945	2.07028
15.2495	2.19955
15.2048	2.21275
15.1603	2.1366
15.1161	2.20458
15.0722	2.37612
15.0285	2.48438
14.9851	2.48115
14.9419	2.43972
14.8989	2.34288
14.8563	2.21842
14.8138	2.14465
14.7716	2.2759
14.7296	2.41264
14.6879	2.34896
14.6464	2.33471
14.6052	2.30049
14.5641	2.21039
14.5233	2.14159
14.4828	2.17038
14.4424	2.45845
14.4023	2.61299
14.3624	2.66884
14.3227	2.4735
14.2833	2.20529
14.244	2.17732
14.205	2.24552
14.1662	2.5143
14.1276	2.65065
14.0892	2.52605
14.051	2.3672
14.0131	2.4487
13.9753	2.69418
13.9377	2.94048
13.9004	2.84747
13.8632	2.79822
13.8262	2.86712
13.7895	2.78838
13.7529	2.69107
13.7165	2.61658
13.6803	2.72141
13.6443	2.93435
13.6085	2.98146
13.5729	2.91073
13.5374	2.92275
13.5022	3.05375
13.4671	3.16384
13.4322	3.09674
13.3975	3.0711
13.363	3.28805
13.3286	3.32107
13.2944	3.17345
13.2604	3.06299
13.2266	2.89754
13.193	2.83494
13.1595	2.89578
13.1262	2.95063
13.093	3.06112
13.06	3.15784
13.0272	3.24472
12.9946	3.39261
12.9621	3.40665
12.9298	3.37518
12.8976	3.51643
12.8656	3.74068
12.8337	3.92814
12.8021	3.96203
12.7705	3.97273
12.7391	3.90938
12.7079	3.90844
12.6769	4.09761
12.6459	4.18059
12.6152	4.24617
12.5845	4.28261
12.5541	4.32482
12.5238	4.33986
12.4936	4.38242
12.4635	4.4524
12.4337	4.47737
12.4039	4.52452
12.3743	4.52076
12.3448	4.49227
12.3155	4.53892
12.2863	4.86521
12.2573	5.07602
12.2284	5.08329
12.1996	5.06097
12.171	5.05053
12.1425	5.00932
12.1141	5.05709
12.0859	5.09921
12.0578	5.20091
12.0298	5.43989
12.0019	5.51395
11.9742	5.48402
11.9466	5.61992
11.9192	5.70739
11.8918	5.66068
11.8646	5.78635
11.8375	6.00656
11.8106	6.08814
11.7837	6.08493
11.757	6.08328
11.7304	6.0431
11.7039	6.12403
11.6776	6.25152
11.6513	6.4229
11.6252	6.68874
11.5992	6.89043
11.5733	6.89087
11.5475	6.85505
11.5219	6.95932
11.4963	7.05677
11.4709	7.22518
11.4455	7.42412
11.4203	7.53081
11.3952	7.402
11.3702	7.37198
11.3454	7.53463
11.3206	7.77012
11.2959	8.07208
11.2714	8.12989
11.2469	8.05072
11.2226	8.10546
11.1983	8.25685
11.1742	8.38083
11.1502	8.62432
11.1263	8.81186
11.1024	8.9278
11.0787	9.12401
11.0551	9.30973
11.0316	9.5537
11.0081	9.65816
10.9848	9.84401
10.9616	10.0091
10.9385	10.0109
10.9154	10.1598
10.8925	10.375
10.8697	10.4211
10.8469	10.3743
10.8243	10.4241
10.8017	10.628
10.7793	10.7513
10.7569	10.7932
10.7346	10.8709
10.7125	11.0882
10.6904	11.3992
10.6684	11.6585
10.6465	11.8039
10.6247	12.0844
10.6029	12.4652
10.5813	12.8815
10.5597	13.2945
10.5383	13.7423
10.5169	14.0635
10.4956	14.346
10.4744	14.7825
10.4533	15.3476
10.4323	15.9404
10.4113	16.4728
10.3904	17.078
10.3697	17.6489
10.349	18.1554
10.3284	18.6307
10.3078	18.977
10.2874	19.3184
10.267	19.6638
10.2467	19.8865
10.2265	20.1079
10.2064	20.2943
10.1863	20.4262
10.1663	20.4787
10.1464	20.4758
10.1266	20.4436
10.1069	20.3784
10.0872	20.2853
10.0676	20.1648
10.0481	19.9818
10.0287	19.7205
10.0093	19.4915
9.99005	19.2486
9.97084	18.8311
9.95169	18.3224
9.93263	17.761
9.91364	17.3032
9.89472	16.7467
9.87587	16.0599
9.8571	15.6149
9.83839	15.2483
9.81976	14.8776
9.80119	14.4973
9.78271	13.9374
9.76428	13.5459
9.74592	13.427
9.72764	13.3419
9.70943	13.3058
9.69128	13.4587
9.6732	13.6855
9.65518	13.9045
9.63724	14.0328
9.61935	14.2622
9.60155	14.6398
9.5838	14.9707
9.56611	15.1339
9.5485	15.2276
9.53094	15.4866
9.51345	15.7593
9.49604	15.784
9.47867	15.8881
9.46137	16.0543
9.44414	16.0372
9.42697	15.9592
9.40986	15.8251
9.39281	15.7722
9.37583	15.7498
9.35891	15.4845
9.34204	15.0438
9.32524	14.6121
9.3085	14.1671
9.29182	13.5844
9.27519	12.9789
9.25863	12.3083
9.24213	11.5935
9.22568	10.9648
9.2093	10.2557
9.19297	9.53043
9.17669	8.74285
9.16048	8.08306
9.14433	7.56133
9.12823	6.90403
9.11218	6.24028
9.0962	5.75693
9.08027	5.4061
9.06439	4.99217
9.04858	4.55414
9.03281	4.12466
9.0171	3.89137
9.00145	3.85307
8.98585	3.80735
8.9703	3.89255
8.9548	4.01407
8.93937	4.09769
8.92398	4.37816
8.90865	4.70998
8.89337	4.96013
8.87814	5.28656
8.86296	5.63178
8.84784	5.98903
8.83277	6.24965
8.81774	6.31661
8.80277	6.3477
8.78786	6.28572
8.77298	6.1305
8.75816	5.76346
8.7434	5.33377
8.72868	4.83679
8.714	4.10768
8.69938	3.31158
8.68481	2.66644
8.67029	2.18308
8.65581	1.79296
8.64139	1.54538
8.62701	1.37031
8.61268	1.14551
8.5984	0.841546
8.58416	0.654518
8.56997	0.651456
8.55583	0.611042
8.54174	0.621318
8.52769	0.65808
8.51368	0.618832
8.49973	0.512881
8.48582	0.411651
8.47195	0.33701
8.45813	0.370751
8.44436	0.397209
8.43062	0.361391
8.41693	0.456358
8.4033	0.50701
8.3897	0.481917
8.37614	0.605073
8.36264	0.586061
8.34917	0.418853
8.33574	0.426418
8.32236	0.494449
8.30903	0.62474
8.29573	0.670937
8.28248	0.766226
8.26927	0.888964
8.2561	0.866832
8.24298	0.884841
8.2299	0.941618
8.21685	0.932526
8.20385	0.95871
8.19089	1.00076
8.17797	1.03467
8.16509	1.17094
8.15225	1.24939
8.13946	1.24958
8.1267	1.15379
8.11398	1.22765
8.10131	1.49483
8.08867	1.55751
8.07606	1.50271
8.0635	1.45031
8.05099	1.47362
8.0385	1.6081
8.02606	1.70212
8.01366	1.80448
8.00129	1.82454
7.98896	1.84785
7.97667	1.92899
7.96442	1.99522
7.9522	2.00713
7.94002	2.16164
7.92788	2.18629
7.91578	2.10801
7.90371	2.26071
7.89168	2.42025
7.87969	2.44296
7.86773	2.487
7.85581	2.57732
7.84392	2.57643
7.83207	2.54971
7.82026	2.67058
7.80849	2.80937
7.79674	2.76616
7.78503	2.82065
7.77337	2.9371
7.76173	3.02624
7.75012	3.13727
7.73856	3.19175
7.72703	3.27239
7.71553	3.27291
7.70406	3.23575
7.69263	3.32415
7.68123	3.41728
7.66987	3.51406
7.65855	3.59786
7.64725	3.62063
7.63598	3.68496
7.62475	3.68373
7.61356	3.80599
7.60239	3.95503
7.59126	3.97853
7.58017	4.00753
7.5691	4.02946
7.55806	4.13489
7.54707	4.22051
7.5361	4.28659
7.52516	4.36459
7.51425	4.34745
7.50338	4.36072
7.49253	4.46345
7.48172	4.51261
7.47094	4.55569
7.46019	4.74499
7.44947	4.86137
7.43879	4.93181
7.42813	4.91784
7.4175	4.94436
7.4069	5.06489
7.39634	5.17729
7.3858	5.23579
7.37529	5.33917
7.36482	5.40218
7.35437	5.47855
7.34396	5.59577
7.33357	5.6591
7.32321	5.66889
7.31288	5.71267
7.30258	5.7612
7.29231	5.91868
7.28207	6.06552
7.27185	6.06988
7.26167	6.0723
7.25152	6.12205
7.24139	6.16251
7.23129	6.31172
7.22122	6.44258
7.21117	6.62569
7.20116	6.77008
7.19117	6.73717
7.18121	6.84242
7.17128	7.01345
7.16137	7.12442
7.1515	7.25674
7.14164	7.258
7.13182	7.28271
7.12203	7.38972
7.11225	7.46781
7.10251	7.54691
7.0928	7.68566
7.08311	7.73552
7.07344	7.78376
7.06381	7.89897
7.0542	8.12535
7.04461	8.29312
7.03506	8.19647
7.02552	8.20986
7.01601	8.32712
7.00653	8.46572
6.99708	8.64346
6.98765	8.66726
6.97824	8.66886
6.96886	8.91753
6.95951	9.13664
6.95018	9.03639
6.94087	9.02627
6.9316	9.05962
6.92234	9.15848
6.91311	9.28533
6.90391	9.3455
6.89473	9.31463
6.88557	9.42205
6.87644	9.64022
6.86733	10.1124
6.85824	10.0992
6.84918	9.79894
6.84015	9.71829
6.83114	9.82516
6.82215	9.88244
6.81319	9.82049
6.80424	9.86019
6.79532	10.0907
6.78643	10.2236
6.77756	10.1985
6.76871	10.1704
6.75989	10.1725
6.75109	10.2737
6.74231	10.3119
6.73355	10.4308
6.72482	10.625
6.71611	10.7529
6.70742	10.7626
6.69875	10.6607
6.69011	10.7538
6.68149	10.9338
6.67289	10.8796
6.66431	10.7753
6.65576	10.764
6.64722	11.2143
6.63871	11.7859
6.63022	11.5008
6.62175	11.0629
6.61331	11.0028
6.60488	10.982
6.59648	11.1376
6.5881	11.1888
6.57974	11.263
6.5714	11.3763
6.56308	11.1237
6.55478	10.94
6.54651	10.7772
6.53825	10.5749
6.53001	10.4717
6.5218	10.4766
6.51361	10.2391
6.50544	10.2496
6.49729	10.6637
6.48915	10.7124
6.48104	10.3168
6.47295	9.96705
6.46488	9.63017
6.45683	9.47145
6.4488	9.41145
6.44079	9.39959
6.4328	9.3514
6.42482	9.34308
6.41687	9.67108
6.40894	9.48938
6.40103	8.86139
6.39314	8.66659
6.38526	8.56484
6.37741	8.50989
6.36957	8.51269
6.36176	8.30582
6.35396	8.20048
6.34618	8.31321
6.33843	8.18419
6.33069	7.95169
6.32297	7.83056
6.31527	7.79157
6.30758	7.73131
6.29992	7.72562
6.29227	7.72918
6.28465	7.67476
6.27704	7.60582
6.26945	7.51286
6.26188	7.52571
6.25432	7.53063
6.24679	7.52486
6.23927	7.52543
6.23177	7.45309
6.22429	7.41818
6.21683	7.496
6.20938	7.48953
6.20195	7.44143
6.19454	7.58772
6.18715	7.94831
6.17978	7.85355
6.17242	7.59938
6.16508	7.70129
6.15776	7.82595
6.15045	7.83093
6.14317	7.87823
6.1359	7.90068
6.12864	7.97507
6.12141	8.17818
6.11419	8.32656
6.10699	8.27455
6.0998	8.28467
6.09263	8.2712
6.08549	8.24667
6.07835	8.49055
6.07123	8.64148
6.06413	8.54129
6.05705	8.80529
6.04998	9.40506
6.04293	9.04004
6.0359	8.56625
6.02888	8.49886
6.02187	8.5777
6.01489	8.69343
6.00792	8.65187
6.00096	8.62382
5.99403	8.83733
5.98711	8.87536
5.9802	8.71173
5.97331	8.85574
5.96644	8.97716
5.95958	8.79082
5.95274	8.71746
5.94591	8.90351
5.9391	9.3641
5.9323	9.28066
5.92552	8.90357
5.91876	8.81187
5.91201	8.78147
5.90528	8.86798
5.89856	9.28531
5.89186	9.33027
5.88517	9.3976
5.8785	9.4423
5.87184	9.1479
5.8652	9.0961
5.85857	9.07917
5.85196	9.12407
5.84536	9.07359
5.83878	9.11413
5.83221	9.27356
5.82566	9.55086
5.81912	9.63119
5.81259	9.30911
5.80608	9.14575
5.79959	9.18458
5.79311	9.22891
5.78665	9.26738
5.78019	9.30951
5.77376	9.52224
5.76734	9.92316
5.76093	9.69581
5.75453	9.42197
5.74815	9.49214
5.74179	9.44655
5.73543	9.48816
5.7291	9.57247
5.72277	9.61908
5.71646	9.68786
5.71017	9.77088
5.70389	9.64449
5.69762	9.63133
5.69136	9.71096
5.68513	9.76239
5.6789	9.89723
5.67268	9.96724
5.66648	9.90651
5.6603	10.0246
5.65413	10.1585
5.64797	10.2812
5.64182	10.4805
5.63569	10.3719
5.62957	10.2861
5.62347	10.2549
5.61737	10.2688
5.61129	10.3703
5.60522	10.5005
5.59917	10.5137
5.59313	10.5639
5.5871	10.7115
5.58109	10.8974
5.57509	10.9758
5.5691	10.917
5.56312	10.9724
5.55716	11.0727
5.55121	11.2268
5.54528	11.2962
5.53935	11.3496
5.53344	11.4466
5.52754	11.606
5.52166	11.7636
5.51578	11.9405
5.50992	12.0859
5.50407	12.1721
5.49823	12.3337
5.49241	12.5221
5.4866	12.6721
5.4808	12.9149
5.47501	13.1077
5.46923	13.2501
5.46347	13.4206
5.45772	13.4803
5.45198	13.5537
5.44625	13.7392
5.44054	13.9681
5.43484	14.1633
5.42914	14.3318
5.42347	14.6279
5.4178	14.7835
5.41214	14.8383
5.4065	14.8794
5.40087	14.9855
5.39525	15.161
5.38964	15.29
5.38404	15.3997
5.37846	15.5323
5.37288	15.5869
5.36732	15.6227
5.36177	15.788
5.35623	16.0321
5.35071	16.1765
5.34519	16.061
5.33968	15.9624
5.33419	16.034
5.32871	16.0844
5.32324	16.068
5.31778	16.0778
5.31233	16.1311
5.30689	16.1931
5.30147	16.2593
5.29605	16.3584
5.29065	16.4532
5.28525	16.4232
5.27987	16.4302
5.2745	16.415
5.26914	16.4228
5.26379	16.4739
5.25845	16.5032
5.25312	16.4997
5.24781	16.5609
5.2425	16.6508
5.23721	16.6973
5.23192	16.7442
5.22665	16.8095
5.22138	16.8103
5.21613	16.8628
5.21089	16.8787
5.20566	16.8926
5.20044	16.9456
5.19522	16.8453
5.19002	16.7357
5.18483	16.7045
5.17965	16.7711
5.17448	16.7959
5.16933	16.8006
5.16418	16.7941
5.15904	16.7768
5.15391	16.795
5.14879	16.8637
5.14368	16.877
5.13859	16.8295
5.1335	16.7967
5.12842	16.8516
5.12335	16.9124
5.1183	16.8451
5.11325	16.8084
5.10821	16.8427
5.10318	16.8374
5.09817	16.8536
5.09316	16.9586
5.08816	17.0317
5.08317	17.0054
5.07819	16.9762
5.07322	17.0292
5.06826	17.1133
5.06331	17.1807
5.05837	17.186
5.05344	17.2366
5.04852	17.3305
5.04361	17.4048
5.03871	17.4065
5.03382	17.4799
5.02894	17.5707
5.02406	17.6453
5.0192	17.7902
5.01435	17.8659
5.0095	17.8791
5.00467	17.9124
4.99984	18.0185
4.99502	18.1712
4.99021	18.2494
4.98542	18.2919
4.98063	18.3703
4.97585	18.4961
4.97108	18.6259
4.96632	18.6969
4.96156	18.8526
4.95682	18.9881
4.95209	19.0969
4.94736	19.1682
4.94264	19.3321
4.93794	19.5488
4.93324	19.638
4.92855	19.75
4.92387	19.9329
4.9192	20.1093
4.91453	20.3088
4.90988	20.4608
4.90524	20.6157
4.9006	20.8515
4.89597	21.0277
4.89135	21.1334
4.88674	21.2679
4.88214	21.494
4.87755	21.7464
4.87296	21.9285
4.86839	22.0686
4.86382	22.2993
4.85926	22.5771
4.85471	22.7804
4.85017	22.9013
4.84564	23.0639
4.84111	23.2494
4.8366	23.4479
4.83209	23.6956
4.82759	23.8882
4.8231	24.0479
4.81862	24.2377
4.81415	24.3594
4.80968	24.5468
4.80522	24.7402
4.80077	24.9691
4.79633	25.1867
4.7919	25.3984
4.78747	25.552
4.78306	25.6877
4.77865	25.882
4.77425	26.158
4.76986	26.3824
4.76547	26.5466
4.7611	26.7211
4.75673	26.9389
4.75237	27.1543
4.74802	27.3717
4.74367	27.5962
4.73934	27.7507
4.73501	27.9056
4.73069	28.1308
4.72638	28.3779
4.72207	28.5886
4.71777	28.7953
4.71348	28.9916
4.7092	29.1727
4.70493	29.3877
4.70066	29.6555
4.69641	29.9705
4.69216	30.1545
4.68791	30.3277
4.68368	30.5342
4.67945	30.7789
4.67523	31.066
4.67102	31.3163
4.66682	31.5511
4.66262	31.8266
4.65843	32.079
4.65425	32.3796
4.65007	32.6582
4.64591	32.9551
4.64175	33.2184
4.6376	33.5164
4.63345	33.8285
4.62932	34.1607
4.62519	34.4876
4.62106	34.7726
4.61695	35.0833
4.61284	35.4845
4.60874	35.8071
4.60465	36.1299
4.60056	36.4581
4.59648	36.7599
4.59241	37.0359
4.58835	37.3269
4.58429	37.6339
4.58024	37.8881
4.5762	38.1826
4.57216	38.4953
4.56814	38.7937
4.56411	39.0467
4.5601	39.2886
4.55609	39.5953
4.55209	39.8904
4.5481	40.1482
4.54411	40.3495
4.54013	40.6578
4.53616	40.897
4.5322	41.0872
4.52824	41.2576
4.52429	41.4232
4.52034	41.6765
4.51641	41.9398
4.51247	42.1244
4.50855	42.3044
4.50463	42.5445
4.50072	42.7511
4.49682	42.8663
4.49292	42.9669
4.48903	43.092
4.48515	43.2088
4.48127	43.3322
4.4774	43.466
4.47354	43.623
4.46968	43.7423
4.46584	43.8889
4.46199	44.0628
4.45815	44.0985
4.45432	44.1753
4.4505	44.3327
4.44668	44.4104
4.44287	44.4862
4.43907	44.5846
4.43527	44.5864
4.43148	44.6441
4.4277	44.7702
4.42392	44.8663
4.42015	44.9488
4.41638	45.06
4.41262	45.149
4.40887	45.2205
4.40513	45.2564
4.40139	45.2777
4.39765	45.3513
4.39393	45.4104
4.39021	45.4678
4.38649	45.5377
4.38278	45.6318
4.37908	45.6717
4.37539	45.7182
4.3717	45.8164
4.36801	45.8841
4.36434	45.9132
4.36067	45.9365
4.357	46.0216
4.35335	46.1103
4.34969	46.1673
4.34605	46.1167
4.34241	46.144
4.33877	46.2415
4.33514	46.3038
4.33152	46.3612
4.32791	46.3737
4.3243	46.3828
4.32069	46.432
4.3171	46.4864
4.31351	46.6315
4.30992	46.7754
4.30634	46.8194
4.30277	46.8531
4.2992	46.8934
4.29564	46.9295
4.29208	46.9964
4.28853	47.0177
4.28499	47.1322
4.28145	47.2557
4.27792	47.3271
4.27439	47.3004
4.27087	47.3574
4.26735	47.4291
4.26384	47.3765
4.26034	47.27
4.25684	47.2569
4.25335	47.3392
4.24986	47.4798
4.24638	47.6044
4.24291	47.7356
4.23944	47.8791
4.23598	47.9876
4.23252	47.9898
4.22906	47.9475
4.22562	47.9576
4.22218	48.0081
4.21874	48.04
4.21531	48.0188
4.21189	47.9756
4.20847	47.8958
4.20506	47.8909
4.20165	47.9797
4.19825	48.0761
4.19485	48.1467
4.19146	48.1884
4.18807	48.1951
4.18469	48.2143
4.18132	48.2858
4.17795	48.3779
4.17458	48.425
4.17123	48.4728
4.16787	48.5217
4.16453	48.5346
4.16118	48.5353
4.15785	48.5884
4.15451	48.667
4.15119	48.7312
4.14787	48.7686
4.14455	48.8424
4.14124	48.9396
4.13794	48.9405
4.13464	48.9305
4.13134	48.9461
4.12805	48.9864
4.12477	49.0818
4.12149	49.1463
4.11822	49.193
4.11495	49.2203
4.11168	49.2407
4.10843	49.3352
4.10517	49.4017
4.10192	49.4541
4.09868	49.4682
4.09545	49.5371
4.09221	49.6147
4.08899	49.6307
4.08576	49.6546
4.08255	49.7448
4.07933	49.8066
4.07613	49.8479
4.07292	49.8453
4.06973	49.8736
4.06654	49.944
4.06335	49.9543
4.06017	50.0011
4.05699	50.0503
4.05382	50.047
4.05065	50.0963
4.04749	50.1881
4.04433	50.2649
4.04118	50.2084
4.03803	50.1484
4.03489	50.2302
4.03175	50.3031
4.02862	50.2937
4.02549	50.2991
4.02237	50.2929
4.01925	50.2944
4.01614	50.2821
4.01303	50.306
4.00993	50.3792
4.00683	50.4228
4.00373	50.4117
4.00064	50.3974
3.99756	50.4039
3.99448	50.4163
3.9914	50.3732
3.98833	50.3313
3.98527	50.3367
3.98221	50.3824
3.97915	50.4354
3.9761	50.4955
3.97305	50.5695
3.97001	50.6645
3.96697	50.679
3.96394	50.6758
3.96091	50.7313
3.95789	50.9338
3.95487	51.0609
3.95186	51.0934
3.94885	51.163
3.94584	51.2293
3.94284	51.3603
3.93984	51.4872
3.93685	51.594
3.93386	51.6416
3.93088	51.727
3.9279	51.752
3.92493	51.7381
3.92196	51.8334
3.919	51.9092
3.91604	51.9035
3.91308	51.9624
3.91013	52.0226
3.90718	52.0436
3.90424	52.0993
3.9013	52.1125
3.89837	52.1478
3.89544	52.2079
3.89252	52.2852
3.8896	52.3647
3.88668	52.4492
3.88377	52.4756
3.88086	52.5376
3.87796	52.6122
3.87506	52.6257
3.87217	52.6494
3.86928	52.744
3.86639	52.7859
3.86351	52.8091
3.86064	52.7955
3.85776	52.7827
3.8549	52.8155
3.85203	52.8494
3.84917	52.842
3.84631	52.8708
3.84346	52.9628
3.84062	53.0483
3.83777	53.0547
3.83494	53.1245
3.8321	53.2164
3.82927	53.1848
3.82644	53.1486
3.82362	53.1941
3.82081	53.2601
3.81799	53.3264
3.81518	53.3918
3.81238	53.4156
3.80958	53.4614
3.80678	53.4782
3.80399	53.5307
3.8012	53.6318
3.79841	53.7332
3.79563	53.7352
3.79286	53.7869
3.79008	53.8644
3.78731	53.826
3.78455	53.8347
3.78179	53.9219
3.77903	53.9188
3.77628	53.9343
3.77353	53.9443
3.77079	53.9653
3.76805	54.0339
3.76531	54.1559
3.76258	54.1991
3.75985	54.2101
3.75713	54.2489
3.7544	54.2781
3.75169	54.2549
3.74898	54.2244
3.74627	54.2729
3.74356	54.3117
3.74086	54.3466
3.73816	54.4163
3.73547	54.4309
3.73278	54.3985
3.7301	54.4816
3.72741	54.4966
3.72474	54.4239
3.72206	54.3536
3.71939	54.391
3.71673	54.4591
3.71406	54.4981
3.71141	54.4905
3.70875	54.5169
3.7061	54.4858
3.70345	54.5231
3.70081	54.6796
3.69817	54.6965
3.69553	54.6456
3.6929	54.6315
3.69027	54.6323
3.68765	54.6899
3.68503	54.6617
3.68241	54.6288
3.6798	54.6871
3.67719	54.7814
3.67458	54.7588
3.67198	54.7585
3.66938	54.7703
3.66678	54.8125
3.66419	54.8369
3.66161	54.8531
3.65902	54.8342
3.65644	54.7952
3.65387	54.8223
3.65129	54.881
3.64872	54.8966
3.64616	54.9
3.64359	54.9389
3.64103	55.0527
3.63848	55.0372
3.63593	54.9941
3.63338	54.9738
3.63084	54.958
3.6283	54.9592
3.62576	55.0044
3.62322	55.0014
3.62069	55.008
3.61817	55.0756
3.61564	55.1169
3.61312	55.1
3.61061	55.0728
3.6081	55.0994
3.60559	55.1223
3.60308	55.108
3.60058	55.0871
3.59808	55.1427
3.59558	55.1807
3.59309	55.2071
3.59061	55.1816
3.58812	55.1101
3.58564	55.146
3.58316	55.1637
3.58069	55.1324
3.57822	55.1312
3.57575	55.1648
3.57328	55.1622
3.57082	55.1889
3.56836	55.2111
3.56591	55.1948
3.56346	55.1589
3.56101	55.1292
3.55857	55.1167
3.55613	55.1811
3.55369	55.1875
3.55126	55.1045
3.54883	55.0405
3.5464	55.0386
3.54397	55.0796
3.54155	55.0176
3.53914	54.9332
3.53672	54.906
3.53431	54.8929
3.5319	54.9188
3.5295	54.8865
3.5271	54.8883
3.5247	54.8652
3.52231	54.7043
3.51991	54.6776
3.51753	54.6842
3.51514	54.5838
3.51276	54.5005
3.51038	54.4191
3.50801	54.315
3.50563	54.2021
3.50327	54.1618
3.5009	54.1457
3.49854	54.104
3.49618	54.1932
3.49382	54.1836
3.49147	54.075
3.48912	54.0835
3.48677	54.1035
3.48443	54.0675
3.48209	54.0396
3.47975	54.0561
3.47742	54.0536
3.47509	54.0392
3.47276	54.0363
3.47044	54.02
