Name: Hematite alpha Fe_2O_3
Type: Mineral
Class: Oxides
Subclass: 
Particle Size: 125-500um
Sample No.: O-1A
Owner: JPL
Wavelength range: IR
Origin: USA, Alabama, Birmingham
Collected by Burminco
Description: 





Measurement: Hemispherical reflectance
First Column: X
Second Column: Y
X Units:  Wavelength (micrometers)
Y Units:  Reflectance (percent)
First X Value: 15.3853
Last X Value: 2.00032
Number of X Values: 2256
Additional information: o01aa.txt
 
15.3853	8.79387
15.3397	7.9441
15.2945	7.34798
15.2495	6.58353
15.2048	5.85848
15.1603	5.18779
15.1161	4.53494
15.0722	3.9844
15.0285	3.53037
14.9851	3.14363
14.9419	3.01744
14.8989	2.68573
14.8563	2.30273
14.8138	2.15119
14.7716	1.92609
14.7296	1.72103
14.6879	1.80608
14.6464	1.86208
14.6052	1.6869
14.5641	1.71107
14.5233	1.76659
14.4828	1.64432
14.4424	1.44479
14.4023	1.33391
14.3624	1.33872
14.3227	1.22282
14.2833	1.17595
14.244	1.12237
14.205	1.07692
14.1662	1.18082
14.1276	1.30329
14.0892	1.3998
14.051	1.47747
14.0131	1.35785
13.9753	1.22446
13.9377	1.27418
13.9004	1.3981
13.8632	1.5188
13.8262	1.47752
13.7895	1.4927
13.7529	1.53482
13.7165	1.62255
13.6803	1.79377
13.6443	1.81776
13.6085	1.81156
13.5729	1.818
13.5374	1.87638
13.5022	1.75093
13.4671	1.77573
13.4322	2.16346
13.3975	2.18478
13.363	1.99803
13.3286	2.1034
13.2944	2.22538
13.2604	2.30888
13.2266	2.33266
13.193	2.15992
13.1595	2.28832
13.1262	2.5131
13.093	2.62924
13.06	2.53565
13.0272	2.51799
12.9946	2.73174
12.9621	2.92642
12.9298	3.0163
12.8976	3.11578
12.8656	3.37769
12.8337	3.70649
12.8021	3.8409
12.7705	3.72837
12.7391	3.48753
12.7079	3.35166
12.6769	3.25104
12.6459	3.10427
12.6152	3.13184
12.5845	3.27563
12.5541	3.45681
12.5238	3.66001
12.4936	3.73998
12.4635	3.67076
12.4337	3.48155
12.4039	3.1218
12.3743	2.74607
12.3448	2.64393
12.3155	2.58719
12.2863	2.51174
12.2573	2.44588
12.2284	2.44277
12.1996	2.40977
12.171	2.46641
12.1425	2.59295
12.1141	2.62106
12.0859	2.61397
12.0578	2.75499
12.0298	2.87853
12.0019	2.8658
11.9742	2.87733
11.9466	2.77418
11.9192	2.82346
11.8918	2.94691
11.8646	3.00305
11.8375	3.08419
11.8106	3.09401
11.7837	3.13061
11.757	3.17593
11.7304	3.11177
11.7039	3.11995
11.6776	3.08903
11.6513	3.15226
11.6252	3.09437
11.5992	3.09423
11.5733	3.23073
11.5475	3.20244
11.5219	3.3957
11.4963	3.60948
11.4709	3.51482
11.4455	3.48723
11.4203	3.70288
11.3952	3.90176
11.3702	4.05956
11.3454	4.20067
11.3206	4.18449
11.2959	4.22102
11.2714	4.30083
11.2469	4.27884
11.2226	4.10487
11.1983	3.99858
11.1742	4.04671
11.1502	4.10063
11.1263	4.09669
11.1024	3.98709
11.0787	3.96851
11.0551	3.90312
11.0316	3.85119
11.0081	3.86045
10.9848	3.90543
10.9616	3.95834
10.9385	3.90444
10.9154	3.97277
10.8925	3.89272
10.8697	3.99774
10.8469	4.08703
10.8243	3.9962
10.8017	4.02132
10.7793	4.11663
10.7569	4.16399
10.7346	4.12972
10.7125	4.09765
10.6904	4.16921
10.6684	4.25313
10.6465	4.28224
10.6247	4.30526
10.6029	4.25771
10.5813	4.17225
10.5597	4.2123
10.5383	4.32835
10.5169	4.44964
10.4956	4.50584
10.4744	4.53269
10.4533	4.56174
10.4323	4.55387
10.4113	4.5129
10.3904	4.53043
10.3697	4.56064
10.349	4.59901
10.3284	4.66674
10.3078	4.78952
10.2874	4.756
10.267	4.65177
10.2467	4.83492
10.2265	5.09511
10.2064	4.964
10.1863	4.84869
10.1663	5.00744
10.1464	5.21192
10.1266	5.27466
10.1069	5.27513
10.0872	5.2361
10.0676	5.15902
10.0481	5.23985
10.0287	5.30843
10.0093	5.32323
9.99005	5.39239
9.97084	5.40546
9.95169	5.41122
9.93263	5.43608
9.91364	5.38061
9.89472	5.26626
9.87587	5.3319
9.8571	5.56039
9.83839	5.60454
9.81976	5.71274
9.80119	5.78291
9.78271	5.77291
9.76428	5.75277
9.74592	5.63604
9.72764	5.69801
9.70943	5.79648
9.69128	5.91697
9.6732	5.94514
9.65518	5.97923
9.63724	6.04738
9.61935	6.10768
9.60155	6.00857
9.5838	5.96597
9.56611	6.07893
9.5485	6.22115
9.53094	6.42492
9.51345	6.53716
9.49604	6.6921
9.47867	6.6955
9.46137	6.7305
9.44414	6.92059
9.42697	7.1356
9.40986	7.39649
9.39281	7.76478
9.37583	8.01865
9.35891	8.36028
9.34204	8.75023
9.32524	9.03035
9.3085	9.22632
9.29182	9.31003
9.27519	9.4107
9.25863	9.56688
9.24213	9.44018
9.22568	9.32882
9.2093	9.47084
9.19297	9.64051
9.17669	9.65519
9.16048	9.71634
9.14433	9.79149
9.12823	9.85752
9.11218	9.85824
9.0962	9.97407
9.08027	10.1217
9.06439	10.2179
9.04858	10.2172
9.03281	10.1908
9.0171	10.2173
9.00145	10.2649
8.98585	10.3249
8.9703	10.3407
8.9548	10.4562
8.93937	10.4017
8.92398	10.2805
8.90865	10.4193
8.89337	10.5047
8.87814	10.4895
8.86296	10.4213
8.84784	10.3864
8.83277	10.4543
8.81774	10.4791
8.80277	10.4717
8.78786	10.377
8.77298	10.2338
8.75816	10.259
8.7434	10.4
8.72868	10.3178
8.714	10.1718
8.69938	10.0287
8.68481	9.88497
8.67029	9.75594
8.65581	9.23012
8.64139	8.60642
8.62701	8.36192
8.61268	8.74688
8.5984	9.27128
8.58416	9.72511
8.56997	10.1002
8.55583	10.4212
8.54174	10.5763
8.52769	10.7598
8.51368	10.8902
8.49973	10.9452
8.48582	11.0219
8.47195	11.0446
8.45813	11.1525
8.44436	11.3192
8.43062	11.5419
8.41693	11.5691
8.4033	11.4587
8.3897	11.5057
8.37614	11.6284
8.36264	11.6342
8.34917	11.5957
8.33574	11.6772
8.32236	11.7071
8.30903	11.6893
8.29573	11.6479
8.28248	11.616
8.26927	11.7196
8.2561	11.8417
8.24298	11.8889
8.2299	12.0014
8.21685	12.069
8.20385	12.0819
8.19089	12.0893
8.17797	11.8801
8.16509	11.5694
8.15225	11.3709
8.13946	11.2957
8.1267	11.0819
8.11398	10.7137
8.10131	10.3799
8.08867	10.1474
8.07606	9.93017
8.0635	9.77373
8.05099	9.51295
8.0385	9.25918
8.02606	9.12813
8.01366	9.00029
8.00129	8.85008
7.98896	8.68176
7.97667	8.66769
7.96442	8.60202
7.9522	8.36463
7.94002	8.16505
7.92788	8.07208
7.91578	7.96879
7.90371	7.82901
7.89168	7.71035
7.87969	7.59717
7.86773	7.50724
7.85581	7.51673
7.84392	7.43073
7.83207	7.38962
7.82026	7.3534
7.80849	7.31408
7.79674	7.28612
7.78503	7.29447
7.77337	7.33887
7.76173	7.31933
7.75012	7.2571
7.73856	7.23291
7.72703	7.22987
7.71553	7.21184
7.70406	7.17452
7.69263	7.12786
7.68123	7.16918
7.66987	7.16614
7.65855	7.1013
7.64725	7.12292
7.63598	7.08724
7.62475	7.01816
7.61356	6.92168
7.60239	6.93044
7.59126	6.94342
7.58017	6.9254
7.5691	6.96702
7.55806	6.9555
7.54707	6.96262
7.5361	7.02739
7.52516	6.99646
7.51425	6.95289
7.50338	6.91699
7.49253	6.93113
7.48172	6.90968
7.47094	6.87075
7.46019	6.8736
7.44947	6.98707
7.43879	7.05906
7.42813	7.00398
7.4175	6.9862
7.4069	6.99988
7.39634	6.99506
7.3858	6.94011
7.37529	6.82812
7.36482	6.79174
7.35437	6.84035
7.34396	6.91198
7.33357	6.93863
7.32321	6.86322
7.31288	6.82778
7.30258	6.90433
7.29231	6.96672
7.28207	6.90392
7.27185	6.85724
7.26167	6.76526
7.25152	6.79231
7.24139	6.89041
7.23129	6.91098
7.22122	6.96595
7.21117	6.97873
7.20116	6.95184
7.19117	6.94668
7.18121	6.94247
7.17128	6.97461
7.16137	7.03538
7.1515	7.07105
7.14164	7.04978
7.13182	7.06214
7.12203	7.15077
7.11225	7.20669
7.10251	7.36212
7.0928	7.41918
7.08311	7.38738
7.07344	7.34664
7.06381	7.35664
7.0542	7.31625
7.04461	7.31574
7.03506	7.34794
7.02552	7.33907
7.01601	7.30337
7.00653	7.31218
6.99708	7.40845
6.98765	7.46912
6.97824	7.51188
6.96886	7.49566
6.95951	7.55109
6.95018	7.5541
6.94087	7.5179
6.9316	7.47474
6.92234	7.43434
6.91311	7.34616
6.90391	7.47392
6.89473	7.59825
6.88557	7.62656
6.87644	7.616
6.86733	7.46896
6.85824	7.42915
6.84918	7.48821
6.84015	7.46436
6.83114	7.4225
6.82215	7.50065
6.81319	7.56822
6.80424	7.63135
6.79532	7.57615
6.78643	7.58507
6.77756	7.62028
6.76871	7.54165
6.75989	7.60356
6.75109	7.66067
6.74231	7.6701
6.73355	7.75726
6.72482	7.83153
6.71611	7.78875
6.70742	7.78771
6.69875	7.80577
6.69011	7.75045
6.68149	7.76914
6.67289	7.78899
6.66431	7.82436
6.65576	7.86797
6.64722	7.88143
6.63871	7.9439
6.63022	7.95604
6.62175	7.97812
6.61331	7.94183
6.60488	7.93038
6.59648	7.96649
6.5881	8.00375
6.57974	8.01001
6.5714	8.0739
6.56308	8.01771
6.55478	7.91559
6.54651	7.98711
6.53825	8.09029
6.53001	8.13576
6.5218	8.17501
6.51361	8.27884
6.50544	8.30964
6.49729	8.30801
6.48915	8.27804
6.48104	8.3057
6.47295	8.45044
6.46488	8.5009
6.45683	8.5105
6.4488	8.55095
6.44079	8.52993
6.4328	8.42338
6.42482	8.32356
6.41687	8.20439
6.40894	8.14481
6.40103	8.0696
6.39314	7.91353
6.38526	7.9006
6.37741	7.9542
6.36957	7.81653
6.36176	7.71656
6.35396	7.61963
6.34618	7.47819
6.33843	7.38749
6.33069	7.39134
6.32297	7.32765
6.31527	7.19448
6.30758	7.14339
6.29992	7.16776
6.29227	7.12446
6.28465	7.06054
6.27704	7.06125
6.26945	7.04232
6.26188	6.89347
6.25432	6.83718
6.24679	6.8305
6.23927	6.74995
6.23177	6.68201
6.22429	6.66696
6.21683	6.55579
6.20938	6.47858
6.20195	6.5225
6.19454	6.51814
6.18715	6.40895
6.17978	6.29588
6.17242	6.21481
6.16508	6.19889
6.15776	6.24403
6.15045	6.20018
6.14317	6.16104
6.1359	6.2165
6.12864	6.24351
6.12141	6.16276
6.11419	6.12817
6.10699	6.16377
6.0998	6.17765
6.09263	6.14921
6.08549	6.16473
6.07835	6.293
6.07123	6.37569
6.06413	6.37603
6.05705	6.32957
6.04998	6.21875
6.04293	6.29172
6.0359	6.3856
6.02888	6.42395
6.02187	6.41653
6.01489	6.39849
6.00792	6.47037
6.00096	6.53871
5.99403	6.5732
5.98711	6.68093
5.9802	6.66523
5.97331	6.56153
5.96644	6.46623
5.95958	6.53236
5.95274	6.65303
5.94591	6.6851
5.9391	6.71315
5.9323	6.86269
5.92552	6.9003
5.91876	6.84917
5.91201	6.86111
5.90528	6.94789
5.89856	7.05149
5.89186	7.07224
5.88517	7.02363
5.8785	7.05648
5.87184	7.10151
5.8652	7.13283
5.85857	7.17054
5.85196	7.2684
5.84536	7.31128
5.83878	7.31049
5.83221	7.2663
5.82566	7.21373
5.81912	7.34629
5.81259	7.45572
5.80608	7.49866
5.79959	7.54597
5.79311	7.60608
5.78665	7.61324
5.78019	7.58126
5.77376	7.57615
5.76734	7.53759
5.76093	7.53918
5.75453	7.60488
5.74815	7.61593
5.74179	7.68572
5.73543	7.72578
5.7291	7.76914
5.72277	7.7672
5.71646	7.73026
5.71017	7.73683
5.70389	7.69741
5.69762	7.70954
5.69136	7.78594
5.68513	7.77861
5.6789	7.69577
5.67268	7.60977
5.66648	7.59388
5.6603	7.58934
5.65413	7.54667
5.64797	7.51347
5.64182	7.44348
5.63569	7.39038
5.62957	7.33986
5.62347	7.24758
5.61737	7.13637
5.61129	7.0633
5.60522	7.02278
5.59917	6.99739
5.59313	6.9304
5.5871	6.78181
5.58109	6.70632
5.57509	6.72138
5.5691	6.66903
5.56312	6.63714
5.55716	6.67058
5.55121	6.79157
5.54528	6.95988
5.53935	7.04994
5.53344	7.10808
5.52754	7.20978
5.52166	7.35399
5.51578	7.39078
5.50992	7.35317
5.50407	7.45071
5.49823	7.52531
5.49241	7.52767
5.4866	7.61755
5.4808	7.68004
5.47501	7.66856
5.46923	7.73511
5.46347	7.82049
5.45772	7.8664
5.45198	7.88814
5.44625	7.88233
5.44054	7.90915
5.43484	7.99966
5.42914	7.98833
5.42347	7.9167
5.4178	7.84165
5.41214	7.75962
5.4065	7.72967
5.40087	7.72109
5.39525	7.74333
5.38964	7.80665
5.38404	7.84495
5.37846	7.73605
5.37288	7.67987
5.36732	7.71979
5.36177	7.75757
5.35623	7.69539
5.35071	7.75173
5.34519	7.81528
5.33968	7.73705
5.33419	7.67467
5.32871	7.70457
5.32324	7.75046
5.31778	7.79458
5.31233	7.77692
5.30689	7.80173
5.30147	7.81353
5.29605	7.77094
5.29065	7.71583
5.28525	7.79097
5.27987	7.91811
5.2745	7.93571
5.26914	7.93406
5.26379	7.90798
5.25845	7.94129
5.25312	7.98206
5.24781	8.03795
5.2425	8.11145
5.23721	8.16793
5.23192	8.18288
5.22665	8.18862
5.22138	8.22353
5.21613	8.2631
5.21089	8.36726
5.20566	8.34946
5.20044	8.29067
5.19522	8.30816
5.19002	8.32971
5.18483	8.37144
5.17965	8.33303
5.17448	8.28152
5.16933	8.29551
5.16418	8.319
5.15904	8.30578
5.15391	8.25923
5.14879	8.29142
5.14368	8.31728
5.13859	8.29034
5.1335	8.31277
5.12842	8.30837
5.12335	8.29141
5.1183	8.2163
5.11325	8.25367
5.10821	8.23695
5.10318	8.16543
5.09817	8.19294
5.09316	8.29574
5.08816	8.23817
5.08317	8.12908
5.07819	8.0982
5.07322	8.06556
5.06826	8.02927
5.06331	8.08995
5.05837	8.17947
5.05344	8.18771
5.04852	8.13908
5.04361	8.08021
5.03871	8.1149
5.03382	8.08169
5.02894	8.06402
5.02406	8.04524
5.0192	8.0864
5.01435	8.04038
5.0095	8.00538
5.00467	7.92806
4.99984	7.96242
4.99502	8.11204
4.99021	8.10732
4.98542	8.10545
4.98063	8.12611
4.97585	8.13675
4.97108	8.15957
4.96632	8.22647
4.96156	8.23598
4.95682	8.27698
4.95209	8.29476
4.94736	8.30588
4.94264	8.35308
4.93794	8.39101
4.93324	8.41331
4.92855	8.46819
4.92387	8.44909
4.9192	8.49385
4.91453	8.59709
4.90988	8.70796
4.90524	8.76399
4.9006	8.86693
4.89597	8.92975
4.89135	8.94362
4.88674	9.0277
4.88214	9.13826
4.87755	9.27496
4.87296	9.37429
4.86839	9.46217
4.86382	9.45973
4.85926	9.4585
4.85471	9.49187
4.85017	9.55633
4.84564	9.61909
4.84111	9.69582
4.8366	9.67434
4.83209	9.62672
4.82759	9.66076
4.8231	9.72785
4.81862	9.72676
4.81415	9.70692
4.80968	9.71475
4.80522	9.81493
4.80077	9.86746
4.79633	9.81356
4.7919	9.86401
4.78747	9.86219
4.78306	9.82489
4.77865	9.8265
4.77425	9.89888
4.76986	9.95747
4.76547	9.92871
4.7611	9.99177
4.75673	10.071
4.75237	10.05
4.74802	9.96695
4.74367	9.99845
4.73934	9.99249
4.73501	9.94268
4.73069	9.96689
4.72638	9.96324
4.72207	9.91506
4.71777	9.88095
4.71348	9.82824
4.7092	9.80415
4.70493	9.76833
4.70066	9.76857
4.69641	9.7103
4.69216	9.58698
4.68791	9.52586
4.68368	9.48639
4.67945	9.46623
4.67523	9.5188
4.67102	9.6134
4.66682	9.58438
4.66262	9.58845
4.65843	9.62628
4.65425	9.61022
4.65007	9.6755
4.64591	9.76316
4.64175	9.90421
4.6376	10.0121
4.63345	10.0142
4.62932	9.96186
4.62519	10.0554
4.62106	10.1374
4.61695	10.1132
4.61284	10.1259
4.60874	10.2159
4.60465	10.272
4.60056	10.1962
4.59648	10.1982
4.59241	10.1614
4.58835	10.1209
4.58429	10.2112
4.58024	10.2388
4.5762	10.1971
4.57216	10.2301
4.56814	10.2461
4.56411	10.2346
4.5601	10.2434
4.55609	10.1911
4.55209	10.214
4.5481	10.3107
4.54411	10.3246
4.54013	10.3116
4.53616	10.2459
4.5322	10.1886
4.52824	10.1185
4.52429	10.0835
4.52034	10.1333
4.51641	10.1155
4.51247	9.98056
4.50855	9.87217
4.50463	9.82485
4.50072	9.90198
4.49682	9.9629
4.49292	9.9543
4.48903	9.85083
4.48515	9.72668
4.48127	9.72616
4.4774	9.76175
4.47354	9.80546
4.46968	9.85091
4.46584	9.89001
4.46199	9.89858
4.45815	9.84482
4.45432	9.83698
4.4505	9.86831
4.44668	9.94585
4.44287	9.96924
4.43907	9.9805
4.43527	10.027
4.43148	10.1212
4.4277	10.1484
4.42392	10.1474
4.42015	10.1602
4.41638	10.1392
4.41262	10.1333
4.40887	10.2146
4.40513	10.2627
4.40139	10.2394
4.39765	10.2932
4.39393	10.3334
4.39021	10.3306
4.38649	10.2983
4.38278	10.3562
4.37908	10.4471
4.37539	10.4166
4.3717	10.381
4.36801	10.4661
4.36434	10.5736
4.36067	10.6002
4.357	10.6127
4.35335	10.5832
4.34969	10.6275
4.34605	10.6608
4.34241	10.5794
4.33877	10.5306
4.33514	10.6015
4.33152	10.6214
4.32791	10.6502
4.3243	10.6614
4.32069	10.6562
4.3171	10.6424
4.31351	10.6349
4.30992	10.6199
4.30634	10.6592
4.30277	10.617
4.2992	10.5924
4.29564	10.6517
4.29208	10.5859
4.28853	10.4836
4.28499	10.4722
4.28145	10.5797
4.27792	10.5824
4.27439	10.5212
4.27087	10.5237
4.26735	10.5473
4.26384	10.5114
4.26034	10.4899
4.25684	10.5335
4.25335	10.5948
4.24986	10.6989
4.24638	10.7433
4.24291	10.6939
4.23944	10.6655
4.23598	10.6404
4.23252	10.704
4.22906	10.8037
4.22562	10.6856
4.22218	10.5875
4.21874	10.6004
4.21531	10.6394
4.21189	10.6435
4.20847	10.62
4.20506	10.5737
4.20165	10.6052
4.19825	10.6395
4.19485	10.5887
4.19146	10.6315
4.18807	10.6426
4.18469	10.6203
4.18132	10.6795
4.17795	10.7283
4.17458	10.6914
4.17123	10.7079
4.16787	10.755
4.16453	10.6615
4.16118	10.5876
4.15785	10.6375
4.15451	10.5811
4.15119	10.4915
4.14787	10.5115
4.14455	10.6177
4.14124	10.6316
4.13794	10.5737
4.13464	10.5523
4.13134	10.5681
4.12805	10.6429
4.12477	10.6149
4.12149	10.548
4.11822	10.4942
4.11495	10.5141
4.11168	10.513
4.10843	10.5262
4.10517	10.5644
4.10192	10.6081
4.09868	10.5486
4.09545	10.5199
4.09221	10.5762
4.08899	10.5711
4.08576	10.481
4.08255	10.3971
4.07933	10.4112
4.07613	10.384
4.07292	10.3776
4.06973	10.3085
4.06654	10.3007
4.06335	10.3297
4.06017	10.3072
4.05699	10.2531
4.05382	10.218
4.05065	10.1751
4.04749	10.0741
4.04433	10.0218
4.04118	9.93929
4.03803	9.88768
4.03489	9.91892
4.03175	9.94615
4.02862	9.84743
4.02549	9.78161
4.02237	9.77898
4.01925	9.7563
4.01614	9.69764
4.01303	9.55984
4.00993	9.49353
4.00683	9.43977
4.00373	9.4028
4.00064	9.34409
3.99756	9.3176
3.99448	9.43158
3.9914	9.47463
3.98833	9.36743
3.98527	9.32991
3.98221	9.28904
3.97915	9.20169
3.9761	9.22573
3.97305	9.30555
3.97001	9.37297
3.96697	9.32488
3.96394	9.29104
3.96091	9.40375
3.95789	9.44108
3.95487	9.38219
3.95186	9.34848
3.94885	9.38656
3.94584	9.48908
3.94284	9.60347
3.93984	9.63333
3.93685	9.65318
3.93386	9.65392
3.93088	9.52584
3.9279	9.49845
3.92493	9.61921
3.92196	9.65745
3.919	9.73807
3.91604	9.73759
3.91308	9.65565
3.91013	9.62795
3.90718	9.66661
3.90424	9.66133
3.9013	9.63311
3.89837	9.63833
3.89544	9.7077
3.89252	9.70059
3.8896	9.72917
3.88668	9.67948
3.88377	9.67261
3.88086	9.81344
3.87796	9.80926
3.87506	9.70215
3.87217	9.75785
3.86928	9.79401
3.86639	9.7208
3.86351	9.68469
3.86064	9.67606
3.85776	9.68205
3.8549	9.69326
3.85203	9.71788
3.84917	9.71225
3.84631	9.69661
3.84346	9.71731
3.84062	9.77481
3.83777	9.77425
3.83494	9.7747
3.8321	9.83335
3.82927	9.84633
3.82644	9.83377
3.82362	9.82493
3.82081	9.8507
3.81799	9.91711
3.81518	9.93024
3.81238	9.89199
3.80958	10.0149
3.80678	10.0504
3.80399	10.083
3.8012	10.1986
3.79841	10.1785
3.79563	10.1802
3.79286	10.2615
3.79008	10.352
3.78731	10.3461
3.78455	10.3441
3.78179	10.4242
3.77903	10.4339
3.77628	10.3791
3.77353	10.4732
3.77079	10.5138
3.76805	10.4559
3.76531	10.489
3.76258	10.5221
3.75985	10.5004
3.75713	10.5079
3.7544	10.5084
3.75169	10.5676
3.74898	10.5063
3.74627	10.4433
3.74356	10.5043
3.74086	10.4981
3.73816	10.4214
3.73547	10.53
3.73278	10.635
3.7301	10.6178
3.72741	10.5452
3.72474	10.4609
3.72206	10.4465
3.71939	10.5002
3.71673	10.5933
3.71406	10.5465
3.71141	10.51
3.70875	10.4824
3.7061	10.5482
3.70345	10.5948
3.70081	10.5384
3.69817	10.4823
3.69553	10.4445
3.6929	10.5149
3.69027	10.5674
3.68765	10.4344
3.68503	10.4311
3.68241	10.5039
3.6798	10.4499
3.67719	10.4219
3.67458	10.5043
3.67198	10.5634
3.66938	10.5141
3.66678	10.3962
3.66419	10.3777
3.66161	10.4217
3.65902	10.4869
3.65644	10.5756
3.65387	10.5244
3.65129	10.4403
3.64872	10.4588
3.64616	10.462
3.64359	10.447
3.64103	10.51
3.63848	10.6226
3.63593	10.518
3.63338	10.4002
3.63084	10.3879
3.6283	10.4031
3.62576	10.3807
3.62322	10.3696
3.62069	10.3457
3.61817	10.3207
3.61564	10.3623
3.61312	10.3897
3.61061	10.3513
3.6081	10.3313
3.60559	10.3006
3.60308	10.2547
3.60058	10.2964
3.59808	10.3642
3.59558	10.2713
3.59309	10.2315
3.59061	10.2156
3.58812	10.202
3.58564	10.2005
3.58316	10.1326
3.58069	10.1557
3.57822	10.0881
3.57575	10.0634
3.57328	10.1417
3.57082	10.1167
3.56836	10.0353
3.56591	10.0088
3.56346	10.0409
3.56101	9.97412
3.55857	9.96438
3.55613	10.0124
3.55369	9.93693
3.55126	9.90516
3.54883	9.89046
3.5464	9.79584
3.54397	9.79604
3.54155	9.80404
3.53914	9.73436
3.53672	9.62985
3.53431	9.62071
3.5319	9.59433
3.5295	9.51924
3.5271	9.50242
3.5247	9.52032
3.52231	9.52603
3.51991	9.4049
3.51753	9.31158
3.51514	9.23665
3.51276	9.18915
3.51038	9.24192
3.50801	9.27524
3.50563	9.22617
3.50327	9.15108
3.5009	9.14957
3.49854	9.11226
3.49618	9.04197
3.49382	8.99639
3.49147	8.99299
3.48912	8.96633
3.48677	9.00898
3.48443	9.00196
3.48209	9.03359
3.47975	9.09831
3.47742	9.06622
3.47509	8.96908
3.47276	8.92733
3.47044	8.99973
3.46812	9.09459
3.4658	9.02181
3.46348	9.04958
3.46117	9.16765
