Name: Scorodite Fe^3+AsO_4.2H_2O
Type: Mineral
Class: Arsenates
Subclass: 
Particle Size: 125-500um
Sample No.: A-2A
Owner: JPL
Wavelength range: IR
Origin: USA, Utah, Tooele County, Gold Hill
Collected by Ward's
Description: 





Measurement: Hemispherical reflectance
First Column: X
Second Column: Y
X Units:  Wavelength (micrometers)
Y Units:  Reflectance (percent)
First X Value: 15.3853
Last X Value: 2.00032
Number of X Values: 2256
Additional information: a02aa.txt
 
15.3853	3.18983
15.3397	3.28097
15.2945	2.93863
15.2495	2.82971
15.2048	2.98144
15.1603	3.21306
15.1161	3.43215
15.0722	3.51056
15.0285	3.47294
14.9851	3.5829
14.9419	3.62091
14.8989	3.61658
14.8563	3.42217
14.8138	3.39801
14.7716	3.56304
14.7296	3.83076
14.6879	4.06687
14.6464	4.24676
14.6052	4.37049
14.5641	4.26883
14.5233	4.36626
14.4828	4.47779
14.4424	4.42135
14.4023	4.44401
14.3624	4.66206
14.3227	4.79689
14.2833	4.69444
14.244	4.72632
14.205	4.73639
14.1662	4.64104
14.1276	4.92149
14.0892	5.07961
14.051	5.0018
14.0131	5.16392
13.9753	5.21047
13.9377	5.239
13.9004	5.27185
13.8632	5.31252
13.8262	5.3651
13.7895	5.33507
13.7529	5.34439
13.7165	5.34935
13.6803	5.32218
13.6443	5.51119
13.6085	5.6898
13.5729	5.60578
13.5374	5.36551
13.5022	5.19456
13.4671	5.27384
13.4322	5.50883
13.3975	5.71356
13.363	5.73675
13.3286	5.77689
13.2944	5.92664
13.2604	6.02523
13.2266	6.13384
13.193	6.45317
13.1595	6.58339
13.1262	6.6734
13.093	6.93339
13.06	7.28767
13.0272	7.51164
12.9946	7.76407
12.9621	8.10796
12.9298	8.47565
12.8976	8.86145
12.8656	9.21558
12.8337	9.61207
12.8021	10.0579
12.7705	10.6254
12.7391	11.1568
12.7079	11.7216
12.6769	12.3911
12.6459	13.2585
12.6152	14.3259
12.5845	15.5129
12.5541	16.8444
12.5238	18.0856
12.4936	19.2094
12.4635	20.1097
12.4337	21.0106
12.4039	21.7068
12.3743	21.99
12.3448	22.2624
12.3155	22.3513
12.2863	22.197
12.2573	22.1763
12.2284	22.3826
12.1996	22.8204
12.171	23.5415
12.1425	24.3173
12.1141	24.9036
12.0859	25.2822
12.0578	25.5579
12.0298	25.5119
12.0019	25.3152
11.9742	25.0696
11.9466	24.7045
11.9192	24.2305
11.8918	23.736
11.8646	23.2964
11.8375	22.9067
11.8106	22.3665
11.7837	21.9446
11.757	21.6474
11.7304	21.3511
11.7039	20.9714
11.6776	20.5479
11.6513	20.096
11.6252	19.5089
11.5992	18.9997
11.5733	18.3211
11.5475	17.4003
11.5219	16.5118
11.4963	15.6073
11.4709	14.7705
11.4455	13.923
11.4203	13.081
11.3952	12.3571
11.3702	11.6742
11.3454	10.8611
11.3206	10.0847
11.2959	9.49288
11.2714	8.94744
11.2469	8.43198
11.2226	7.95961
11.1983	7.50846
11.1742	7.09101
11.1502	6.75153
11.1263	6.61505
11.1024	6.59684
11.0787	6.35148
11.0551	6.0991
11.0316	6.1203
11.0081	6.10982
10.9848	6.02787
10.9616	5.98902
10.9385	5.8908
10.9154	5.74111
10.8925	5.39743
10.8697	5.09043
10.8469	4.81767
10.8243	4.4507
10.8017	4.12705
10.7793	3.83132
10.7569	3.54743
10.7346	3.2797
10.7125	2.97806
10.6904	2.62703
10.6684	2.22905
10.6465	1.93647
10.6247	1.71559
10.6029	1.45593
10.5813	1.18543
10.5597	0.97248
10.5383	0.791986
10.5169	0.740941
10.4956	0.840543
10.4744	0.802241
10.4533	0.592669
10.4323	0.566608
10.4113	0.514278
10.3904	0.395647
10.3697	0.405952
10.349	0.403738
10.3284	0.342703
10.3078	0.415422
10.2874	0.382837
10.267	0.302557
10.2467	0.374567
10.2265	0.435718
10.2064	0.554981
10.1863	0.639506
10.1663	0.580199
10.1464	0.601552
10.1266	0.551284
10.1069	0.421959
10.0872	0.483067
10.0676	0.563782
10.0481	0.603002
10.0287	0.619486
10.0093	0.717966
9.99005	0.741919
9.97084	0.614823
9.95169	0.61563
9.93263	0.711715
9.91364	0.749008
9.89472	0.711032
9.87587	0.732974
9.8571	0.808156
9.83839	0.851476
9.81976	0.822606
9.80119	0.845408
9.78271	0.848758
9.76428	0.824119
9.74592	0.875222
9.72764	0.846727
9.70943	0.752723
9.69128	0.804291
9.6732	0.963843
9.65518	1.10819
9.63724	1.09287
9.61935	1.02389
9.60155	1.0317
9.5838	1.09122
9.56611	1.10178
9.5485	1.14157
9.53094	1.13637
9.51345	1.18209
9.49604	1.28495
9.47867	1.22418
9.46137	1.27722
9.44414	1.30412
9.42697	1.31783
9.40986	1.43106
9.39281	1.61133
9.37583	1.62597
9.35891	1.58793
9.34204	1.61571
9.32524	1.61324
9.3085	1.66443
9.29182	1.69919
9.27519	1.80365
9.25863	1.90291
9.24213	1.93553
9.22568	1.80048
9.2093	1.72222
9.19297	1.82978
9.17669	1.83794
9.16048	1.90243
9.14433	1.92051
9.12823	1.86399
9.11218	1.96964
9.0962	1.90205
9.08027	1.78501
9.06439	1.79526
9.04858	2.00133
9.03281	2.10276
9.0171	1.92377
9.00145	1.84616
8.98585	1.86442
8.9703	1.96627
8.9548	2.02953
8.93937	1.90837
8.92398	1.88531
8.90865	1.95351
8.89337	1.92988
8.87814	1.91561
8.86296	1.93832
8.84784	1.89614
8.83277	1.79448
8.81774	1.67667
8.80277	1.71193
8.78786	1.85757
8.77298	1.87926
8.75816	1.97972
8.7434	2.01475
8.72868	1.83834
8.714	1.80089
8.69938	1.97497
8.68481	2.02127
8.67029	2.02994
8.65581	1.95206
8.64139	1.92964
8.62701	1.77746
8.61268	1.70854
8.5984	1.68946
8.58416	1.75514
8.56997	1.92128
8.55583	2.09739
8.54174	2.11043
8.52769	2.11819
8.51368	2.06946
8.49973	2.10191
8.48582	2.10055
8.47195	2.01343
8.45813	1.94194
8.44436	1.98374
8.43062	2.10972
8.41693	2.22805
8.4033	2.11769
8.3897	2.10824
8.37614	2.25219
8.36264	2.27402
8.34917	2.20003
8.33574	2.23581
8.32236	2.31158
8.30903	2.25742
8.29573	2.12756
8.28248	2.05639
8.26927	1.97428
8.2561	2.03989
8.24298	2.27721
8.2299	2.33616
8.21685	2.37245
8.20385	2.4255
8.19089	2.31613
8.17797	2.18546
8.16509	2.07806
8.15225	2.0987
8.13946	2.13778
8.1267	2.2249
8.11398	2.22065
8.10131	2.22456
8.08867	2.10715
8.07606	1.94311
8.0635	1.94951
8.05099	1.98746
8.0385	1.97039
8.02606	1.92705
8.01366	2.0176
8.00129	2.06197
7.98896	1.93061
7.97667	1.81458
7.96442	1.84566
7.9522	1.93614
7.94002	1.86362
7.92788	1.73315
7.91578	1.72593
7.90371	1.82249
7.89168	1.81414
7.87969	1.85757
7.86773	1.92414
7.85581	1.8953
7.84392	1.85868
7.83207	1.79329
7.82026	1.78762
7.80849	1.86245
7.79674	1.89098
7.78503	1.87472
7.77337	1.84465
7.76173	1.80548
7.75012	1.79603
7.73856	1.83047
7.72703	1.83899
7.71553	1.85892
7.70406	1.87011
7.69263	1.86489
7.68123	1.81594
7.66987	1.83161
7.65855	1.95715
7.64725	1.97286
7.63598	1.91082
7.62475	1.93493
7.61356	1.89617
7.60239	1.86607
7.59126	1.82588
7.58017	1.7969
7.5691	1.82929
7.55806	1.89667
7.54707	1.89261
7.5361	1.83207
7.52516	1.82656
7.51425	1.88788
7.50338	1.9284
7.49253	1.81335
7.48172	1.80375
7.47094	1.96111
7.46019	2.07148
7.44947	2.16795
7.43879	2.12259
7.42813	1.96574
7.4175	1.88964
7.4069	1.92309
7.39634	1.93399
7.3858	1.93495
7.37529	1.92184
7.36482	1.93426
7.35437	1.96099
7.34396	1.97166
7.33357	1.9209
7.32321	1.95348
7.31288	1.9951
7.30258	2.02915
7.29231	2.05528
7.28207	1.98851
7.27185	1.95772
7.26167	1.96277
7.25152	1.95332
7.24139	2.03324
7.23129	2.09837
7.22122	2.06078
7.21117	2.00381
7.20116	2.00299
7.19117	2.02442
7.18121	2.04247
7.17128	2.08497
7.16137	2.06238
7.1515	2.06168
7.14164	2.07439
7.13182	2.0632
7.12203	2.06252
7.11225	2.08153
7.10251	2.14134
7.0928	2.22585
7.08311	2.17633
7.07344	2.0906
7.06381	2.09711
7.0542	2.1583
7.04461	2.15962
7.03506	2.05161
7.02552	2.01522
7.01601	2.06653
7.00653	2.08268
6.99708	2.04224
6.98765	1.98267
6.97824	2.05422
6.96886	2.14227
6.95951	2.13364
6.95018	2.09115
6.94087	2.04919
6.9316	2.07484
6.92234	2.10501
6.91311	2.13864
6.90391	2.11089
6.89473	2.09384
6.88557	2.1706
6.87644	2.20899
6.86733	2.20979
6.85824	2.19056
6.84918	2.06358
6.84015	2.00618
6.83114	2.04725
6.82215	2.01112
6.81319	2.00549
6.80424	2.11051
6.79532	2.14329
6.78643	2.15532
6.77756	2.1918
6.76871	2.07612
6.75989	2.00846
6.75109	2.01145
6.74231	2.01262
6.73355	2.0591
6.72482	2.09138
6.71611	2.05198
6.70742	2.0574
6.69875	2.11958
6.69011	2.15064
6.68149	2.11637
6.67289	2.06132
6.66431	2.01627
6.65576	1.97678
6.64722	2.08371
6.63871	2.17657
6.63022	2.14477
6.62175	2.10185
6.61331	2.1095
6.60488	2.10563
6.59648	2.08515
6.5881	2.17794
6.57974	2.21737
6.5714	2.13578
6.56308	2.08064
6.55478	2.09329
6.54651	2.18762
6.53825	2.15423
6.53001	2.10955
6.5218	2.17871
6.51361	2.18294
6.50544	2.19635
6.49729	2.25636
6.48915	2.23634
6.48104	2.19742
6.47295	2.08586
6.46488	2.11466
6.45683	2.19513
6.4488	2.13761
6.44079	2.16276
6.4328	2.19136
6.42482	2.20329
6.41687	2.31688
6.40894	2.26791
6.40103	2.15872
6.39314	2.17919
6.38526	2.1551
6.37741	2.13407
6.36957	2.16148
6.36176	2.16048
6.35396	2.12887
6.34618	2.10572
6.33843	2.14476
6.33069	2.19029
6.32297	2.16658
6.31527	2.10736
6.30758	2.10633
6.29992	2.07395
6.29227	2.05445
6.28465	2.06561
6.27704	2.02324
6.26945	1.9503
6.26188	1.91892
6.25432	1.98712
6.24679	2.08396
6.23927	2.05797
6.23177	2.04663
6.22429	2.07335
6.21683	2.07927
6.20938	2.02037
6.20195	1.9708
6.19454	1.96461
6.18715	2.01373
6.17978	2.07222
6.17242	2.01969
6.16508	2.02992
6.15776	2.10428
6.15045	2.0429
6.14317	1.98405
6.1359	2.02237
6.12864	2.01132
6.12141	1.97358
6.11419	2.05698
6.10699	2.06202
6.0998	2.03643
6.09263	2.04774
6.08549	2.05834
6.07835	2.15462
6.07123	2.14797
6.06413	2.05866
6.05705	2.0699
6.04998	2.06617
6.04293	2.16359
6.0359	2.16561
6.02888	2.09758
6.02187	2.07313
6.01489	2.08907
6.00792	2.09048
6.00096	2.07578
5.99403	2.1026
5.98711	2.16853
5.9802	2.11904
5.97331	2.10236
5.96644	2.16339
5.95958	2.12427
5.95274	2.03054
5.94591	1.97787
5.9391	2.08568
5.9323	2.21436
5.92552	2.16482
5.91876	2.15025
5.91201	2.189
5.90528	2.23511
5.89856	2.25305
5.89186	2.19052
5.88517	2.21915
5.8785	2.21225
5.87184	2.10691
5.8652	2.0994
5.85857	2.19515
5.85196	2.25636
5.84536	2.22192
5.83878	2.19345
5.83221	2.21806
5.82566	2.27719
5.81912	2.23543
5.81259	2.1135
5.80608	2.14999
5.79959	2.21607
5.79311	2.2228
5.78665	2.19986
5.78019	2.14226
5.77376	2.17982
5.76734	2.29258
5.76093	2.27673
5.75453	2.21816
5.74815	2.22275
5.74179	2.20471
5.73543	2.13311
5.7291	2.16222
5.72277	2.24124
5.71646	2.24715
5.71017	2.19608
5.70389	2.23911
5.69762	2.30684
5.69136	2.31582
5.68513	2.17147
5.6789	2.16248
5.67268	2.21047
5.66648	2.19989
5.6603	2.17718
5.65413	2.19636
5.64797	2.18934
5.64182	2.26434
5.63569	2.30988
5.62957	2.30549
5.62347	2.29665
5.61737	2.31933
5.61129	2.30772
5.60522	2.32057
5.59917	2.30983
5.59313	2.28584
5.5871	2.33776
5.58109	2.43457
5.57509	2.40067
5.5691	2.32024
5.56312	2.32033
5.55716	2.36414
5.55121	2.35444
5.54528	2.34122
5.53935	2.321
5.53344	2.36533
5.52754	2.42779
5.52166	2.38914
5.51578	2.32956
5.50992	2.34611
5.50407	2.36748
5.49823	2.41173
5.49241	2.39251
5.4866	2.34589
5.4808	2.38814
5.47501	2.42185
5.46923	2.42044
5.46347	2.39937
5.45772	2.42253
5.45198	2.47863
5.44625	2.49832
5.44054	2.41163
5.43484	2.39157
5.42914	2.38272
5.42347	2.43801
5.4178	2.48396
5.41214	2.45964
5.4065	2.45993
5.40087	2.52555
5.39525	2.54952
5.38964	2.47728
5.38404	2.45728
5.37846	2.43256
5.37288	2.3822
5.36732	2.39224
5.36177	2.44257
5.35623	2.48153
5.35071	2.51086
5.34519	2.42716
5.33968	2.42721
5.33419	2.44648
5.32871	2.5125
5.32324	2.5733
5.31778	2.54248
5.31233	2.52507
5.30689	2.46993
5.30147	2.47768
5.29605	2.51094
5.29065	2.55995
5.28525	2.62223
5.27987	2.56593
5.2745	2.49492
5.26914	2.46341
5.26379	2.48642
5.25845	2.51554
5.25312	2.54116
5.24781	2.55414
5.2425	2.50572
5.23721	2.47
5.23192	2.51112
5.22665	2.58807
5.22138	2.65522
5.21613	2.62518
5.21089	2.56418
5.20566	2.51403
5.20044	2.47037
5.19522	2.54697
5.19002	2.606
5.18483	2.64279
5.17965	2.56614
5.17448	2.51548
5.16933	2.47555
5.16418	2.42638
5.15904	2.49942
5.15391	2.52312
5.14879	2.55758
5.14368	2.62932
5.13859	2.62923
5.1335	2.48093
5.12842	2.46388
5.12335	2.49116
5.1183	2.51502
5.11325	2.53197
5.10821	2.5746
5.10318	2.61806
5.09817	2.64842
5.09316	2.66143
5.08816	2.59154
5.08317	2.52883
5.07819	2.5114
5.07322	2.52771
5.06826	2.52583
5.06331	2.50367
5.05837	2.51005
5.05344	2.49635
5.04852	2.47041
5.04361	2.55073
5.03871	2.61242
5.03382	2.58036
5.02894	2.55296
5.02406	2.57567
5.0192	2.53515
5.01435	2.46826
5.0095	2.50416
5.00467	2.50173
4.99984	2.50957
4.99502	2.50125
4.99021	2.49424
4.98542	2.5603
4.98063	2.57445
4.97585	2.56434
4.97108	2.55022
4.96632	2.49534
4.96156	2.50482
4.95682	2.53444
4.95209	2.53488
4.94736	2.59853
4.94264	2.62429
4.93794	2.60862
4.93324	2.61715
4.92855	2.58065
4.92387	2.50969
4.9192	2.51421
4.91453	2.52087
4.90988	2.45165
4.90524	2.42972
4.9006	2.43569
4.89597	2.48178
4.89135	2.517
4.88674	2.49134
4.88214	2.54421
4.87755	2.60174
4.87296	2.56838
4.86839	2.58396
4.86382	2.5664
4.85926	2.65571
4.85471	2.6859
4.85017	2.57019
4.84564	2.57714
4.84111	2.53775
4.8366	2.49933
4.83209	2.61377
4.82759	2.64365
4.8231	2.595
4.81862	2.6075
4.81415	2.59543
4.80968	2.54856
4.80522	2.54678
4.80077	2.56069
4.79633	2.59965
4.7919	2.57895
4.78747	2.52396
4.78306	2.52017
4.77865	2.59995
4.77425	2.6813
4.76986	2.59213
4.76547	2.51712
4.7611	2.49672
4.75673	2.50392
4.75237	2.59443
4.74802	2.61857
4.74367	2.63228
4.73934	2.61516
4.73501	2.58115
4.73069	2.60355
4.72638	2.68235
4.72207	2.6895
4.71777	2.59249
4.71348	2.55666
4.7092	2.57361
4.70493	2.58356
4.70066	2.54972
4.69641	2.56717
4.69216	2.58487
4.68791	2.59399
4.68368	2.57163
4.67945	2.51785
4.67523	2.52542
4.67102	2.56631
4.66682	2.60895
4.66262	2.70115
4.65843	2.66712
4.65425	2.54244
4.65007	2.48785
4.64591	2.53726
4.64175	2.56125
4.6376	2.58712
4.63345	2.61997
4.62932	2.60463
4.62519	2.7014
4.62106	2.74224
4.61695	2.66107
4.61284	2.6524
4.60874	2.62584
4.60465	2.58812
4.60056	2.56593
4.59648	2.58996
4.59241	2.60415
4.58835	2.54945
4.58429	2.48354
4.58024	2.44904
4.5762	2.48197
4.57216	2.57723
4.56814	2.58565
4.56411	2.53949
4.5601	2.53626
4.55609	2.56959
4.55209	2.60753
4.5481	2.56573
4.54411	2.56797
4.54013	2.55433
4.53616	2.51775
4.5322	2.61223
4.52824	2.6616
4.52429	2.60075
4.52034	2.54147
4.51641	2.52125
4.51247	2.54207
4.50855	2.51873
4.50463	2.52409
4.50072	2.54456
4.49682	2.60038
4.49292	2.65608
4.48903	2.60523
4.48515	2.60913
4.48127	2.54972
4.4774	2.52995
4.47354	2.53712
4.46968	2.51178
4.46584	2.51576
4.46199	2.52733
4.45815	2.49806
4.45432	2.498
4.4505	2.62544
4.44668	2.6714
4.44287	2.61608
4.43907	2.62804
4.43527	2.65355
4.43148	2.64483
4.4277	2.59689
4.42392	2.58132
4.42015	2.58961
4.41638	2.62406
4.41262	2.61536
4.40887	2.57567
4.40513	2.49544
4.40139	2.47738
4.39765	2.52958
4.39393	2.50466
4.39021	2.51422
4.38649	2.60652
4.38278	2.65253
4.37908	2.60645
4.37539	2.6214
4.3717	2.62685
4.36801	2.61107
4.36434	2.60296
4.36067	2.59777
4.357	2.61409
4.35335	2.60365
4.34969	2.5589
4.34605	2.55968
4.34241	2.54678
4.33877	2.55977
4.33514	2.60436
4.33152	2.5968
4.32791	2.63594
4.3243	2.70132
4.32069	2.67231
4.3171	2.6292
4.31351	2.67556
4.30992	2.69631
4.30634	2.68051
4.30277	2.672
4.2992	2.69696
4.29564	2.72532
4.29208	2.66741
4.28853	2.58205
4.28499	2.56072
4.28145	2.6196
4.27792	2.65326
4.27439	2.61105
4.27087	2.6597
4.26735	2.76644
4.26384	2.6656
4.26034	2.63264
4.25684	2.70215
4.25335	2.72807
4.24986	2.69752
4.24638	2.7157
4.24291	2.78019
4.23944	2.71184
4.23598	2.6949
4.23252	2.76445
4.22906	2.66064
4.22562	2.66152
4.22218	2.72193
4.21874	2.74835
4.21531	2.72902
4.21189	2.64539
4.20847	2.63424
4.20506	2.74762
4.20165	2.79312
4.19825	2.72845
4.19485	2.6653
4.19146	2.62298
4.18807	2.64134
4.18469	2.69565
4.18132	2.71889
4.17795	2.67288
4.17458	2.69998
4.17123	2.6596
4.16787	2.62405
4.16453	2.59898
4.16118	2.63482
4.15785	2.69287
4.15451	2.60759
4.15119	2.62133
4.14787	2.68928
4.14455	2.63098
4.14124	2.60007
4.13794	2.61405
4.13464	2.71286
4.13134	2.72111
4.12805	2.63046
4.12477	2.66031
4.12149	2.70589
4.11822	2.61107
4.11495	2.61595
4.11168	2.71112
4.10843	2.77565
4.10517	2.75
4.10192	2.70354
4.09868	2.70922
4.09545	2.67185
4.09221	2.62938
4.08899	2.70011
4.08576	2.71137
4.08255	2.71832
4.07933	2.82624
4.07613	2.82403
4.07292	2.73225
4.06973	2.66993
4.06654	2.62583
4.06335	2.65588
4.06017	2.66889
4.05699	2.64508
4.05382	2.69021
4.05065	2.68724
4.04749	2.71164
4.04433	2.72163
4.04118	2.67949
4.03803	2.66749
4.03489	2.7423
4.03175	2.82581
4.02862	2.80032
4.02549	2.76587
4.02237	2.72554
4.01925	2.61813
4.01614	2.65473
4.01303	2.71765
4.00993	2.69841
4.00683	2.68003
4.00373	2.71702
4.00064	2.66873
3.99756	2.55715
3.99448	2.62458
3.9914	2.79679
3.98833	2.79544
3.98527	2.76568
3.98221	2.78857
3.97915	2.78845
3.9761	2.75809
3.97305	2.69638
3.97001	2.71548
3.96697	2.71242
3.96394	2.69723
3.96091	2.76873
3.95789	2.7496
3.95487	2.71093
3.95186	2.72254
3.94885	2.76034
3.94584	2.7267
3.94284	2.69702
3.93984	2.66908
3.93685	2.7181
3.93386	2.84355
3.93088	2.75624
3.9279	2.62148
3.92493	2.64761
3.92196	2.68317
3.919	2.71595
3.91604	2.7494
3.91308	2.81644
3.91013	2.84905
3.90718	2.86425
3.90424	2.73494
3.9013	2.71743
3.89837	2.70576
3.89544	2.63362
3.89252	2.65529
3.8896	2.60578
3.88668	2.64777
3.88377	2.76784
3.88086	2.81221
3.87796	2.7661
3.87506	2.72247
3.87217	2.70555
3.86928	2.76144
3.86639	2.69589
3.86351	2.6584
3.86064	2.72261
3.85776	2.75309
3.8549	2.72844
3.85203	2.69474
3.84917	2.73819
3.84631	2.88163
3.84346	2.91374
3.84062	2.88154
3.83777	2.82107
3.83494	2.72618
3.8321	2.73786
3.82927	2.66793
3.82644	2.58399
3.82362	2.64323
3.82081	2.66902
3.81799	2.68618
3.81518	2.75529
3.81238	2.83041
3.80958	2.80277
3.80678	2.73401
3.80399	2.74825
3.8012	2.83754
3.79841	2.77409
3.79563	2.67416
3.79286	2.65697
3.79008	2.73871
3.78731	2.83642
3.78455	2.835
3.78179	2.79124
3.77903	2.75323
3.77628	2.81033
3.77353	2.80351
3.77079	2.72091
3.76805	2.7069
3.76531	2.6906
3.76258	2.72483
3.75985	2.73373
3.75713	2.69245
3.7544	2.76278
3.75169	2.80952
3.74898	2.85181
3.74627	2.86345
3.74356	2.83243
3.74086	2.81584
3.73816	2.80683
3.73547	2.70908
3.73278	2.66047
3.7301	2.73082
3.72741	2.7726
3.72474	2.87018
3.72206	2.87351
3.71939	2.78762
3.71673	2.81036
3.71406	2.79047
3.71141	2.78301
3.70875	2.84142
3.7061	2.92483
3.70345	2.90266
3.70081	2.84787
3.69817	2.80944
3.69553	2.77974
3.6929	2.74458
3.69027	2.79341
3.68765	2.85248
3.68503	2.85597
3.68241	2.87852
3.6798	2.88645
3.67719	2.79889
3.67458	2.70554
3.67198	2.73418
3.66938	2.77793
3.66678	2.79334
3.66419	2.83262
3.66161	2.82262
3.65902	2.76669
3.65644	2.75113
3.65387	2.8216
3.65129	2.77425
3.64872	2.74692
3.64616	2.76849
3.64359	2.74377
3.64103	2.79077
3.63848	2.88552
3.63593	2.9035
3.63338	2.88063
3.63084	2.83513
3.6283	2.81913
3.62576	2.77972
3.62322	2.83307
3.62069	2.9438
3.61817	2.85777
3.61564	2.76608
3.61312	2.74117
3.61061	2.68226
3.6081	2.7371
3.60559	2.78175
3.60308	2.78543
3.60058	2.75907
3.59808	2.7524
3.59558	2.82559
3.59309	2.8852
3.59061	2.86351
3.58812	2.90165
3.58564	2.84181
3.58316	2.72608
3.58069	2.77477
3.57822	2.83206
3.57575	2.7674
3.57328	2.77436
3.57082	2.86402
3.56836	2.88265
3.56591	2.80356
3.56346	2.79802
3.56101	2.84271
3.55857	2.78815
3.55613	2.79913
3.55369	2.88935
3.55126	2.89504
3.54883	2.90444
3.5464	2.87994
3.54397	2.90677
3.54155	2.91289
3.53914	2.7516
3.53672	2.68836
3.53431	2.75405
3.5319	2.87279
3.5295	2.95198
3.5271	2.90132
3.5247	2.84559
3.52231	2.88703
3.51991	2.87076
3.51753	2.84866
3.51514	2.91784
3.51276	2.89689
3.51038	2.93912
3.50801	3.00735
3.50563	2.98284
3.50327	2.93799
3.5009	2.86097
3.49854	2.86673
3.49618	2.98451
3.49382	2.96815
3.49147	2.93219
3.48912	2.93891
3.48677	2.88846
3.48443	2.81227
3.48209	2.76258
3.47975	2.83674
3.47742	2.96976
3.47509	2.91192
3.47276	2.90151
