Name: Andesite Breccia
Type: Rock
Class: Igneous
Subclass:  Intermediate 
Particle Size: Solid surface
Sample No.: Ward28.txt
Owner: JPL
Wavelength range:  IR  
Origin: Ward's Collection of American Rocks.  Sample locality - Ouray, ouray County, Colorado.
Collected by:  Ward's Natural Science
Description: A compact rock with angular fragments of varicolored green
and purple extrusive material embedded in a variegated gray-green to
purple groundmass.
Geologic age - Tertiary (Eocene).


Measurement: Hemispherical reflectance
First Column: X
Second Column: Y
X Units: Wavelength (micrometers)
Y Units: Reflectance (percent)
First X Value: 15.3871
Last X Value: 1.9998
Number of X Values: 2257
Additional information: None

15.3871   2.78815
15.3416   2.88200
15.2964   2.86443
15.2514   2.86914
15.2066   2.74438
15.1622   2.74749
15.1180   2.78287
15.0740   2.66030
15.0303   2.53028
14.9869   2.47289
14.9437   2.56429
14.9008   2.84928
14.8581   2.96417
14.8156   2.96001
14.7734   2.74536
14.7314   2.64373
14.6897   2.86095
14.6482   2.93600
14.6069   2.57182
14.5659   2.54629
14.5251   2.66092
14.4845   2.68221
14.4442   2.76946
14.4041   2.78744
14.3642   2.47371
14.3245   2.50993
14.2850   2.36932
14.2458   2.31818
14.2068   2.61172
14.1679   2.79009
14.1293   2.70653
14.0909   2.58191
14.0528   2.57897
14.0148   2.58909
13.9770   2.45920
13.9394   2.42990
13.9021   2.73821
13.8649   2.77004
13.8279   2.59461
13.7911   2.55170
13.7546   2.60795
13.7182   2.46891
13.6820   2.58855
13.6460   2.83613
13.6101   2.92881
13.5745   3.08604
13.5391   3.07010
13.5038   2.92816
13.4687   2.96370
13.4339   3.05376
13.3991   2.95428
13.3646   2.74888
13.3302   2.82085
13.2961   2.99647
13.2621   2.93395
13.2282   3.02232
13.1946   3.09363
13.1611   3.28588
13.1278   3.39641
13.0946   3.28132
13.0616   3.27877
13.0288   3.19802
12.9962   3.20363
12.9637   3.26867
12.9313   3.33832
12.8992   3.35958
12.8672   3.42208
12.8353   3.39244
12.8036   3.21324
12.7721   3.17335
12.7407   3.21538
12.7095   3.08637
12.6784   2.99423
12.6475   3.03572
12.6167   3.07565
12.5861   3.05228
12.5556   3.20037
12.5253   3.36906
12.4951   3.36476
12.4651   3.22585
12.4352   2.99760
12.4054   2.81747
12.3758   2.74491
12.3463   2.74844
12.3170   2.53821
12.2878   2.53837
12.2588   2.62605
12.2299   2.73070
12.2011   2.80862
12.1725   2.77167
12.1439   2.82424
12.1156   3.00275
12.0873   3.00508
12.0592   2.98904
12.0312   3.12189
12.0034   3.23820
11.9757   3.40326
11.9481   3.45957
11.9206   3.46901
11.8933   3.58671
11.8661   3.43293
11.8390   3.36278
11.8120   3.52646
11.7852   3.58083
11.7584   3.50836
11.7318   3.43417
11.7053   3.56633
11.6790   3.75704
11.6527   3.88047
11.6266   3.91642
11.6006   3.91847
11.5747   3.87914
11.5489   4.00037
11.5233   4.05088
11.4977   4.12897
11.4723   4.22343
11.4469   4.29344
11.4217   4.31523
11.3966   4.38887
11.3716   4.55581
11.3468   4.52720
11.3220   4.53814
11.2973   4.66193
11.2728   4.84461
11.2483   5.04563
11.2240   5.05371
11.1997   4.87476
11.1756   4.84031
11.1515   5.01363
11.1276   4.85705
11.1038   4.84763
11.0801   5.16020
11.0564   5.11201
11.0329   4.90483
11.0095   4.90993
10.9862   4.88831
10.9629   4.86256
10.9398   4.94407
10.9168   5.03330
10.8938   5.08990
10.8710   5.17475
10.8483   5.13049
10.8256   5.09578
10.8031   5.12264
10.7806   5.26648
10.7582   5.44638
10.7360   5.67840
10.7138   5.70003
10.6917   5.70039
10.6697   5.91983
10.6478   6.16040
10.6260   6.24721
10.6042   6.47890
10.5826   6.65158
10.5610   6.59447
10.5396   6.60955
10.5182   6.91150
10.4969   7.20494
10.4757   7.24446
10.4546   7.25843
10.4335   7.38468
10.4126   7.51090
10.3917   7.70291
10.3709   7.87492
10.3502   8.04451
10.3296   8.05135
10.3091   8.07707
10.2886   8.24354
10.2683   8.37069
10.2480   8.48540
10.2277   8.63053
10.2076   8.73999
10.1876   8.84838
10.1676   8.87753
10.1477   9.10490
10.1279   9.27463
10.1081   9.44287
10.0885   9.51597
10.0689   9.63385
10.0494   9.81002
10.0299   9.91401
10.0106   9.93921
 9.9913   9.97655
 9.9720  10.13580
 9.9529  10.19640
 9.9338  10.21300
 9.9148  10.29010
 9.8959  10.23000
 9.8771  10.25260
 9.8583  10.31860
 9.8396  10.32370
 9.8210  10.53180
 9.8024  10.62530
 9.7839  10.54290
 9.7655  10.69430
 9.7471  10.87400
 9.7288  10.95830
 9.7106  11.21270
 9.6925  11.35790
 9.6744  11.42940
 9.6564  11.45710
 9.6384  11.63090
 9.6205  11.98290
 9.6027  12.09830
 9.5850  12.14940
 9.5673  12.19990
 9.5497  12.42540
 9.5321  12.54220
 9.5146  12.58370
 9.4972  12.42490
 9.4798  12.32240
 9.4625  12.38830
 9.4453  12.47120
 9.4281  12.39720
 9.4110  12.27300
 9.3940  12.26270
 9.3770  12.34040
 9.3600  12.37150
 9.3432  12.34970
 9.3264  12.44660
 9.3096  12.65820
 9.2930  12.59670
 9.2763  12.49580
 9.2598  12.57380
 9.2432  12.59640
 9.2268  12.50560
 9.2104  12.27960
 9.1941  12.09200
 9.1778  12.04330
 9.1616  11.99580
 9.1454  12.04220
 9.1293  12.04900
 9.1133  12.01940
 9.0973  11.82690
 9.0814  11.53620
 9.0655  11.40120
 9.0497  11.34860
 9.0339  11.25500
 9.0182  11.06930
 9.0025  10.91340
 8.9870  10.73450
 8.9714  10.50060
 8.9559  10.30740
 8.9405  10.06670
 8.9251   9.94402
 8.9097   9.80763
 8.8945   9.57364
 8.8792   9.56244
 8.8641   9.65604
 8.8489   9.59469
 8.8338   9.57609
 8.8188   9.36596
 8.8039   9.25256
 8.7889   9.40086
 8.7741   9.37690
 8.7592   9.29188
 8.7445   9.17593
 8.7297   9.07667
 8.7151   8.99772
 8.7005   8.85646
 8.6859   8.56884
 8.6714   8.33082
 8.6569   8.15925
 8.6425   7.85245
 8.6281   7.76917
 8.6137   7.83371
 8.5994   7.95719
 8.5852   8.25901
 8.5710   8.53477
 8.5569   8.60606
 8.5428   8.55289
 8.5287   8.56022
 8.5147   8.61490
 8.5008   8.45376
 8.4869   8.33342
 8.4730   8.37632
 8.4592   8.50023
 8.4454   8.53208
 8.4316   8.42111
 8.4180   8.18095
 8.4043   8.18697
 8.3907   8.26725
 8.3772   8.20649
 8.3637   8.25842
 8.3502   8.28297
 8.3368   8.24554
 8.3234   8.29550
 8.3100   8.22291
 8.2967   8.17487
 8.2835   8.13494
 8.2703   8.03839
 8.2571   7.96418
 8.2440   7.92493
 8.2309   8.03966
 8.2179   8.05212
 8.2049   7.90379
 8.1919   7.88008
 8.1790   7.81354
 8.1661   7.55237
 8.1532   7.39984
 8.1404   7.27324
 8.1277   6.95001
 8.1150   6.51068
 8.1023   6.17343
 8.0897   6.09028
 8.0770   5.75300
 8.0645   5.40002
 8.0520   5.21068
 8.0395   5.06471
 8.0270   4.93933
 8.0146   4.75918
 8.0023   4.55293
 7.9899   4.33438
 7.9776   4.17268
 7.9654   4.12126
 7.9532   3.95218
 7.9410   3.71005
 7.9288   3.57758
 7.9167   3.48259
 7.9047   3.37849
 7.8926   3.23577
 7.8807   3.05379
 7.8687   2.92624
 7.8568   2.85510
 7.8449   2.86817
 7.8330   2.78530
 7.8212   2.74004
 7.8094   2.75936
 7.7977   2.81054
 7.7860   2.79157
 7.7743   2.65648
 7.7627   2.54267
 7.7511   2.55518
 7.7395   2.61140
 7.7280   2.63367
 7.7165   2.66355
 7.7050   2.67976
 7.6936   2.58495
 7.6822   2.48123
 7.6708   2.46006
 7.6595   2.48995
 7.6482   2.44199
 7.6369   2.43935
 7.6257   2.47961
 7.6145   2.45375
 7.6033   2.39115
 7.5922   2.41527
 7.5811   2.40179
 7.5700   2.38469
 7.5590   2.40224
 7.5480   2.51499
 7.5370   2.43957
 7.5261   2.32763
 7.5152   2.31207
 7.5043   2.32095
 7.4935   2.32267
 7.4826   2.31634
 7.4718   2.34348
 7.4611   2.32335
 7.4504   2.30865
 7.4397   2.31920
 7.4290   2.25855
 7.4184   2.40174
 7.4078   2.44161
 7.3972   2.36309
 7.3867   2.33232
 7.3762   2.22977
 7.3657   2.24138
 7.3553   2.23533
 7.3449   2.18145
 7.3345   2.16155
 7.3241   2.17061
 7.3138   2.21186
 7.3035   2.24430
 7.2932   2.32649
 7.2830   2.36442
 7.2727   2.41045
 7.2626   2.45233
 7.2524   2.51501
 7.2423   2.43546
 7.2322   2.31540
 7.2221   2.36475
 7.2120   2.41450
 7.2020   2.38682
 7.1921   2.36100
 7.1821   2.46976
 7.1722   2.48917
 7.1623   2.45576
 7.1524   2.56343
 7.1425   2.55883
 7.1327   2.38198
 7.1229   2.32853
 7.1131   2.38719
 7.1034   2.46092
 7.0937   2.41457
 7.0840   2.33082
 7.0743   2.41395
 7.0647   2.51451
 7.0551   2.42962
 7.0455   2.48253
 7.0359   2.49779
 7.0264   2.47207
 7.0169   2.54824
 7.0074   2.57619
 6.9979   2.59120
 6.9885   2.48828
 6.9791   2.44909
 6.9697   2.56762
 6.9604   2.57586
 6.9510   2.46125
 6.9417   2.54264
 6.9324   2.55862
 6.9232   2.48011
 6.9140   2.48445
 6.9047   2.47544
 6.8956   2.46576
 6.8864   2.47431
 6.8773   2.45078
 6.8682   2.60215
 6.8591   2.73888
 6.8500   2.61771
 6.8410   2.54833
 6.8320   2.56521
 6.8230   2.53436
 6.8140   2.53671
 6.8051   2.65165
 6.7962   2.66991
 6.7873   2.58302
 6.7784   2.50985
 6.7695   2.52380
 6.7607   2.60014
 6.7519   2.69560
 6.7431   2.75386
 6.7344   2.68747
 6.7256   2.68524
 6.7169   2.76632
 6.7082   2.80153
 6.6996   2.78118
 6.6909   2.78639
 6.6823   2.74919
 6.6737   2.79442
 6.6651   2.80119
 6.6566   2.74993
 6.6480   2.82305
 6.6395   2.93059
 6.6310   2.82421
 6.6226   2.82483
 6.6141   2.75898
 6.6057   2.72814
 6.5973   2.89242
 6.5889   2.98214
 6.5805   2.88319
 6.5722   2.80379
 6.5639   2.75088
 6.5556   2.75984
 6.5473   2.81407
 6.5390   2.88798
 6.5308   2.89412
 6.5226   2.87693
 6.5144   2.88629
 6.5062   2.98473
 6.4981   3.06208
 6.4900   2.93629
 6.4818   2.91415
 6.4737   3.03465
 6.4657   3.07911
 6.4576   3.10396
 6.4496   3.13325
 6.4416   3.09458
 6.4336   3.04062
 6.4256   3.01456
 6.4177   3.08599
 6.4097   2.97464
 6.4018   2.83945
 6.3939   2.83097
 6.3860   2.83658
 6.3782   2.88623
 6.3704   2.82844
 6.3625   2.74362
 6.3547   2.82583
 6.3470   2.86953
 6.3392   2.83379
 6.3315   2.76906
 6.3237   2.69115
 6.3160   2.62183
 6.3083   2.61499
 6.3007   2.63875
 6.2930   2.56423
 6.2854   2.61319
 6.2778   2.63595
 6.2702   2.49287
 6.2626   2.44892
 6.2551   2.43760
 6.2476   2.53653
 6.2400   2.60490
 6.2325   2.64356
 6.2251   2.53118
 6.2176   2.42690
 6.2101   2.43483
 6.2027   2.48224
 6.1953   2.45646
 6.1879   2.50309
 6.1805   2.52246
 6.1732   2.50518
 6.1658   2.55831
 6.1585   2.63781
 6.1512   2.54853
 6.1439   2.50905
 6.1367   2.60476
 6.1294   2.62826
 6.1222   2.64560
 6.1149   2.65533
 6.1077   2.57313
 6.1006   2.58089
 6.0934   2.66508
 6.0862   2.62774
 6.0791   2.66138
 6.0720   2.67589
 6.0649   2.66439
 6.0578   2.68479
 6.0507   2.80316
 6.0437   2.79933
 6.0366   2.66106
 6.0296   2.69176
 6.0226   2.71250
 6.0156   2.68986
 6.0087   2.58889
 6.0017   2.51292
 5.9948   2.58835
 5.9878   2.62016
 5.9809   2.54399
 5.9740   2.54979
 5.9672   2.47731
 5.9603   2.34588
 5.9535   2.33500
 5.9466   2.39128
 5.9398   2.42670
 5.9330   2.43931
 5.9262   2.50206
 5.9195   2.56917
 5.9127   2.49554
 5.9060   2.38858
 5.8993   2.37842
 5.8926   2.50784
 5.8859   2.67170
 5.8792   2.75671
 5.8726   2.74582
 5.8659   2.72711
 5.8593   2.63772
 5.8527   2.60959
 5.8461   2.60440
 5.8395   2.61104
 5.8329   2.66556
 5.8264   2.67267
 5.8198   2.64627
 5.8133   2.65529
 5.8068   2.71848
 5.8003   2.74165
 5.7938   2.82186
 5.7874   2.85779
 5.7809   2.85930
 5.7745   2.91930
 5.7680   2.93805
 5.7616   2.78559
 5.7552   2.83846
 5.7489   2.99622
 5.7425   2.94214
 5.7361   2.84614
 5.7298   2.87436
 5.7235   3.02041
 5.7172   3.01102
 5.7109   2.93922
 5.7046   2.97627
 5.6983   3.01931
 5.6921   3.04370
 5.6858   3.04008
 5.6796   3.07400
 5.6734   3.00243
 5.6672   2.92398
 5.6610   2.96653
 5.6548   2.97518
 5.6487   3.00413
 5.6425   2.99901
 5.6364   2.89803
 5.6303   2.88900
 5.6242   2.93953
 5.6181   2.88750
 5.6120   2.94351
 5.6059   2.92249
 5.5999   2.88110
 5.5938   2.90618
 5.5878   2.94415
 5.5818   2.99425
 5.5758   3.04984
 5.5698   3.08478
 5.5638   3.07350
 5.5578   3.06383
 5.5519   3.14457
 5.5460   3.12053
 5.5400   3.06592
 5.5341   3.10535
 5.5282   3.19966
 5.5223   3.27391
 5.5164   3.37494
 5.5106   3.37344
 5.5047   3.31225
 5.4989   3.34903
 5.4931   3.40979
 5.4873   3.46245
 5.4815   3.46417
 5.4757   3.47400
 5.4699   3.51475
 5.4641   3.50819
 5.4584   3.51036
 5.4527   3.50413
 5.4469   3.52919
 5.4412   3.58239
 5.4355   3.65471
 5.4298   3.67335
 5.4241   3.56278
 5.4185   3.41287
 5.4128   3.42381
 5.4072   3.54282
 5.4015   3.57376
 5.3959   3.49747
 5.3903   3.41835
 5.3847   3.43504
 5.3791   3.51480
 5.3735   3.56029
 5.3680   3.54466
 5.3624   3.46619
 5.3569   3.42789
 5.3514   3.37539
 5.3458   3.36097
 5.3403   3.39039
 5.3348   3.42644
 5.3294   3.52076
 5.3239   3.53900
 5.3184   3.53055
 5.3130   3.47776
 5.3075   3.42847
 5.3021   3.45787
 5.2967   3.54593
 5.2913   3.64267
 5.2859   3.67784
 5.2805   3.69158
 5.2751   3.67338
 5.2698   3.71602
 5.2644   3.73559
 5.2591   3.79979
 5.2538   3.85607
 5.2485   3.92174
 5.2431   3.96665
 5.2378   3.97404
 5.2326   3.99795
 5.2273   4.07277
 5.2220   4.14320
 5.2168   4.15868
 5.2115   4.23369
 5.2063   4.31166
 5.2011   4.32142
 5.1959   4.22395
 5.1907   4.24748
 5.1855   4.37596
 5.1803   4.44890
 5.1751   4.52399
 5.1700   4.43601
 5.1648   4.43053
 5.1597   4.54826
 5.1545   4.58423
 5.1494   4.59716
 5.1443   4.55258
 5.1392   4.52813
 5.1341   4.57503
 5.1291   4.62669
 5.1240   4.61410
 5.1189   4.58977
 5.1139   4.65590
 5.1088   4.73100
 5.1038   4.66621
 5.0988   4.60064
 5.0938   4.68445
 5.0888   4.71453
 5.0838   4.67173
 5.0788   4.68255
 5.0738   4.75494
 5.0689   4.78436
 5.0639   4.74754
 5.0590   4.70991
 5.0541   4.67792
 5.0491   4.78491
 5.0442   4.80915
 5.0393   4.72599
 5.0344   4.67843
 5.0296   4.64422
 5.0247   4.66349
 5.0198   4.71858
 5.0150   4.66229
 5.0101   4.62838
 5.0053   4.70677
 5.0004   4.75524
 4.9956   4.80760
 4.9908   4.79486
 4.9860   4.71876
 4.9812   4.77306
 4.9765   4.85181
 4.9717   4.80040
 4.9669   4.80673
 4.9622   4.89914
 4.9574   4.96885
 4.9527   5.02224
 4.9480   5.06616
 4.9432   5.08547
 4.9385   5.14869
 4.9338   5.12258
 4.9291   5.02850
 4.9245   5.06266
 4.9198   5.15372
 4.9151   5.33164
 4.9105   5.46822
 4.9058   5.50181
 4.9012   5.54666
 4.8966   5.55647
 4.8919   5.62999
 4.8873   5.69109
 4.8827   5.65646
 4.8781   5.72039
 4.8736   5.90522
 4.8690   5.99851
 4.8644   6.11854
 4.8599   6.12455
 4.8553   6.13527
 4.8508   6.35812
 4.8462   6.45043
 4.8417   6.45149
 4.8372   6.41109
 4.8327   6.35234
 4.8282   6.46379
 4.8237   6.58960
 4.8192   6.61773
 4.8147   6.64107
 4.8103   6.63727
 4.8058   6.75659
 4.8014   6.92768
 4.7969   6.95317
 4.7925   6.92978
 4.7881   6.90122
 4.7836   6.86210
 4.7792   6.90604
 4.7748   7.06683
 4.7704   7.27123
 4.7660   7.37504
 4.7617   7.41294
 4.7573   7.50047
 4.7530   7.57384
 4.7486   7.56839
 4.7443   7.66592
 4.7399   7.72931
 4.7356   7.68328
 4.7313   7.70445
 4.7270   7.79276
 4.7226   7.91118
 4.7184   7.99855
 4.7141   8.04728
 4.7098   8.09670
 4.7055   8.12027
 4.7012   8.07733
 4.6970   8.04562
 4.6927   7.99885
 4.6885   7.99972
 4.6842   8.10087
 4.6800   8.13678
 4.6758   8.17420
 4.6716   8.28914
 4.6674   8.36474
 4.6632   8.39340
 4.6590   8.42063
 4.6548   8.49346
 4.6506   8.58155
 4.6465   8.70489
 4.6423   8.75521
 4.6382   8.73610
 4.6340   8.76425
 4.6299   8.83585
 4.6258   8.86957
 4.6216   8.90957
 4.6175   9.02372
 4.6134   9.08942
 4.6093   9.17677
 4.6052   9.20947
 4.6011   9.21277
 4.5971   9.29205
 4.5930   9.41250
 4.5889   9.52757
 4.5849   9.65970
 4.5808   9.71400
 4.5768   9.76009
 4.5727   9.85919
 4.5687   9.98019
 4.5647  10.10560
 4.5607  10.12170
 4.5567  10.16980
 4.5526  10.31590
 4.5487  10.40850
 4.5447  10.46140
 4.5407  10.52220
 4.5367  10.56720
 4.5328  10.64970
 4.5288  10.77500
 4.5248  10.85490
 4.5209  10.88830
 4.5170  10.86520
 4.5130  10.83170
 4.5091  10.87880
 4.5052  10.86240
 4.5013  10.80430
 4.4974  10.86220
 4.4935  10.92290
 4.4896  10.94350
 4.4857  11.01860
 4.4818  11.03400
 4.4779  11.01920
 4.4741  11.08250
 4.4702  11.11130
 4.4664  11.18570
 4.4625  11.21190
 4.4587  11.36440
 4.4549  11.54220
 4.4510  11.58250
 4.4472  11.66880
 4.4434  11.77190
 4.4396  11.82300
 4.4358  11.90720
 4.4320  11.95110
 4.4282  12.06550
 4.4245  12.17230
 4.4207  12.17380
 4.4169  12.24050
 4.4132  12.39840
 4.4094  12.46820
 4.4057  12.54000
 4.4019  12.72040
 4.3982  12.86160
 4.3945  12.95730
 4.3907  13.05840
 4.3870  13.12020
 4.3833  13.24470
 4.3796  13.38150
 4.3759  13.46930
 4.3722  13.51360
 4.3685  13.58310
 4.3649  13.74900
 4.3612  13.86820
 4.3575  13.89180
 4.3539  13.99840
 4.3502  14.12740
 4.3466  14.12000
 4.3429  14.23560
 4.3393  14.34230
 4.3357  14.38990
 4.3320  14.47740
 4.3284  14.42200
 4.3248  14.40610
 4.3212  14.48310
 4.3176  14.64450
 4.3140  14.73700
 4.3105  14.75370
 4.3069  14.83370
 4.3033  14.82290
 4.2997  14.90050
 4.2962  15.02720
 4.2926  14.93280
 4.2890  14.96530
 4.2855  15.07390
 4.2820  15.17650
 4.2784  15.22660
 4.2749  15.12800
 4.2714  15.22490
 4.2679  15.36580
 4.2644  15.34790
 4.2609  15.32790
 4.2574  15.34980
 4.2539  15.49940
 4.2504  15.66310
 4.2469  15.66390
 4.2434  15.70900
 4.2400  15.69180
 4.2365  15.59120
 4.2330  15.60830
 4.2296  15.83780
 4.2261  15.87940
 4.2227  15.81010
 4.2193  15.85880
 4.2158  15.95110
 4.2124  15.94610
 4.2090  15.85080
 4.2056  15.84270
 4.2022  15.80210
 4.1988  15.89900
 4.1954  16.03290
 4.1920  16.06260
 4.1886  16.06070
 4.1852  16.02980
 4.1818  16.04480
 4.1785  16.19650
 4.1751  16.20750
 4.1717  16.14080
 4.1684  16.17650
 4.1650  16.18960
 4.1617  16.17940
 4.1584  16.22500
 4.1550  16.32300
 4.1517  16.43470
 4.1484  16.46990
 4.1451  16.44370
 4.1418  16.34660
 4.1384  16.42920
 4.1351  16.54630
 4.1319  16.61970
 4.1286  16.68540
 4.1253  16.58050
 4.1220  16.56130
 4.1187  16.60370
 4.1155  16.63710
 4.1122  16.69210
 4.1089  16.67270
 4.1057  16.68770
 4.1024  16.74900
 4.0992  16.84800
 4.0959  16.86520
 4.0927  16.83350
 4.0895  16.95830
 4.0863  16.97140
 4.0830  16.98620
 4.0798  16.90470
 4.0766  16.95290
 4.0734  17.05200
 4.0702  16.99800
 4.0670  16.93230
 4.0639  16.88740
 4.0607  16.89370
 4.0575  16.90360
 4.0543  16.88660
 4.0511  16.92650
 4.0480  16.93350
 4.0448  16.84030
 4.0417  16.78910
 4.0385  16.79290
 4.0354  16.70170
 4.0323  16.63430
 4.0291  16.58800
 4.0260  16.57770
 4.0229  16.73160
 4.0197  16.79750
 4.0166  16.74530
 4.0135  16.67980
 4.0104  16.57880
 4.0073  16.57390
 4.0042  16.47660
 4.0011  16.54840
 3.9981  16.59410
 3.9950  16.51750
 3.9919  16.53350
 3.9888  16.55590
 3.9857  16.50040
 3.9827  16.46910
 3.9796  16.47500
 3.9766  16.54480
 3.9735  16.62830
 3.9705  16.69980
 3.9675  16.67070
 3.9644  16.59080
 3.9614  16.56060
 3.9584  16.72180
 3.9554  16.80430
 3.9523  16.80550
 3.9493  16.80630
 3.9463  16.81230
 3.9433  16.88530
 3.9403  16.95520
 3.9373  17.11390
 3.9343  17.15300
 3.9314  17.17790
 3.9284  17.07590
 3.9254  17.08490
 3.9224  17.22460
 3.9195  17.29450
 3.9165  17.22640
 3.9136  17.13100
 3.9106  17.18620
 3.9077  17.18910
 3.9047  17.25460
 3.9018  17.36320
 3.8988  17.39360
 3.8959  17.45920
 3.8930  17.44990
 3.8901  17.34900
 3.8872  17.33580
 3.8842  17.30030
 3.8813  17.18650
 3.8784  17.06530
 3.8755  17.05440
 3.8726  17.27850
 3.8697  17.35660
 3.8669  17.24850
 3.8640  17.24510
 3.8611  17.28190
 3.8582  17.27650
 3.8554  17.22580
 3.8525  17.19950
 3.8496  17.28790
 3.8468  17.33090
 3.8439  17.35130
