Name: Natrolite Na_2Al_2Si_3O_10.2H_2O
Type: Mineral
Class: Silicates
Subclass: Tectosilicates
Particle Size: 0-45um
Sample No.: TS-8A
Owner: JPL
Wavelength range: IR
Origin: India, Maharashtra, Poona
Collected by Ward's
Description: 





Measurement: Hemispherical reflectance
First Column: X
Second Column: Y
X Units:  Wavelength (micrometers)
Y Units:  Reflectance (percent)
First X Value: 15.3853
Last X Value: 2.00032
Number of X Values: 2256
Additional information: ts08aa.txt
 
15.3853	1.79423
15.3397	1.70719
15.2945	1.71906
15.2495	1.67443
15.2048	1.76587
15.1603	1.79749
15.1161	1.7617
15.0722	1.71713
15.0285	1.76938
14.9851	1.63514
14.9419	1.51363
14.8989	1.45066
14.8563	1.41059
14.8138	1.57268
14.7716	1.46082
14.7296	1.41124
14.6879	1.62834
14.6464	1.63598
14.6052	1.42148
14.5641	1.29561
14.5233	1.17686
14.4828	1.08074
14.4424	1.27961
14.4023	1.25606
14.3624	1.08756
14.3227	1.04566
14.2833	1.06694
14.244	1.14624
14.205	1.07511
14.1662	0.901496
14.1276	0.826816
14.0892	0.822758
14.051	0.919664
14.0131	0.956227
13.9753	1.10856
13.9377	1.1268
13.9004	0.870326
13.8632	0.761169
13.8262	0.864962
13.7895	1.09139
13.7529	1.14076
13.7165	1.14432
13.6803	1.3489
13.6443	1.62327
13.6085	1.88484
13.5729	2.31263
13.5374	2.49867
13.5022	2.84297
13.4671	3.4912
13.4322	4.00246
13.3975	4.29728
13.363	4.51583
13.3286	4.84925
13.2944	5.32152
13.2604	5.5168
13.2266	5.5809
13.193	5.62165
13.1595	5.65852
13.1262	5.77074
13.093	5.94281
13.06	6.23285
13.0272	6.49969
12.9946	6.81929
12.9621	7.20055
12.9298	7.43074
12.8976	7.6878
12.8656	8.14498
12.8337	8.60684
12.8021	8.89875
12.7705	9.00154
12.7391	9.00194
12.7079	9.2528
12.6769	9.64474
12.6459	10.0485
12.6152	10.264
12.5845	10.3002
12.5541	10.3665
12.5238	10.5646
12.4936	10.8159
12.4635	11.1339
12.4337	11.3697
12.4039	11.4429
12.3743	11.482
12.3448	11.6233
12.3155	11.8606
12.2863	12.1371
12.2573	12.2947
12.2284	12.3777
12.1996	12.4044
12.171	12.5648
12.1425	12.8031
12.1141	12.9165
12.0859	13.0741
12.0578	13.1624
12.0298	13.2089
12.0019	13.3177
11.9742	13.3952
11.9466	13.5067
11.9192	13.6837
11.8918	13.7914
11.8646	13.8297
11.8375	13.8832
11.8106	13.9867
11.7837	14.0678
11.757	13.9234
11.7304	13.8592
11.7039	13.9376
11.6776	13.9287
11.6513	13.7633
11.6252	13.6515
11.5992	13.536
11.5733	13.4268
11.5475	13.3402
11.5219	13.2337
11.4963	13.1295
11.4709	13.1273
11.4455	13.1039
11.4203	13.0652
11.3952	12.9819
11.3702	12.9672
11.3454	12.9925
11.3206	12.8883
11.2959	12.725
11.2714	12.6556
11.2469	12.6223
11.2226	12.5759
11.1983	12.5709
11.1742	12.3114
11.1502	11.9369
11.1263	11.7014
11.1024	11.6058
11.0787	11.4982
11.0551	11.3103
11.0316	11.039
11.0081	10.789
10.9848	10.6421
10.9616	10.288
10.9385	10.0686
10.9154	9.72474
10.8925	9.39021
10.8697	9.32868
10.8469	9.22752
10.8243	8.93888
10.8017	8.56829
10.7793	8.26651
10.7569	7.95001
10.7346	7.63662
10.7125	7.3819
10.6904	7.16228
10.6684	6.87639
10.6465	6.61857
10.6247	6.338
10.6029	6.2799
10.5813	6.35517
10.5597	6.42963
10.5383	6.41582
10.5169	6.34664
10.4956	6.42966
10.4744	6.6698
10.4533	6.96407
10.4323	7.36319
10.4113	7.87522
10.3904	8.37579
10.3697	8.82198
10.349	8.9775
10.3284	8.75158
10.3078	8.52673
10.2874	8.47396
10.267	8.43376
10.2467	8.36117
10.2265	8.61285
10.2064	9.00219
10.1863	9.41502
10.1663	9.84491
10.1464	10.3486
10.1266	10.9185
10.1069	11.2691
10.0872	11.4108
10.0676	11.1017
10.0481	10.6038
10.0287	10.4314
10.0093	10.6205
9.99005	10.8953
9.97084	10.8787
9.95169	10.6733
9.93263	10.3904
9.91364	10.1714
9.89472	9.94253
9.87587	9.5366
9.8571	9.10659
9.83839	8.50311
9.81976	7.7598
9.80119	6.80811
9.78271	5.70636
9.76428	4.40176
9.74592	2.91855
9.72764	1.7958
9.70943	1.23429
9.69128	1.26192
9.6732	1.55869
9.65518	1.90952
9.63724	2.52361
9.61935	3.46217
9.60155	4.48149
9.5838	5.19239
9.56611	5.68161
9.5485	6.15932
9.53094	6.53746
9.51345	6.82046
9.49604	6.93794
9.47867	7.09402
9.46137	7.25665
9.44414	7.34792
9.42697	7.47472
9.40986	7.42286
9.39281	7.02135
9.37583	6.47951
9.35891	5.95674
9.34204	5.34186
9.32524	4.79005
9.3085	4.61747
9.29182	4.69435
9.27519	4.98225
9.25863	5.28371
9.24213	5.72142
9.22568	6.3602
9.2093	6.78529
9.19297	7.26362
9.17669	7.612
9.16048	7.77372
9.14433	7.81279
9.12823	7.76375
9.11218	7.73652
9.0962	7.64961
9.08027	7.42062
9.06439	7.37147
9.04858	7.37219
9.03281	7.39624
9.0171	7.48244
9.00145	7.68049
8.98585	8.04663
8.9703	8.28744
8.9548	8.45425
8.93937	8.44953
8.92398	8.19555
8.90865	7.9345
8.89337	7.612
8.87814	7.19308
8.86296	6.71667
8.84784	6.19758
8.83277	5.73291
8.81774	5.25073
8.80277	4.96162
8.78786	4.57255
8.77298	4.17212
8.75816	3.81348
8.7434	3.6063
8.72868	3.29323
8.714	2.87914
8.69938	2.56642
8.68481	2.26867
8.67029	2.02842
8.65581	2.02766
8.64139	2.00624
8.62701	1.72255
8.61268	1.47952
8.5984	1.36156
8.58416	1.11277
8.56997	0.952688
8.55583	0.842379
8.54174	0.742485
8.52769	0.695501
8.51368	0.699605
8.49973	0.721767
8.48582	0.626007
8.47195	0.510869
8.45813	0.469774
8.44436	0.367372
8.43062	0.268518
8.41693	0.254991
8.4033	0.300997
8.3897	0.267887
8.37614	0.144578
8.36264	0.194221
8.34917	0.186196
8.33574	0.135338
8.32236	0.156
8.30903	0.25498
8.29573	0.186381
8.28248	0.275542
8.26927	0.238468
8.2561	0.0769544
8.24298	0.145022
8.2299	0.30329
8.21685	0.343909
8.20385	0.341527
8.19089	0.259732
8.17797	0.170183
8.16509	0.262399
8.15225	0.326594
8.13946	0.3094
8.1267	0.276898
8.11398	0.356047
8.10131	0.428118
8.08867	0.405568
8.07606	0.431323
8.0635	0.386447
8.05099	0.444604
8.0385	0.419202
8.02606	0.32549
8.01366	0.315201
8.00129	0.424379
7.98896	0.558582
7.97667	0.646981
7.96442	0.656831
7.9522	0.695937
7.94002	0.822116
7.92788	0.964085
7.91578	1.00878
7.90371	1.06216
7.89168	1.03959
7.87969	1.06603
7.86773	1.1094
7.85581	1.125
7.84392	1.16055
7.83207	1.2415
7.82026	1.22831
7.80849	1.26361
7.79674	1.31102
7.78503	1.35774
7.77337	1.50502
7.76173	1.55757
7.75012	1.6011
7.73856	1.59284
7.72703	1.62413
7.71553	1.73609
7.70406	1.81448
7.69263	1.8942
7.68123	2.00877
7.66987	2.12495
7.65855	2.16778
7.64725	2.16687
7.63598	2.23134
7.62475	2.28954
7.61356	2.36428
7.60239	2.44502
7.59126	2.51737
7.58017	2.56757
7.5691	2.67035
7.55806	2.75492
7.54707	2.80109
7.5361	2.90007
7.52516	3.02735
7.51425	3.0522
7.50338	3.15699
7.49253	3.29156
7.48172	3.31009
7.47094	3.40509
7.46019	3.50886
7.44947	3.57078
7.43879	3.70893
7.42813	3.78707
7.4175	3.78124
7.4069	3.86211
7.39634	3.94886
7.3858	4.03205
7.37529	4.12306
7.36482	4.18047
7.35437	4.2846
7.34396	4.39302
7.33357	4.51644
7.32321	4.59214
7.31288	4.62719
7.30258	4.65372
7.29231	4.82312
7.28207	5.03443
7.27185	5.05826
7.26167	5.07415
7.25152	5.1491
7.24139	5.20886
7.23129	5.33993
7.22122	5.47659
7.21117	5.61289
7.20116	5.70531
7.19117	5.66389
7.18121	5.70567
7.17128	5.78604
7.16137	5.83321
7.1515	5.94247
7.14164	6.00373
7.13182	6.10483
7.12203	6.21297
7.11225	6.26319
7.10251	6.32103
7.0928	6.42191
7.08311	6.57113
7.07344	6.72866
7.06381	6.82427
7.0542	6.9576
7.04461	7.18294
7.03506	7.30278
7.02552	7.38294
7.01601	7.51295
7.00653	7.61265
6.99708	7.6464
6.98765	7.65998
6.97824	7.71359
6.96886	7.9147
6.95951	8.10511
6.95018	7.99702
6.94087	7.89982
6.9316	7.96746
6.92234	8.09162
6.91311	8.15931
6.90391	8.21366
6.89473	8.28744
6.88557	8.36794
6.87644	8.45779
6.86733	8.64592
6.85824	8.72126
6.84918	8.66574
6.84015	8.71135
6.83114	8.85041
6.82215	8.90179
6.81319	8.93409
6.80424	9.05121
6.79532	9.23437
6.78643	9.38607
6.77756	9.48716
6.76871	9.61201
6.75989	9.72559
6.75109	9.77397
6.74231	9.77977
6.73355	9.8879
6.72482	9.99995
6.71611	10.0522
6.70742	10.1164
6.69875	10.1951
6.69011	10.3301
6.68149	10.5062
6.67289	10.5899
6.66431	10.6194
6.65576	10.7163
6.64722	10.8976
6.63871	11.2751
6.63022	11.3725
6.62175	11.3517
6.61331	11.445
6.60488	11.4879
6.59648	11.5239
6.5881	11.5775
6.57974	11.6754
6.5714	11.8152
6.56308	11.8614
6.55478	11.8525
6.54651	11.7557
6.53825	11.7668
6.53001	11.8158
6.5218	11.8703
6.51361	11.8807
6.50544	11.9964
6.49729	12.2858
6.48915	12.3317
6.48104	12.1345
6.47295	11.9515
6.46488	11.76
6.45683	11.7421
6.4488	11.7332
6.44079	11.6192
6.4328	11.6042
6.42482	11.6604
6.41687	11.6837
6.40894	11.4866
6.40103	11.1949
6.39314	10.9913
6.38526	10.754
6.37741	10.5376
6.36957	10.4949
6.36176	10.3984
6.35396	10.2285
6.34618	10.1752
6.33843	9.90874
6.33069	9.6318
6.32297	9.53563
6.31527	9.29291
6.30758	9.09598
6.29992	8.90669
6.29227	8.67028
6.28465	8.44456
6.27704	8.33917
6.26945	8.20452
6.26188	8.02644
6.25432	7.83961
6.24679	7.63651
6.23927	7.38917
6.23177	7.09403
6.22429	6.81204
6.21683	6.4784
6.20938	6.08971
6.20195	5.68557
6.19454	5.33996
6.18715	4.94431
6.17978	4.47068
6.17242	3.98833
6.16508	3.54443
6.15776	3.03549
6.15045	2.69563
6.14317	2.5547
6.1359	2.38932
6.12864	2.23057
6.12141	2.17845
6.11419	2.30735
6.10699	2.42362
6.0998	2.6633
6.09263	3.05526
6.08549	3.53145
6.07835	4.05636
6.07123	4.60053
6.06413	5.17571
6.05705	5.83353
6.04998	6.56551
6.04293	7.06286
6.0359	7.55762
6.02888	8.11994
6.02187	8.67917
6.01489	9.20991
6.00792	9.62298
6.00096	9.99882
5.99403	10.4072
5.98711	10.8015
5.9802	11.0865
5.97331	11.4634
5.96644	11.8226
5.95958	11.9815
5.95274	12.1871
5.94591	12.3785
5.9391	12.6944
5.9323	12.8019
5.92552	12.674
5.91876	12.6959
5.91201	12.7673
5.90528	12.9477
5.89856	13.2139
5.89186	13.2774
5.88517	13.4327
5.8785	13.5439
5.87184	13.4279
5.8652	13.4453
5.85857	13.418
5.85196	13.4397
5.84536	13.5195
5.83878	13.5979
5.83221	13.717
5.82566	13.7982
5.81912	13.7651
5.81259	13.7267
5.80608	13.7797
5.79959	13.9454
5.79311	14.165
5.78665	14.325
5.78019	14.4354
5.77376	14.6781
5.76734	15.0824
5.76093	15.1951
5.75453	15.2974
5.74815	15.5957
5.74179	15.6657
5.73543	15.7716
5.7291	15.959
5.72277	16.214
5.71646	16.4342
5.71017	16.6395
5.70389	16.6514
5.69762	16.7911
5.69136	17.0571
5.68513	17.2622
5.6789	17.5617
5.67268	17.8063
5.66648	17.896
5.6603	18.1606
5.65413	18.4778
5.64797	18.6763
5.64182	18.9187
5.63569	19.0013
5.62957	18.9745
5.62347	19.096
5.61737	19.2466
5.61129	19.3644
5.60522	19.6058
5.59917	19.9109
5.59313	20.0775
5.5871	20.2982
5.58109	20.5248
5.57509	20.6514
5.5691	20.796
5.56312	20.9134
5.55716	20.9638
5.55121	21.0233
5.54528	20.9709
5.53935	20.964
5.53344	20.9727
5.52754	20.9939
5.52166	21.0518
5.51578	21.0746
5.50992	21.0443
5.50407	21.0783
5.49823	21.0935
5.49241	21.1325
5.4866	21.2521
5.4808	21.3713
5.47501	21.4796
5.46923	21.7551
5.46347	22.0734
5.45772	22.2423
5.45198	22.5274
5.44625	22.8883
5.44054	23.2513
5.43484	23.5695
5.42914	23.9767
5.42347	24.4775
5.4178	24.7461
5.41214	25.1058
5.4065	25.5639
5.40087	25.8968
5.39525	26.2135
5.38964	26.5849
5.38404	26.9764
5.37846	27.3475
5.37288	27.664
5.36732	27.8863
5.36177	28.0885
5.35623	28.4334
5.35071	28.7686
5.34519	28.9326
5.33968	29.1026
5.33419	29.3535
5.32871	29.6923
5.32324	30.0693
5.31778	30.5214
5.31233	30.9401
5.30689	31.3544
5.30147	31.8368
5.29605	32.3448
5.29065	32.8222
5.28525	33.1619
5.27987	33.4761
5.2745	33.6293
5.26914	33.8372
5.26379	34.1751
5.25845	34.4116
5.25312	34.465
5.24781	34.464
5.2425	34.534
5.23721	34.4751
5.23192	34.2576
5.22665	34.058
5.22138	33.756
5.21613	33.4683
5.21089	33.2664
5.20566	33.0841
5.20044	33.0319
5.19522	32.9951
5.19002	32.9634
5.18483	33.0158
5.17965	33.1456
5.17448	33.263
5.16933	33.3016
5.16418	33.3006
5.15904	33.2435
5.15391	33.1508
5.14879	33.085
5.14368	32.8696
5.13859	32.4971
5.1335	32.0364
5.12842	31.6065
5.12335	31.2524
5.1183	31.0019
5.11325	30.8468
5.10821	30.7216
5.10318	30.5338
5.09817	30.3062
5.09316	30.0831
5.08816	29.8552
5.08317	29.5707
5.07819	29.2628
5.07322	29.0753
5.06826	28.8553
5.06331	28.5451
5.05837	28.1978
5.05344	27.8472
5.04852	27.5967
5.04361	27.4141
5.03871	27.3198
5.03382	27.3507
5.02894	27.7055
5.02406	28.1596
5.0192	28.664
5.01435	29.2243
5.0095	29.7351
5.00467	30.2473
4.99984	30.7807
4.99502	31.227
4.99021	31.6004
4.98542	31.8727
4.98063	32.0325
4.97585	32.2051
4.97108	32.3711
4.96632	32.5784
4.96156	32.8006
4.95682	32.9602
4.95209	33.0364
4.94736	33.0949
4.94264	33.0436
4.93794	32.904
4.93324	32.7166
4.92855	32.5056
4.92387	32.2961
4.9192	32.0232
4.91453	31.6876
4.90988	31.366
4.90524	30.9988
4.9006	30.6285
4.89597	30.3776
4.89135	30.1882
4.88674	29.8863
4.88214	29.6261
4.87755	29.5045
4.87296	29.394
4.86839	29.2026
4.86382	28.9836
4.85926	28.7875
4.85471	28.6296
4.85017	28.4902
4.84564	28.3401
4.84111	28.1886
4.8366	28.0138
4.83209	27.7796
4.82759	27.4916
4.8231	27.154
4.81862	26.8729
4.81415	26.6133
4.80968	26.3103
4.80522	25.9397
4.80077	25.604
4.79633	25.2415
4.7919	24.8111
4.78747	24.3589
4.78306	23.8565
4.77865	23.2909
4.77425	22.7456
4.76986	22.1561
4.76547	21.4497
4.7611	20.7224
4.75673	19.9224
4.75237	19.1508
4.74802	18.5063
4.74367	17.7165
4.73934	16.7993
4.73501	15.9117
4.73069	15.0745
4.72638	14.3287
4.72207	13.6156
4.71777	12.8356
4.71348	12.1047
4.7092	11.4111
4.70493	10.8431
4.70066	10.3525
4.69641	9.8202
4.69216	9.34225
4.68791	9.04867
4.68368	8.83496
4.67945	8.65582
4.67523	8.53238
4.67102	8.58269
4.66682	8.71402
4.66262	8.89091
4.65843	9.14137
4.65425	9.45229
4.65007	9.9103
4.64591	10.4592
4.64175	11.1514
4.6376	11.9273
4.63345	12.7518
4.62932	13.6343
4.62519	14.5867
4.62106	15.5628
4.61695	16.5147
4.61284	17.5261
4.60874	18.5621
4.60465	19.5384
4.60056	20.4779
4.59648	21.3369
4.59241	22.1095
4.58835	22.8644
4.58429	23.5278
4.58024	24.0768
4.5762	24.5572
4.57216	25.0551
4.56814	25.4629
4.56411	25.7874
4.5601	26.1198
4.55609	26.4372
4.55209	26.7178
4.5481	27.0534
4.54411	27.4306
4.54013	27.7131
4.53616	28.0298
4.5322	28.3609
4.52824	28.749
4.52429	29.128
4.52034	29.4785
4.51641	29.8041
4.51247	30.1454
4.50855	30.5797
4.50463	30.9988
4.50072	31.3904
4.49682	31.8486
4.49292	32.3647
4.48903	32.8901
4.48515	33.4061
4.48127	33.9201
4.4774	34.4768
4.47354	35.0419
4.46968	35.5499
4.46584	36.0664
4.46199	36.6198
4.45815	37.1738
4.45432	37.7499
4.4505	38.3562
4.44668	38.899
4.44287	39.4
4.43907	39.8719
4.43527	40.3264
4.43148	40.7661
4.4277	41.1456
4.42392	41.5136
4.42015	41.8711
4.41638	42.2059
4.41262	42.5308
4.40887	42.8505
4.40513	43.0521
4.40139	43.1647
4.39765	43.2994
4.39393	43.4718
4.39021	43.6395
4.38649	43.8368
4.38278	43.9038
4.37908	44.0051
4.37539	44.1373
4.3717	44.3524
4.36801	44.588
4.36434	44.6827
4.36067	44.7529
4.357	44.8716
4.35335	45.059
4.34969	45.2408
4.34605	45.313
4.34241	45.3375
4.33877	45.4659
4.33514	45.5559
4.33152	45.5466
4.32791	45.5527
4.3243	45.5636
4.32069	45.4962
4.3171	45.4258
4.31351	45.3646
4.30992	45.3545
4.30634	45.3424
4.30277	45.3512
4.2992	45.3364
4.29564	45.3513
4.29208	45.3989
4.28853	45.4574
4.28499	45.5901
4.28145	45.7071
4.27792	45.8586
4.27439	46.1119
4.27087	46.4458
4.26735	46.8259
4.26384	47.3529
4.26034	48.0001
4.25684	48.4608
4.25335	48.4435
4.24986	48.1823
4.24638	47.948
4.24291	47.7863
4.23944	47.7887
4.23598	47.9098
4.23252	48.0185
4.22906	48.2699
4.22562	48.6161
4.22218	48.9542
4.21874	49.4332
4.21531	50.0015
4.21189	50.5438
4.20847	50.9351
4.20506	51.2974
4.20165	51.6463
4.19825	51.8563
4.19485	52.0257
4.19146	52.2213
4.18807	52.4147
4.18469	52.5958
4.18132	52.7722
4.17795	52.9986
4.17458	53.2541
4.17123	53.4681
4.16787	53.7233
4.16453	54.0272
4.16118	54.3083
4.15785	54.5788
4.15451	54.9364
4.15119	55.3145
4.14787	55.717
4.14455	56.0816
4.14124	56.3564
4.13794	56.6835
4.13464	56.9517
4.13134	57.1717
4.12805	57.3993
4.12477	57.5252
4.12149	57.685
4.11822	57.9236
4.11495	58.0822
4.11168	58.1909
4.10843	58.3549
4.10517	58.4803
4.10192	58.6069
4.09868	58.6819
4.09545	58.7409
4.09221	58.8616
4.08899	58.9903
4.08576	59.0349
4.08255	59.0788
4.07933	59.0737
4.07613	59.0593
4.07292	59.0657
4.06973	59.0524
4.06654	59.0458
4.06335	58.9674
4.06017	58.8307
4.05699	58.7055
4.05382	58.6005
4.05065	58.5265
4.04749	58.4349
4.04433	58.5677
4.04118	58.848
4.03803	59.0455
4.03489	59.2542
4.03175	59.437
4.02862	59.5535
4.02549	59.7078
4.02237	59.9145
4.01925	60.03
4.01614	60.0445
4.01303	60.1335
4.00993	60.2433
4.00683	60.3266
4.00373	60.3606
4.00064	60.3488
3.99756	60.4061
3.99448	60.5103
3.9914	60.5553
3.98833	60.5663
3.98527	60.6254
3.98221	60.6518
3.97915	60.6552
3.9761	60.6397
3.97305	60.6582
3.97001	60.7481
3.96697	60.7938
3.96394	60.7677
3.96091	60.6895
3.95789	60.697
3.95487	60.756
3.95186	60.7458
3.94885	60.7682
3.94584	60.804
3.94284	60.8038
3.93984	60.7458
3.93685	60.6907
3.93386	60.7793
3.93088	60.8601
3.9279	60.9022
3.92493	60.8079
3.92196	60.7128
3.919	60.7
3.91604	60.7006
3.91308	60.6345
3.91013	60.5698
3.90718	60.57
3.90424	60.5809
3.9013	60.5489
3.89837	60.4297
3.89544	60.3444
3.89252	60.2461
3.8896	60.1453
3.88668	60.1164
3.88377	60.0421
3.88086	59.947
3.87796	59.8551
3.87506	59.777
3.87217	59.6137
3.86928	59.4603
3.86639	59.3724
3.86351	59.2885
3.86064	59.1282
3.85776	58.9419
3.8549	58.7822
3.85203	58.5959
3.84917	58.4517
3.84631	58.2556
3.84346	57.9918
3.84062	57.7142
3.83777	57.4066
3.83494	57.3158
3.8321	57.4061
3.82927	57.587
3.82644	57.7263
3.82362	57.7653
3.82081	57.7744
3.81799	57.7965
3.81518	57.8086
3.81238	57.7346
3.80958	57.5875
3.80678	57.4486
3.80399	57.3897
3.8012	57.3998
3.79841	57.2605
3.79563	57.1471
3.79286	57.1808
3.79008	57.1745
3.78731	57.1227
3.78455	57.069
3.78179	57.0031
3.77903	56.9759
3.77628	56.932
3.77353	56.8761
3.77079	56.7872
3.76805	56.7028
3.76531	56.6663
3.76258	56.6017
3.75985	56.4815
3.75713	56.3062
3.7544	56.1635
3.75169	56.0483
3.74898	55.8866
3.74627	55.8117
3.74356	55.7251
3.74086	55.5716
3.73816	55.4336
3.73547	55.2028
3.73278	55.0272
3.7301	54.8225
3.72741	54.6176
3.72474	54.4601
3.72206	54.3407
3.71939	54.2621
3.71673	54.0874
3.71406	53.9279
3.71141	53.7755
3.70875	53.5534
3.7061	53.3169
3.70345	53.0427
3.70081	52.8951
3.69817	52.7926
3.69553	52.6065
3.6929	52.4232
3.69027	52.254
3.68765	52.1246
3.68503	52.0191
3.68241	51.9496
3.6798	51.8065
3.67719	51.6828
3.67458	51.5985
3.67198	51.5114
3.66938	51.5092
3.66678	51.5518
3.66419	51.4825
3.66161	51.3289
3.65902	51.2617
3.65644	51.2515
3.65387	51.231
3.65129	51.1739
3.64872	51.1002
3.64616	51.1187
3.64359	51.1311
3.64103	51.1458
3.63848	51.1784
3.63593	51.1448
3.63338	51.1868
3.63084	51.2459
3.6283	51.1937
3.62576	51.1166
3.62322	51.1551
3.62069	51.087
3.61817	51.0177
3.61564	51.0191
3.61312	51.0329
3.61061	50.925
3.6081	50.7782
3.60559	50.6349
3.60308	50.5182
3.60058	50.4027
3.59808	50.3127
3.59558	50.2117
3.59309	50.0247
3.59061	49.882
3.58812	49.6945
3.58564	49.4257
3.58316	49.2612
3.58069	49.0739
3.57822	48.8862
3.57575	48.7239
3.57328	48.4922
3.57082	48.238
3.56836	47.9763
3.56591	47.7526
3.56346	47.6062
3.56101	47.3797
3.55857	47.1196
3.55613	46.8692
3.55369	46.6658
3.55126	46.5658
3.54883	46.4041
3.5464	46.1534
3.54397	45.948
3.54155	45.7688
3.53914	45.5083
3.53672	45.3043
3.53431	45.0872
3.5319	44.9219
3.5295	44.762
3.5271	44.4974
3.5247	44.2431
3.52231	44.1082
3.51991	43.9517
3.51753	43.7523
3.51514	43.4872
3.51276	43.2771
3.51038	43.1554
3.50801	42.923
3.50563	42.6545
3.50327	42.3952
3.5009	42.0984
3.49854	41.8526
3.49618	41.6589
3.49382	41.4646
3.49147	41.2354
3.48912	40.9939
3.48677	40.7918
3.48443	40.5953
3.48209	40.4127
3.47975	40.1961
3.47742	39.9526
3.47509	39.7284
3.47276	39.4791
