Name: Amblygonite (Li,Na)Al(PO_4)(F,OH)
Type: Mineral
Class: Phosphates
Subclass: 
Particle Size: 45-125um
Sample No.: P-3A
Owner: JPL
Wavelength range: VNIR-SWIR
Origin: USA, California, San Diego County, Pala.
Collected by:  Burminco
Description: 





Measurement: Hemispherical reflectance
First Column: X
Second Column: Y
X Units: Wavelength (micrometers)
Y Units: Reflectance (percent)
First X Value: 2.500
Last X Value: 0.400
Number of X Values: 2101
Additional information: p03aa.txt

2.500  35.919996
2.499  35.797836
2.498  35.990965
2.497  36.165779
2.496  36.064225
2.495  36.280547
2.494  36.484519
2.493  36.484527
2.492  36.801786
2.491  36.753196
2.490  37.112729
2.489  37.095787
2.488  37.468137
2.487  37.570433
2.486  37.711844
2.485  37.913585
2.484  38.144472
2.483  38.295427
2.482  38.549415
2.481  38.725735
2.480  39.021644
2.479  39.100715
2.478  39.506194
2.477  39.558491
2.476  39.807945
2.475  40.018458
2.474  40.375250
2.473  40.558017
2.472  40.861800
2.471  41.108358
2.470  41.361622
2.469  41.548128
2.468  41.952723
2.467  42.136317
2.466  42.504078
2.465  42.572108
2.464  43.024492
2.463  43.166583
2.462  43.531458
2.461  43.760427
2.460  44.111689
2.459  44.331778
2.458  44.673097
2.457  44.804120
2.456  45.184891
2.455  45.414512
2.454  45.619004
2.453  45.996586
2.452  46.280703
2.451  46.346900
2.450  46.698169
2.449  46.995421
2.448  47.214730
2.447  47.426760
2.446  47.651532
2.445  47.860700
2.444  48.094806
2.443  48.219867
2.442  48.466100
2.441  48.627953
2.440  48.900872
2.439  48.995493
2.438  49.201892
2.437  49.297836
2.436  49.487525
2.435  49.618024
2.434  49.790631
2.433  49.835993
2.432  49.832288
2.431  49.887370
2.430  50.029126
2.429  50.073888
2.428  50.224302
2.427  50.214216
2.426  50.285070
2.425  50.267545
2.424  50.271206
2.423  50.259937
2.422  50.242194
2.421  50.202314
2.420  50.269293
2.419  50.125104
2.418  50.049253
2.417  49.956218
2.416  49.893112
2.415  49.761991
2.414  49.569110
2.413  49.487974
2.412  49.404573
2.411  49.126679
2.410  48.926675
2.409  48.674396
2.408  48.480898
2.407  48.080754
2.406  47.836472
2.405  47.354441
2.404  46.958618
2.403  46.510814
2.402  45.996747
2.401  45.441217
2.400  44.870858
2.399  44.135355
2.398  43.464228
2.397  42.745836
2.396  42.044660
2.395  41.161686
2.394  40.360277
2.393  39.446903
2.392  38.573015
2.391  37.697141
2.390  36.794189
2.389  35.881409
2.388  34.965223
2.387  33.997938
2.386  33.147874
2.385  32.344633
2.384  31.526611
2.383  30.770621
2.382  30.095667
2.381  29.390562
2.380  28.883349
2.379  28.436380
2.378  28.020837
2.377  27.725090
2.376  27.522701
2.375  27.367752
2.374  27.346704
2.373  27.431108
2.372  27.589984
2.371  27.918567
2.370  28.334600
2.369  28.808837
2.368  29.312453
2.367  29.896229
2.366  30.627040
2.365  31.377134
2.364  32.240123
2.363  33.164142
2.362  34.216139
2.361  35.335224
2.360  36.461736
2.359  37.548717
2.358  38.677723
2.357  39.909931
2.356  41.170963
2.355  42.322441
2.354  43.438812
2.353  44.633807
2.352  45.845569
2.351  47.000470
2.350  48.039474
2.349  49.066937
2.348  50.063737
2.347  50.979282
2.346  51.812659
2.345  52.611495
2.344  53.374850
2.343  54.051402
2.342  54.595744
2.341  55.119214
2.340  55.642552
2.339  56.103063
2.338  56.438421
2.337  56.753231
2.336  57.096379
2.335  57.361048
2.334  57.542249
2.333  57.760623
2.332  57.892162
2.331  58.025972
2.330  58.193387
2.329  58.289024
2.328  58.358579
2.327  58.420798
2.326  58.482600
2.325  58.549887
2.324  58.540195
2.323  58.579876
2.322  58.544438
2.321  58.541200
2.320  58.524710
2.319  58.520746
2.318  58.453154
2.317  58.400129
2.316  58.328175
2.315  58.240040
2.314  58.208844
2.313  58.123967
2.312  58.006487
2.311  57.926975
2.310  57.770312
2.309  57.698207
2.308  57.594813
2.307  57.458939
2.306  57.278475
2.305  57.167106
2.304  56.976391
2.303  56.872613
2.302  56.707191
2.301  56.589660
2.300  56.349216
2.299  56.184181
2.298  56.056676
2.297  55.891289
2.296  55.688946
2.295  55.532766
2.294  55.331381
2.293  55.194338
2.292  55.001229
2.291  54.827216
2.290  54.658855
2.289  54.486732
2.288  54.278668
2.287  54.152826
2.286  53.907457
2.285  53.784389
2.284  53.568843
2.283  53.403042
2.282  53.232217
2.281  53.080001
2.280  52.896353
2.279  52.720573
2.278  52.556161
2.277  52.483395
2.276  52.300633
2.275  52.236822
2.274  52.012958
2.273  51.909242
2.272  51.805805
2.271  51.687413
2.270  51.540317
2.269  51.410517
2.268  51.243854
2.267  51.190804
2.266  51.067465
2.265  50.963882
2.264  50.795714
2.263  50.696270
2.262  50.516927
2.261  50.370539
2.260  50.193372
2.259  50.113824
2.258  49.898302
2.257  49.827929
2.256  49.549927
2.255  49.384805
2.254  49.210555
2.253  49.015352
2.252  48.822202
2.251  48.654496
2.250  48.403412
2.249  48.158465
2.248  47.901804
2.247  47.661072
2.246  47.380449
2.245  47.310197
2.244  46.921444
2.243  46.736850
2.242  46.425380
2.241  46.220486
2.240  45.957794
2.239  45.681918
2.238  45.400134
2.237  45.126270
2.236  44.827974
2.235  44.563812
2.234  44.245410
2.233  43.956630
2.232  43.651690
2.231  43.377212
2.230  43.039305
2.229  42.784571
2.228  42.402532
2.227  42.177634
2.226  41.797354
2.225  41.503886
2.224  41.148794
2.223  40.844276
2.222  40.516499
2.221  40.161930
2.220  39.785634
2.219  39.451319
2.218  38.889162
2.217  38.719627
2.216  38.172499
2.215  37.794069
2.214  37.300741
2.213  36.923812
2.212  36.405894
2.211  35.810327
2.210  35.457365
2.209  35.003732
2.208  34.415486
2.207  33.961994
2.206  33.453859
2.205  32.980955
2.204  32.392595
2.203  32.057510
2.202  31.491627
2.201  31.047674
2.200  30.498718
2.199  30.027869
2.198  29.591758
2.197  29.031304
2.196  28.647075
2.195  28.163963
2.194  27.652565
2.193  27.286543
2.192  26.740847
2.191  26.410954
2.190  25.986388
2.189  25.591138
2.188  25.150900
2.187  24.879439
2.186  24.423535
2.185  24.106206
2.184  23.792723
2.183  23.499116
2.182  23.231597
2.181  23.022097
2.180  22.746917
2.179  22.720857
2.178  22.604828
2.177  22.654352
2.176  22.718872
2.175  22.910909
2.174  23.110130
2.173  23.566572
2.172  23.923353
2.171  24.572430
2.170  25.239446
2.169  26.175976
2.168  27.125238
2.167  28.175216
2.166  29.322488
2.165  30.706382
2.164  32.074066
2.163  33.591937
2.162  35.031278
2.161  36.678665
2.160  38.232400
2.159  39.796424
2.158  41.366694
2.157  42.920808
2.156  44.354283
2.155  45.738235
2.154  47.023503
2.153  48.236344
2.152  49.333172
2.151  50.397772
2.150  51.463172
2.149  52.220133
2.148  52.936137
2.147  53.666272
2.146  54.211310
2.145  54.882866
2.144  55.319423
2.143  55.802694
2.142  56.149459
2.141  56.547737
2.140  56.840373
2.139  57.075208
2.138  57.326384
2.137  57.522217
2.136  57.665248
2.135  57.928501
2.134  58.045546
2.133  58.193204
2.132  58.296549
2.131  58.416016
2.130  58.550396
2.129  58.666154
2.128  58.777424
2.127  58.960669
2.126  59.059911
2.125  59.141857
2.124  59.249886
2.123  59.422590
2.122  59.570401
2.121  59.697764
2.120  59.788565
2.119  59.890714
2.118  60.004194
2.117  60.181172
2.116  60.328668
2.115  60.465989
2.114  60.553096
2.113  60.728609
2.112  60.886651
2.111  61.008871
2.110  61.104011
2.109  61.229641
2.108  61.298753
2.107  61.458156
2.106  61.637195
2.105  61.768025
2.104  61.869146
2.103  61.938652
2.102  62.057846
2.101  62.161392
2.100  62.227673
2.099  62.393171
2.098  62.510653
2.097  62.592794
2.096  62.669588
2.095  62.726800
2.094  62.791350
2.093  62.896708
2.092  62.981272
2.091  63.040260
2.090  63.031757
2.089  63.064727
2.088  63.094286
2.087  63.052558
2.086  63.030901
2.085  62.972265
2.084  62.932392
2.083  62.957029
2.082  62.936044
2.081  62.850738
2.080  62.761639
2.079  62.745862
2.078  62.663901
2.077  62.610717
2.076  62.601254
2.075  62.497884
2.074  62.422130
2.073  62.395764
2.072  62.324587
2.071  62.268122
2.070  62.287197
2.069  62.246609
2.068  62.190144
2.067  62.219463
2.066  62.225569
2.065  62.229868
2.064  62.251739
2.063  62.254650
2.062  62.260863
2.061  62.284471
2.060  62.292243
2.059  62.339334
2.058  62.416878
2.057  62.463431
2.056  62.538230
2.055  62.612513
2.054  62.660543
2.053  62.720941
2.052  62.833500
2.051  62.933540
2.050  63.053581
2.049  63.180986
2.048  63.307779
2.047  63.398017
2.046  63.535979
2.045  63.701263
2.044  63.783139
2.043  63.960025
2.042  64.129860
2.041  64.233489
2.040  64.382457
2.039  64.496415
2.038  64.665430
2.037  64.781811
2.036  64.933731
2.035  64.998659
2.034  65.139582
2.033  65.270354
2.032  65.308749
2.031  65.349593
2.030  65.440892
2.029  65.546988
2.028  65.563168
2.027  65.524562
2.026  65.592950
2.025  65.549640
2.024  65.545336
2.023  65.474650
2.022  65.424974
2.021  65.313723
2.020  65.122525
2.019  64.949247
2.018  64.798078
2.017  64.554427
2.016  64.283640
2.015  63.942503
2.014  63.609197
2.013  63.161302
2.012  62.732487
2.011  62.188231
2.010  61.632725
2.009  61.002465
2.008  60.387692
2.007  59.552041
2.006  58.804337
2.005  57.967226
2.004  57.083592
2.003  56.131044
2.002  55.290745
2.001  54.469746
2.000  53.691451
1.999  53.075821
1.998  52.555430
1.997  52.128905
1.996  51.871331
1.995  51.631510
1.994  51.653977
1.993  51.824097
1.992  52.147247
1.991  52.568497
1.990  53.014788
1.989  53.635727
1.988  54.355413
1.987  55.093828
1.986  56.030800
1.985  56.797577
1.984  57.739652
1.983  58.564678
1.982  59.439213
1.981  60.302063
1.980  61.129121
1.979  61.876221
1.978  62.554834
1.977  63.206270
1.976  63.876252
1.975  64.414082
1.974  64.978921
1.973  65.392605
1.972  65.832442
1.971  66.152596
1.970  66.536668
1.969  66.774904
1.968  67.080582
1.967  67.285202
1.966  67.577860
1.965  67.711202
1.964  67.880902
1.963  68.064558
1.962  68.160725
1.961  68.268205
1.960  68.417299
1.959  68.520113
1.958  68.646741
1.957  68.694779
1.956  68.716151
1.955  68.750809
1.954  68.797873
1.953  68.832180
1.952  68.969563
1.951  69.007671
1.950  68.990768
1.949  69.035891
1.948  69.032748
1.947  69.165239
1.946  69.103751
1.945  69.101267
1.944  69.180418
1.943  69.162027
1.942  69.103028
1.941  69.051965
1.940  69.152652
1.939  69.165668
1.938  69.178196
1.937  69.183822
1.936  69.170765
1.935  69.078141
1.934  69.192696
1.933  69.131822
1.932  69.242804
1.931  69.209734
1.930  69.252910
1.929  69.100437
1.928  69.277655
1.927  69.196355
1.926  69.135341
1.925  69.135579
1.924  69.178923
1.923  69.049436
1.922  69.106451
1.921  68.999910
1.920  68.942667
1.919  68.943641
1.918  69.001335
1.917  68.978593
1.916  68.948938
1.915  68.974873
1.914  69.090982
1.913  69.014077
1.912  69.074414
1.911  69.152071
1.910  69.155334
1.909  69.215816
1.908  69.244389
1.907  69.326240
1.906  69.389999
1.905  69.458834
1.904  69.593142
1.903  69.601769
1.902  69.720283
1.901  69.809800
1.900  69.862954
1.899  70.014658
1.898  70.031123
1.897  70.152479
1.896  70.175611
1.895  70.328223
1.894  70.397722
1.893  70.380467
1.892  70.447140
1.891  70.407539
1.890  70.487906
1.889  70.600079
1.888  70.732904
1.887  70.675725
1.886  70.780109
1.885  70.745224
1.884  70.764161
1.883  70.756337
1.882  70.802474
1.881  70.812453
1.880  70.869727
1.879  70.872275
1.878  70.953821
1.877  70.871581
1.876  70.913592
1.875  70.914640
1.874  70.856808
1.873  70.816403
1.872  70.771562
1.871  70.696508
1.870  70.582243
1.869  70.458412
1.868  70.411449
1.867  70.211491
1.866  70.089011
1.865  69.947243
1.864  69.790895
1.863  69.636630
1.862  69.451848
1.861  69.171922
1.860  68.912328
1.859  68.651818
1.858  68.505809
1.857  68.241598
1.856  68.029610
1.855  67.784705
1.854  67.650338
1.853  67.533499
1.852  67.421551
1.851  67.328814
1.850  67.244522
1.849  67.199360
1.848  67.277295
1.847  67.328956
1.846  67.443795
1.845  67.613091
1.844  67.857098
1.843  68.189566
1.842  68.593047
1.841  68.979418
1.840  69.518346
1.839  70.047670
1.838  70.688070
1.837  71.220082
1.836  71.824623
1.835  72.416718
1.834  72.952680
1.833  73.373304
1.832  73.765783
1.831  74.108078
1.830  74.393487
1.829  74.683526
1.828  74.952216
1.827  75.159735
1.826  75.310027
1.825  75.426764
1.824  75.539207
1.823  75.684477
1.822  75.772283
1.821  75.878403
1.820  75.950717
1.819  75.972015
1.818  76.030370
1.817  76.009440
1.816  76.085712
1.815  76.131223
1.814  76.171147
1.813  76.191983
1.812  76.205358
1.811  76.166814
1.810  76.166908
1.809  76.143798
1.808  76.132955
1.807  76.093994
1.806  76.161686
1.805  76.192990
1.804  76.162804
1.803  76.144869
1.802  76.072511
1.801  76.078947
1.800  76.068266
1.799  76.020929
1.798  75.935536
1.797  75.868402
1.796  75.846473
1.795  75.765949
1.794  75.697558
1.793  75.657344
1.792  75.625858
1.791  75.572680
1.790  75.479739
1.789  75.407126
1.788  75.354001
1.787  75.291156
1.786  75.246987
1.785  75.199249
1.784  75.123278
1.783  75.022790
1.782  74.928968
1.781  74.915907
1.780  74.929514
1.779  74.863022
1.778  74.823501
1.777  74.758409
1.776  74.738845
1.775  74.706074
1.774  74.629758
1.773  74.619070
1.772  74.616879
1.771  74.645674
1.770  74.633688
1.769  74.614683
1.768  74.597360
1.767  74.600396
1.766  74.622250
1.765  74.642444
1.764  74.657063
1.763  74.670807
1.762  74.722151
1.761  74.765193
1.760  74.773490
1.759  74.761367
1.758  74.834010
1.757  74.875781
1.756  74.910879
1.755  74.918294
1.754  74.995810
1.753  75.035515
1.752  75.040839
1.751  75.042667
1.750  75.051815
1.749  75.175780
1.748  75.141514
1.747  75.126927
1.746  75.108345
1.745  75.132289
1.744  75.040341
1.743  75.089934
1.742  75.130085
1.741  75.059776
1.740  75.035666
1.739  75.106523
1.738  75.089041
1.737  75.150778
1.736  75.136114
1.735  75.172720
1.734  75.227367
1.733  75.299990
1.732  75.330657
1.731  75.421707
1.730  75.535580
1.729  75.550638
1.728  75.571942
1.727  75.710330
1.726  75.831971
1.725  75.906183
1.724  76.008827
1.723  76.138155
1.722  76.212620
1.721  76.359066
1.720  76.460239
1.719  76.590798
1.718  76.717819
1.717  76.773808
1.716  76.869990
1.715  77.039025
1.714  77.018055
1.713  77.093464
1.712  77.160734
1.711  77.236478
1.710  77.354943
1.709  77.408403
1.708  77.407199
1.707  77.463129
1.706  77.503829
1.705  77.577661
1.704  77.539766
1.703  77.559770
1.702  77.587806
1.701  77.560397
1.700  77.625456
1.699  77.649861
1.698  77.628318
1.697  77.679619
1.696  77.700929
1.695  77.687417
1.694  77.708703
1.693  77.706303
1.692  77.664224
1.691  77.719213
1.690  77.687507
1.689  77.784044
1.688  77.726352
1.687  77.781115
1.686  77.825500
1.685  77.817840
1.684  77.739708
1.683  77.755279
1.682  77.799819
1.681  77.862874
1.680  77.746911
1.679  77.738869
1.678  77.752158
1.677  77.840564
1.676  77.821851
1.675  77.726137
1.674  77.799012
1.673  77.851449
1.672  77.772835
1.671  77.798241
1.670  77.745266
1.669  77.799828
1.668  77.757045
1.667  77.738222
1.666  77.768616
1.665  77.740136
1.664  77.691584
1.663  77.711441
1.662  77.700345
1.661  77.592749
1.660  77.703120
1.659  77.635841
1.658  77.639202
1.657  77.559743
1.656  77.618737
1.655  77.569328
1.654  77.490312
1.653  77.536450
1.652  77.545946
1.651  77.601273
1.650  77.511570
1.649  77.544204
1.648  77.516211
1.647  77.511731
1.646  77.496712
1.645  77.486469
1.644  77.456195
1.643  77.498926
1.642  77.449003
1.641  77.410434
1.640  77.445592
1.639  77.480326
1.638  77.456154
1.637  77.440990
1.636  77.457209
1.635  77.431471
1.634  77.329617
1.633  77.357348
1.632  77.408746
1.631  77.251025
1.630  77.286368
1.629  77.358266
1.628  77.186745
1.627  77.156093
1.626  77.127373
1.625  77.107862
1.624  77.033075
1.623  77.032680
1.622  76.981229
1.621  76.938114
1.620  76.878063
1.619  76.817757
1.618  76.797854
1.617  76.655079
1.616  76.627593
1.615  76.648226
1.614  76.539798
1.613  76.588907
1.612  76.412078
1.611  76.372265
1.610  76.378064
1.609  76.313101
1.608  76.285133
1.607  76.293752
1.606  76.186424
1.605  76.127976
1.604  76.196774
1.603  76.211958
1.602  76.107414
1.601  76.142514
1.600  76.111569
1.599  76.052894
1.598  76.013425
1.597  75.985340
1.596  75.924815
1.595  75.875633
1.594  75.872959
1.593  75.767159
1.592  75.701571
1.591  75.659431
1.590  75.570074
1.589  75.508415
1.588  75.504384
1.587  75.444117
1.586  75.362905
1.585  75.206996
1.584  75.120869
1.583  75.019005
1.582  74.942942
1.581  74.780182
1.580  74.687846
1.579  74.547331
1.578  74.458779
1.577  74.358660
1.576  74.141974
1.575  74.074437
1.574  73.888065
1.573  73.776555
1.572  73.604477
1.571  73.529979
1.570  73.276046
1.569  73.102732
1.568  72.920610
1.567  72.766954
1.566  72.658591
1.565  72.535569
1.564  72.345482
1.563  72.128158
1.562  71.931114
1.561  71.760096
1.560  71.626504
1.559  71.393086
1.558  71.207374
1.557  71.022736
1.556  70.832748
1.555  70.715773
1.554  70.620215
1.553  70.446394
1.552  70.254711
1.551  70.138290
1.550  70.023921
1.549  69.950963
1.548  69.849756
1.547  69.751785
1.546  69.647190
1.545  69.613117
1.544  69.592609
1.543  69.517775
1.542  69.451742
1.541  69.508541
1.540  69.509558
1.539  69.479755
1.538  69.532496
1.537  69.661003
1.536  69.772584
1.535  69.936869
1.534  70.120587
1.533  70.283155
1.532  70.445627
1.531  70.646447
1.530  70.834263
1.529  71.024088
1.528  71.195962
1.527  71.413506
1.526  71.590282
1.525  71.793867
1.524  72.008243
1.523  72.194460
1.522  72.388256
1.521  72.659127
1.520  72.881026
1.519  73.095439
1.518  73.308890
1.517  73.500137
1.516  73.720514
1.515  73.981934
1.514  74.191477
1.513  74.411916
1.512  74.621516
1.511  74.877640
1.510  75.092008
1.509  75.305568
1.508  75.505405
1.507  75.666435
1.506  75.840885
1.505  76.061717
1.504  76.244396
1.503  76.362777
1.502  76.501522
1.501  76.684895
1.500  76.807544
1.499  76.932519
1.498  77.091111
1.497  77.222430
1.496  77.303647
1.495  77.359781
1.494  77.452489
1.493  77.545331
1.492  77.586062
1.491  77.655123
1.490  77.765766
1.489  77.800675
1.488  77.855152
1.487  77.903191
1.486  77.923459
1.485  77.942202
1.484  78.001947
1.483  78.086391
1.482  78.192415
1.481  78.220179
1.480  78.283626
1.479  78.356760
1.478  78.512497
1.477  78.594506
1.476  78.689350
1.475  78.808886
1.474  78.949402
1.473  79.066147
1.472  79.198871
1.471  79.337119
1.470  79.469105
1.469  79.594495
1.468  79.668571
1.467  79.760708
1.466  79.792363
1.465  79.876201
1.464  80.057928
1.463  80.078372
1.462  80.166495
1.461  80.257315
1.460  80.324509
1.459  80.362665
1.458  80.426699
1.457  80.495902
1.456  80.508672
1.455  80.546438
1.454  80.535042
1.453  80.412586
1.452  80.335410
1.451  80.260017
1.450  80.043542
1.449  79.866920
1.448  79.624422
1.447  79.456218
1.446  79.579130
1.445  79.780683
1.444  80.003226
1.443  80.253177
1.442  80.490668
1.441  80.604032
1.440  80.678093
1.439  80.758381
1.438  80.796836
1.437  80.748548
1.436  80.702014
1.435  80.613163
1.434  80.399453
1.433  80.181263
1.432  80.022561
1.431  79.808001
1.430  79.644067
1.429  79.548565
1.428  79.557996
1.427  79.617086
1.426  79.688109
1.425  79.856618
1.424  79.922589
1.423  79.810546
1.422  79.596882
1.421  79.192134
1.420  78.697305
1.419  78.087572
