Name: Dolomite CaMg(CO_3)_2
Type: Mineral
Class: Carbonates
Subclass: 
Particle Size: 45-125um
Sample No.: C-5C
Owner: JPL
Wavelength range: IR
Origin: USA, California, Los Angeles County, Palos Verdes
Collected by Burminco
Description: 





Measurement: Hemispherical reflectance
First Column: X
Second Column: Y
X Units:  Wavelength (micrometers)
Y Units:  Reflectance (percent)
First X Value: 15.3853
Last X Value: 2.00032
Number of X Values: 2256
Additional information: c05ca.txt
 
15.3853	6.55227
15.3397	6.76737
15.2945	6.79316
15.2495	6.68573
15.2048	6.89514
15.1603	7.35819
15.1161	7.50456
15.0722	7.34877
15.0285	7.45018
14.9851	7.84617
14.9419	7.8878
14.8989	7.98736
14.8563	8.15142
14.8138	8.2436
14.7716	8.56533
14.7296	8.76894
14.6879	8.73141
14.6464	8.95142
14.6052	9.19966
14.5641	9.25957
14.5233	9.11623
14.4828	8.98637
14.4424	8.96347
14.4023	9.00851
14.3624	9.02316
14.3227	8.88022
14.2833	8.51524
14.244	8.32199
14.205	8.06261
14.1662	7.69766
14.1276	7.07665
14.0892	6.39004
14.051	5.86408
14.0131	5.35133
13.9753	4.86631
13.9377	4.37967
13.9004	3.8762
13.8632	3.57632
13.8262	3.55022
13.7895	3.74549
13.7529	4.11525
13.7165	3.98156
13.6803	2.81529
13.6443	1.66146
13.6085	1.44753
13.5729	1.80969
13.5374	2.58267
13.5022	3.8303
13.4671	5.11557
13.4322	6.42848
13.3975	7.84443
13.363	9.321
13.3286	10.8023
13.2944	12.3671
13.2604	13.9376
13.2266	15.697
13.193	17.2782
13.1595	18.2718
13.1262	19.1893
13.093	20.1483
13.06	21.0992
13.0272	21.9804
12.9946	22.6614
12.9621	23.1118
12.9298	23.6977
12.8976	24.2212
12.8656	24.2829
12.8337	24.273
12.8021	24.4885
12.7705	24.7975
12.7391	25.133
12.7079	25.4787
12.6769	25.736
12.6459	26.1503
12.6152	26.4182
12.5845	26.5494
12.5541	26.7009
12.5238	26.8511
12.4936	27.0834
12.4635	27.1925
12.4337	27.1285
12.4039	27.0923
12.3743	27.0767
12.3448	26.993
12.3155	27.093
12.2863	27.1179
12.2573	27.0056
12.2284	26.822
12.1996	26.5522
12.171	26.163
12.1425	25.9735
12.1141	25.9209
12.0859	25.4381
12.0578	24.9301
12.0298	24.5216
12.0019	23.9132
11.9742	23.4082
11.9466	22.898
11.9192	22.1049
11.8918	21.3294
11.8646	20.391
11.8375	18.934
11.8106	16.7772
11.7837	13.79
11.757	10.5432
11.7304	8.27878
11.7039	8.80358
11.6776	11.1087
11.6513	12.0463
11.6252	11.6397
11.5992	10.7735
11.5733	9.85402
11.5475	9.10036
11.5219	8.62327
11.4963	8.34253
11.4709	8.28552
11.4455	8.39437
11.4203	8.6227
11.3952	9.38639
11.3702	11.098
11.3454	13.7692
11.3206	17.352
11.2959	21.1986
11.2714	24.4999
11.2469	27.3827
11.2226	29.9758
11.1983	32.0656
11.1742	33.3547
11.1502	32.795
11.1263	28.3661
11.1024	22.4091
11.0787	18.8895
11.0551	17.2946
11.0316	16.6472
11.0081	16.5082
10.9848	16.5806
10.9616	16.7677
10.9385	16.981
10.9154	17.1469
10.8925	17.2245
10.8697	17.3086
10.8469	17.4411
10.8243	17.5204
10.8017	17.6009
10.7793	17.6634
10.7569	17.805
10.7346	17.9538
10.7125	18.1318
10.6904	18.2485
10.6684	18.3843
10.6465	18.5161
10.6247	18.5026
10.6029	18.3042
10.5813	18.2072
10.5597	18.1932
10.5383	18.2308
10.5169	18.2831
10.4956	18.3159
10.4744	18.4541
10.4533	18.7259
10.4323	18.9181
10.4113	19.1059
10.3904	19.0379
10.3697	18.7309
10.349	18.4201
10.3284	18.2694
10.3078	18.1001
10.2874	17.9167
10.267	17.8313
10.2467	17.8325
10.2265	17.8894
10.2064	17.8908
10.1863	17.8304
10.1663	17.8814
10.1464	17.9021
10.1266	17.8639
10.1069	17.6361
10.0872	17.3357
10.0676	17.2245
10.0481	17.2057
10.0287	17.2644
10.0093	17.4066
9.99005	17.4486
9.97084	17.3783
9.95169	17.2062
9.93263	16.8544
9.91364	16.5675
9.89472	16.5694
9.87587	16.5188
9.8571	16.3681
9.83839	16.1841
9.81976	15.9655
9.80119	15.5133
9.78271	14.8343
9.76428	13.9998
9.74592	13.3401
9.72764	12.8826
9.70943	12.4913
9.69128	12.0169
9.6732	11.5693
9.65518	11.2836
9.63724	11.0238
9.61935	11.1626
9.60155	11.8032
9.5838	12.4602
9.56611	13.1348
9.5485	13.9102
9.53094	14.7706
9.51345	15.3355
9.49604	15.579
9.47867	15.6379
9.46137	15.4514
9.44414	15.1326
9.42697	14.8245
9.40986	14.4605
9.39281	14.0089
9.37583	13.2641
9.35891	12.4935
9.34204	11.8197
9.32524	11.1173
9.3085	10.5902
9.29182	10.1048
9.27519	9.83572
9.25863	10.0075
9.24213	10.3111
9.22568	10.395
9.2093	10.1802
9.19297	9.85217
9.17669	9.58279
9.16048	9.41738
9.14433	9.14948
9.12823	8.38945
9.11218	7.29368
9.0962	6.74603
9.08027	7.1217
9.06439	8.27401
9.04858	9.41129
9.03281	10.1314
9.0171	10.3839
9.00145	10.1947
8.98585	9.95997
8.9703	10.0315
8.9548	10.2075
8.93937	10.2942
8.92398	10.1868
8.90865	10.0693
8.89337	10.0364
8.87814	10.0189
8.86296	9.97891
8.84784	10.0815
8.83277	10.2789
8.81774	10.3418
8.80277	10.275
8.78786	10.1547
8.77298	9.83043
8.75816	9.47355
8.7434	9.18668
8.72868	8.95184
8.714	8.81207
8.69938	8.84215
8.68481	9.03209
8.67029	9.19219
8.65581	9.25022
8.64139	9.15317
8.62701	9.21826
8.61268	9.32336
8.5984	9.1932
8.58416	8.95463
8.56997	8.69422
8.55583	8.54389
8.54174	8.27747
8.52769	8.05276
8.51368	7.92151
8.49973	7.78319
8.48582	7.51701
8.47195	7.27357
8.45813	7.0387
8.44436	6.94344
8.43062	6.84562
8.41693	6.81179
8.4033	6.8707
8.3897	6.89923
8.37614	6.92029
8.36264	7.07183
8.34917	7.21812
8.33574	7.37569
8.32236	7.70349
8.30903	8.0772
8.29573	8.24632
8.28248	8.23217
8.26927	8.20809
8.2561	8.28271
8.24298	8.36875
8.2299	8.29177
8.21685	8.14906
8.20385	7.97451
8.19089	7.6883
8.17797	7.27883
8.16509	7.03241
8.15225	6.9509
8.13946	6.83244
8.1267	6.70006
8.11398	6.60065
8.10131	6.63967
8.08867	6.73991
8.07606	6.8328
8.0635	6.92509
8.05099	7.02917
8.0385	7.16279
8.02606	7.28705
8.01366	7.3745
8.00129	7.32483
7.98896	7.1906
7.97667	7.26618
7.96442	7.36486
7.9522	7.41272
7.94002	7.4396
7.92788	7.50769
7.91578	7.52476
7.90371	7.50888
7.89168	7.59284
7.87969	7.66953
7.86773	7.57091
7.85581	7.63074
7.84392	7.72637
7.83207	7.71113
7.82026	7.62532
7.80849	7.53654
7.79674	7.39691
7.78503	7.29605
7.77337	7.21538
7.76173	7.09215
7.75012	6.96898
7.73856	6.94039
7.72703	6.99068
7.71553	7.00185
7.70406	6.89098
7.69263	6.8808
7.68123	6.9346
7.66987	7.00912
7.65855	7.08464
7.64725	7.20945
7.63598	7.38536
7.62475	7.44047
7.61356	7.46922
7.60239	7.42825
7.59126	7.41198
7.58017	7.43259
7.5691	7.43952
7.55806	7.48573
7.54707	7.52444
7.5361	7.48505
7.52516	7.45485
7.51425	7.42659
7.50338	7.43749
7.49253	7.45967
7.48172	7.43853
7.47094	7.46855
7.46019	7.51177
7.44947	7.64208
7.43879	7.74004
7.42813	7.7867
7.4175	7.89008
7.4069	7.94358
7.39634	8.05716
7.3858	8.19053
7.37529	8.16746
7.36482	8.19637
7.35437	8.32702
7.34396	8.45055
7.33357	8.53344
7.32321	8.69742
7.31288	8.85562
7.30258	8.92773
7.29231	9.00994
7.28207	9.09432
7.27185	9.23941
7.26167	9.4058
7.25152	9.517
7.24139	9.68253
7.23129	9.90001
7.22122	10.1191
7.21117	10.289
7.20116	10.4886
7.19117	10.7608
7.18121	11.1166
7.17128	11.4878
7.16137	11.8152
7.1515	12.0743
7.14164	12.43
7.13182	12.9246
7.12203	13.4766
7.11225	13.8991
7.10251	14.2314
7.0928	14.5585
7.08311	15.0408
7.07344	15.8535
7.06381	17.0109
7.0542	18.3911
7.04461	19.9283
7.03506	21.3881
7.02552	22.5051
7.01601	23.2893
7.00653	23.785
6.99708	24.0164
6.98765	24.106
6.97824	24.2197
6.96886	24.4834
6.95951	24.6489
6.95018	24.6371
6.94087	24.6498
6.9316	24.7
6.92234	24.8015
6.91311	24.9783
6.90391	25.1702
6.89473	25.3404
6.88557	25.5217
6.87644	25.7471
6.86733	26.0724
6.85824	26.2208
6.84918	26.31
6.84015	26.4879
6.83114	26.8034
6.82215	27.073
6.81319	27.2588
6.80424	27.5779
6.79532	28.029
6.78643	28.2219
6.77756	28.3308
6.76871	28.5507
6.75989	28.7791
6.75109	29.057
6.74231	29.3745
6.73355	29.704
6.72482	30.1802
6.71611	30.7057
6.70742	31.0911
6.69875	31.4078
6.69011	31.9374
6.68149	32.5733
6.67289	33.1317
6.66431	33.8243
6.65576	34.6731
6.64722	35.8355
6.63871	37.2315
6.63022	38.1926
6.62175	38.9137
6.61331	39.7069
6.60488	40.3902
6.59648	41.0417
6.5881	41.6243
6.57974	42.2467
6.5714	42.749
6.56308	42.8855
6.55478	43.1337
6.54651	43.4037
6.53825	43.6754
6.53001	44.0098
6.5218	44.5658
6.51361	44.9083
6.50544	45.2792
6.49729	45.9763
6.48915	46.3303
6.48104	46.28
6.47295	46.3057
6.46488	46.4189
6.45683	46.5327
6.4488	46.5439
6.44079	46.4661
6.4328	46.42
6.42482	46.384
6.41687	46.448
6.40894	45.9562
6.40103	44.9399
6.39314	44.0283
6.38526	43.0557
6.37741	41.9595
6.36957	40.0768
6.36176	36.8852
6.35396	32.7284
6.34618	28.3631
6.33843	24.1911
6.33069	20.7594
6.32297	17.9403
6.31527	15.5214
6.30758	13.4631
6.29992	11.653
6.29227	9.93202
6.28465	8.5206
6.27704	7.40638
6.26945	6.51645
6.26188	5.72755
6.25432	5.06369
6.24679	4.42401
6.23927	3.90805
6.23177	3.44139
6.22429	3.03779
6.21683	2.73134
6.20938	2.529
6.20195	2.27531
6.19454	2.05824
6.18715	1.842
6.17978	1.70131
6.17242	1.49591
6.16508	1.32309
6.15776	1.22991
6.15045	1.05807
6.14317	0.879222
6.1359	0.830235
6.12864	0.766207
6.12141	0.638523
6.11419	0.594439
6.10699	0.581128
6.0998	0.559645
6.09263	0.546306
6.08549	0.488197
6.07835	0.471965
6.07123	0.518635
6.06413	0.597157
6.05705	0.543137
6.04998	0.482248
6.04293	0.58291
6.0359	0.659084
6.02888	0.590766
6.02187	0.569055
6.01489	0.61042
6.00792	0.710183
6.00096	0.777397
5.99403	0.709751
5.98711	0.690477
5.9802	0.797405
5.97331	0.867942
5.96644	0.925002
5.95958	0.929948
5.95274	0.945697
5.94591	0.985813
5.9391	1.02283
5.9323	1.11133
5.92552	1.15677
5.91876	1.196
5.91201	1.25467
5.90528	1.29874
5.89856	1.35458
5.89186	1.45682
5.88517	1.50293
5.8785	1.43741
5.87184	1.41084
5.8652	1.50502
5.85857	1.7307
5.85196	1.78612
5.84536	1.7253
5.83878	1.8184
5.83221	1.95627
5.82566	2.0021
5.81912	2.085
5.81259	2.07864
5.80608	2.10168
5.79959	2.08302
5.79311	2.11614
5.78665	2.23871
5.78019	2.267
5.77376	2.25847
5.76734	2.32744
5.76093	2.42238
5.75453	2.47196
5.74815	2.52438
5.74179	2.45261
5.73543	2.45426
5.7291	2.57154
5.72277	2.70852
5.71646	2.84414
5.71017	2.89602
5.70389	2.91383
5.69762	2.92911
5.69136	2.93762
5.68513	2.96236
5.6789	2.944
5.67268	2.98129
5.66648	3.06504
5.6603	3.04606
5.65413	2.9935
5.64797	2.88402
5.64182	2.82227
5.63569	2.81307
5.62957	2.78666
5.62347	2.7446
5.61737	2.74522
5.61129	2.63851
5.60522	2.55351
5.59917	2.4623
5.59313	2.37073
5.5871	2.27365
5.58109	2.1528
5.57509	2.06041
5.5691	2.01639
5.56312	1.87057
5.55716	1.71386
5.55121	1.62966
5.54528	1.55374
5.53935	1.38871
5.53344	1.27005
5.52754	1.23072
5.52166	1.21844
5.51578	1.19533
5.50992	1.15771
5.50407	1.1595
5.49823	1.16721
5.49241	1.18662
5.4866	1.20836
5.4808	1.18913
5.47501	1.2172
5.46923	1.39235
5.46347	1.69516
5.45772	2.07954
5.45198	2.57804
5.44625	3.18463
5.44054	3.91443
5.43484	4.78622
5.42914	5.71674
5.42347	6.67015
5.4178	7.63537
5.41214	8.53991
5.4065	9.42019
5.40087	10.3131
5.39525	11.163
5.38964	11.9054
5.38404	12.5621
5.37846	13.2311
5.37288	13.8496
5.36732	14.5298
5.36177	15.2649
5.35623	15.9127
5.35071	16.5006
5.34519	17.0723
5.33968	17.5442
5.33419	17.9523
5.32871	18.3645
5.32324	18.7507
5.31778	19.0441
5.31233	19.4425
5.30689	19.9198
5.30147	20.33
5.29605	20.8101
5.29065	21.3715
5.28525	21.9296
5.27987	22.5161
5.2745	23.132
5.26914	23.8723
5.26379	24.556
5.25845	25.3151
5.25312	26.0749
5.24781	26.8459
5.2425	27.6165
5.23721	28.4163
5.23192	29.2291
5.22665	29.8692
5.22138	30.4972
5.21613	31.2647
5.21089	31.9768
5.20566	32.5565
5.20044	33.1095
5.19522	33.6122
5.19002	34.1438
5.18483	34.7456
5.17965	35.3233
5.17448	35.9
5.16933	36.5621
5.16418	37.2388
5.15904	37.7967
5.15391	38.2827
5.14879	38.8497
5.14368	39.3478
5.13859	39.745
5.1335	40.097
5.12842	40.4244
5.12335	40.7078
5.1183	41.042
5.11325	41.329
5.10821	41.5025
5.10318	41.6171
5.09817	41.6125
5.09316	41.3978
5.08816	40.9468
5.08317	40.1735
5.07819	38.6803
5.07322	36.4327
5.06826	34.1414
5.06331	33.0711
5.05837	33.9902
5.05344	36.3662
5.04852	39.0228
5.04361	41.3519
5.03871	43.2631
5.03382	44.7888
5.02894	45.9531
5.02406	46.8094
5.0192	47.4464
5.01435	47.9131
5.0095	48.3032
5.00467	48.672
4.99984	48.9535
4.99502	49.1428
4.99021	49.3671
4.98542	49.5374
4.98063	49.7283
4.97585	50.0015
4.97108	50.3013
4.96632	50.4813
4.96156	50.5601
4.95682	50.6958
4.95209	50.8831
4.94736	51.0641
4.94264	51.1665
4.93794	51.2841
4.93324	51.4028
4.92855	51.5079
4.92387	51.591
4.9192	51.6826
4.91453	51.7595
4.90988	51.8252
4.90524	51.8643
4.9006	51.9176
4.89597	51.9615
4.89135	52.0409
4.88674	52.1536
4.88214	52.2316
4.87755	52.2745
4.87296	52.317
4.86839	52.3044
4.86382	52.2731
4.85926	52.2561
4.85471	52.3239
4.85017	52.3645
4.84564	52.299
4.84111	52.238
4.8366	52.2593
4.83209	52.265
4.82759	52.2439
4.8231	52.21
4.81862	52.1485
4.81415	52.1108
4.80968	52.0579
4.80522	51.9139
4.80077	51.8255
4.79633	51.7581
4.7919	51.7268
4.78747	51.6286
4.78306	51.4781
4.77865	51.3984
4.77425	51.3841
4.76986	51.1983
4.76547	50.9254
4.7611	50.7752
4.75673	50.6372
4.75237	50.39
4.74802	50.1378
4.74367	49.8488
4.73934	49.4991
4.73501	49.1132
4.73069	48.7085
4.72638	48.1695
4.72207	47.5492
4.71777	46.8786
4.71348	46.0726
4.7092	45.2043
4.70493	44.376
4.70066	43.4054
4.69641	42.2705
4.69216	41.1308
4.68791	39.8175
4.68368	38.2818
4.67945	36.5554
4.67523	34.6509
4.67102	32.671
4.66682	30.8001
4.66262	29.1268
4.65843	27.6741
4.65425	26.6122
4.65007	25.8229
4.64591	25.1132
4.64175	24.6143
4.6376	24.3474
4.63345	24.156
4.62932	23.9824
4.62519	23.8458
4.62106	23.7103
4.61695	23.6088
4.61284	23.7444
4.60874	24.0473
4.60465	24.4887
4.60056	25.0905
4.59648	25.8083
4.59241	26.6255
4.58835	27.5495
4.58429	28.4731
4.58024	29.3292
4.5762	30.1803
4.57216	30.9669
4.56814	31.6758
4.56411	32.3767
4.5601	33.0201
4.55609	33.662
4.55209	34.3167
4.5481	34.9379
4.54411	35.4612
4.54013	35.865
4.53616	36.2844
4.5322	36.7555
4.52824	37.2863
4.52429	37.6488
4.52034	38.0215
4.51641	38.6087
4.51247	39.3656
4.50855	40.3184
4.50463	41.4149
4.50072	42.4644
4.49682	43.4154
4.49292	44.0891
4.48903	44.4266
4.48515	44.5158
4.48127	44.3925
4.4774	44.0237
4.47354	43.4784
4.46968	42.7883
4.46584	41.9464
4.46199	41.0768
4.45815	40.1915
4.45432	39.2941
4.4505	38.5262
4.44668	38.0207
4.44287	37.7058
4.43907	37.5589
4.43527	37.5977
4.43148	37.8225
4.4277	38.2638
4.42392	38.8338
4.42015	39.5481
4.41638	40.3592
4.41262	41.1321
4.40887	41.9372
4.40513	42.7355
4.40139	43.4873
4.39765	44.2711
4.39393	45.0499
4.39021	45.7734
4.38649	46.4912
4.38278	47.1489
4.37908	47.7845
4.37539	48.3887
4.3717	48.8647
4.36801	49.3444
4.36434	49.8761
4.36067	50.2707
4.357	50.4597
4.35335	50.3108
4.34969	49.7363
4.34605	48.5991
4.34241	47.077
4.33877	45.7829
4.33514	44.9054
4.33152	44.1957
4.32791	43.6711
4.3243	43.2756
4.32069	42.8557
4.3171	42.3887
4.31351	41.9809
4.30992	41.6196
4.30634	41.4971
4.30277	41.5253
4.2992	41.4797
4.29564	41.4297
4.29208	41.3652
4.28853	41.1307
4.28499	40.8987
4.28145	40.8792
4.27792	41.0212
4.27439	41.3919
4.27087	41.8988
4.26735	42.4307
4.26384	42.9089
4.26034	43.2729
4.25684	43.6076
4.25335	43.8025
4.24986	43.8706
4.24638	43.7983
4.24291	43.6505
4.23944	43.6583
4.23598	43.8776
4.23252	44.0648
4.22906	44.162
4.22562	44.1107
4.22218	44.0278
4.21874	44.0111
4.21531	44.0839
4.21189	44.265
4.20847	44.658
4.20506	45.1419
4.20165	45.608
4.19825	45.8256
4.19485	45.7985
4.19146	45.7886
4.18807	45.6355
4.18469	45.3014
4.18132	45.031
4.17795	44.7111
4.17458	44.342
4.17123	43.9878
4.16787	43.5705
4.16453	43.0616
4.16118	42.5331
4.15785	41.9142
4.15451	41.2521
4.15119	40.6472
4.14787	40.3269
4.14455	40.3327
4.14124	40.3903
4.13794	40.3407
4.13464	40.2797
4.13134	40.2237
4.12805	40.0595
4.12477	39.9309
4.12149	39.802
4.11822	39.5303
4.11495	39.2239
4.11168	39.0067
4.10843	38.7023
4.10517	38.3345
4.10192	37.982
4.09868	37.5727
4.09545	37.1279
4.09221	36.5991
4.08899	36.0042
4.08576	35.346
4.08255	34.6045
4.07933	33.9676
4.07613	33.2951
4.07292	32.4378
4.06973	31.5556
4.06654	30.7319
4.06335	29.8672
4.06017	28.9296
4.05699	28.0141
4.05382	27.0409
4.05065	25.9508
4.04749	24.9331
4.04433	23.9251
4.04118	22.7881
4.03803	21.5811
4.03489	20.3604
4.03175	19.1373
4.02862	17.952
4.02549	16.72
4.02237	15.4282
4.01925	14.1324
4.01614	12.8925
4.01303	11.6897
4.00993	10.4396
4.00683	9.29842
4.00373	8.38248
4.00064	7.5752
3.99756	6.83769
3.99448	6.16729
3.9914	5.53823
3.98833	5.05605
3.98527	4.52341
3.98221	3.98857
3.97915	3.55722
3.9761	3.20119
3.97305	2.93755
3.97001	2.80467
3.96697	2.73091
3.96394	2.71212
3.96091	2.65882
3.95789	2.52745
3.95487	2.44079
3.95186	2.48225
3.94885	2.54589
3.94584	2.50447
3.94284	2.52204
3.93984	2.62596
3.93685	2.68929
3.93386	2.72561
3.93088	2.71355
3.9279	2.77639
3.92493	2.78454
3.92196	2.72423
3.919	2.77212
3.91604	2.81239
3.91308	2.9521
3.91013	3.13767
3.90718	3.23938
3.90424	3.42504
3.9013	3.70092
3.89837	3.93051
3.89544	4.16366
3.89252	4.24782
3.8896	4.30674
3.88668	4.26378
3.88377	4.279
3.88086	4.38116
3.87796	4.40584
3.87506	4.48398
3.87217	4.62804
3.86928	4.71444
3.86639	4.87112
3.86351	5.03656
3.86064	5.35681
3.85776	5.80454
3.8549	6.3673
3.85203	7.1948
3.84917	8.12406
3.84631	8.95172
3.84346	9.53146
3.84062	9.80568
3.83777	9.80789
3.83494	9.63916
3.8321	9.2264
3.82927	8.66763
3.82644	8.06702
3.82362	7.55102
3.82081	6.97661
3.81799	6.37836
3.81518	5.88094
3.81238	5.45767
3.80958	5.1181
3.80678	4.88565
3.80399	4.91041
3.8012	5.13124
3.79841	5.38232
3.79563	5.66147
3.79286	6.03098
3.79008	6.59204
3.78731	7.24538
3.78455	7.7922
3.78179	8.36
3.77903	9.10426
3.77628	9.94028
3.77353	10.7388
3.77079	11.5475
3.76805	12.493
3.76531	13.5386
3.76258	14.649
3.75985	15.9497
3.75713	17.391
3.7544	19.0517
3.75169	20.8547
3.74898	22.7505
3.74627	24.7689
3.74356	26.7872
3.74086	28.6258
3.73816	30.2486
3.73547	31.5341
3.73278	32.5473
3.7301	33.5085
3.72741	34.3541
3.72474	34.9704
3.72206	35.386
3.71939	35.8341
3.71673	36.3155
3.71406	36.7666
3.71141	37.1684
3.70875	37.5753
3.7061	38.0444
3.70345	38.4905
3.70081	38.8848
3.69817	39.3165
3.69553	39.789
3.6929	40.2914
3.69027	40.7675
3.68765	41.1457
3.68503	41.4756
3.68241	41.7839
3.6798	42.0277
3.67719	42.1719
3.67458	42.3129
3.67198	42.4408
3.66938	42.5467
3.66678	42.6566
3.66419	42.8018
3.66161	42.9636
3.65902	42.9374
3.65644	42.9288
3.65387	42.9736
3.65129	43.0343
3.64872	43.0327
3.64616	43.0429
3.64359	43.003
3.64103	42.9265
3.63848	42.916
3.63593	42.9392
3.63338	42.8026
3.63084	42.6817
3.6283	42.6349
3.62576	42.5613
3.62322	42.4361
3.62069	42.3082
3.61817	42.1592
3.61564	42.0641
3.61312	41.9602
3.61061	41.8045
3.6081	41.6432
3.60559	41.5024
3.60308	41.4552
3.60058	41.3524
3.59808	41.1859
3.59558	41.0155
3.59309	40.8808
3.59061	40.8006
3.58812	40.7041
3.58564	40.5374
3.58316	40.3291
3.58069	40.0251
3.57822	39.7141
3.57575	39.4195
3.57328	39.0176
3.57082	38.6442
3.56836	38.1688
3.56591	37.5285
3.56346	36.7315
3.56101	35.7406
3.55857	34.5768
3.55613	33.2169
3.55369	31.752
3.55126	30.4945
3.54883	29.7167
3.5464	29.6781
3.54397	29.9926
3.54155	30.3174
3.53914	30.4637
3.53672	30.1736
3.53431	29.5393
3.5319	28.781
3.5295	27.9994
3.5271	27.0782
3.5247	26.0829
3.52231	25.0296
3.51991	23.801
3.51753	22.3614
3.51514	20.709
3.51276	19.078
3.51038	17.4802
3.50801	15.8666
3.50563	14.3268
3.50327	12.7704
3.5009	11.3251
3.49854	10.0714
3.49618	8.98582
3.49382	8.06462
3.49147	7.27346
3.48912	6.68947
3.48677	6.26036
3.48443	5.9137
3.48209	5.60383
3.47975	5.36381
3.47742	5.16555
3.47509	4.89123
3.47276	4.64936
3.47044	4.47912
3.46812	4.39268
3.4658	4.32151
