Name: Fluorite CaF_2
Type: Mineral
Class: Halides
Subclass: 
Particle Size: 0-45um
Sample No.: H-2A
Owner: JPL
Wavelength range: IR
Origin: USA, Illinois, Hardin County, Rosiclare
Collected by Ward's
Description:  Purple fluorite. 





Measurement: Hemispherical reflectance
First Column: X
Second Column: Y
X Units:  Wavelength (micrometers)
Y Units:  Reflectance (percent)
First X Value: 15.3853
Last X Value: 2.00032
Number of X Values: 2256
Additional information: h02aa.txt
 
15.3853	0.477223
15.3397	0.587677
15.2945	0.755815
15.2495	0.883108
15.2048	0.933861
15.1603	0.748685
15.1161	0.705402
15.0722	0.882716
15.0285	1.04634
14.9851	1.18176
14.9419	1.36912
14.8989	1.37896
14.8563	1.42121
14.8138	1.5723
14.7716	1.67061
14.7296	1.80323
14.6879	1.83606
14.6464	1.66878
14.6052	1.71679
14.5641	2.11718
14.5233	2.38029
14.4828	2.53323
14.4424	2.50216
14.4023	2.41574
14.3624	2.58467
14.3227	2.89356
14.2833	3.27167
14.244	3.30755
14.205	3.3964
14.1662	3.70312
14.1276	3.75396
14.0892	3.59733
14.051	3.79584
14.0131	4.09872
13.9753	4.11464
13.9377	4.16478
13.9004	4.30213
13.8632	4.47558
13.8262	4.47078
13.7895	4.33588
13.7529	4.55167
13.7165	4.82729
13.6803	5.09029
13.6443	5.33512
13.6085	5.45948
13.5729	5.69234
13.5374	5.98663
13.5022	6.3297
13.4671	6.73686
13.4322	7.15251
13.3975	7.41385
13.363	7.69557
13.3286	8.13826
13.2944	8.64687
13.2604	8.98316
13.2266	9.224
13.193	9.39675
13.1595	9.69662
13.1262	10.1024
13.093	10.5406
13.06	11.0335
13.0272	11.4467
12.9946	11.6514
12.9621	11.8878
12.9298	12.4462
12.8976	12.9385
12.8656	13.299
12.8337	13.8134
12.8021	14.2805
12.7705	14.6608
12.7391	15.1978
12.7079	15.6662
12.6769	16.1579
12.6459	16.8169
12.6152	17.4783
12.5845	18.0206
12.5541	18.5207
12.5238	19.0506
12.4936	19.7265
12.4635	20.3203
12.4337	21.0635
12.4039	21.8486
12.3743	22.5106
12.3448	23.1909
12.3155	23.8773
12.2863	24.5672
12.2573	25.2571
12.2284	25.9463
12.1996	26.506
12.171	27.0679
12.1425	27.7657
12.1141	28.3915
12.0859	28.8686
12.0578	29.4329
12.0298	30.0539
12.0019	30.6157
11.9742	30.9982
11.9466	31.4775
11.9192	32.1138
11.8918	32.6303
11.8646	32.9937
11.8375	33.3775
11.8106	33.6914
11.7837	34.0418
11.757	34.557
11.7304	34.8111
11.7039	34.6802
11.6776	34.466
11.6513	34.0915
11.6252	33.761
11.5992	33.9835
11.5733	34.6934
11.5475	35.505
11.5219	36.1301
11.4963	36.5303
11.4709	36.6705
11.4455	36.5727
11.4203	36.7413
11.3952	37.3968
11.3702	38.3036
11.3454	39.2995
11.3206	40.379
11.2959	41.4904
11.2714	42.4199
11.2469	43.1379
11.2226	43.6828
11.1983	44.2167
11.1742	44.7028
11.1502	45.0759
11.1263	45.3989
11.1024	45.7318
11.0787	46.0664
11.0551	46.3763
11.0316	46.6875
11.0081	47.0693
10.9848	47.2967
10.9616	47.4478
10.9385	47.6947
10.9154	48.046
10.8925	48.2805
10.8697	48.6025
10.8469	48.8709
10.8243	49.0694
10.8017	49.3169
10.7793	49.5384
10.7569	49.7204
10.7346	49.844
10.7125	49.9148
10.6904	50.1877
10.6684	50.4661
10.6465	50.6958
10.6247	51.0324
10.6029	51.3699
10.5813	51.6563
10.5597	51.9478
10.5383	52.2884
10.5169	52.7431
10.4956	53.1356
10.4744	53.3974
10.4533	53.6743
10.4323	53.9369
10.4113	54.2343
10.3904	54.5921
10.3697	54.8778
10.349	55.0764
10.3284	55.3083
10.3078	55.5072
10.2874	55.7702
10.267	56.065
10.2467	56.3357
10.2265	56.5666
10.2064	56.7949
10.1863	57.0317
10.1663	57.265
10.1464	57.4648
10.1266	57.6713
10.1069	57.8643
10.0872	58.0262
10.0676	58.255
10.0481	58.3679
10.0287	58.4369
10.0093	58.5872
9.99005	58.684
9.97084	58.7786
9.95169	58.8329
9.93263	58.9332
9.91364	59.0365
9.89472	59.0875
9.87587	59.2301
9.8571	59.4277
9.83839	59.5238
9.81976	59.5876
9.80119	59.6285
9.78271	59.6826
9.76428	59.8348
9.74592	60.0478
9.72764	60.2293
9.70943	60.3946
9.69128	60.5794
9.6732	60.7232
9.65518	60.8712
9.63724	61.0002
9.61935	61.1044
9.60155	61.1648
9.5838	61.2797
9.56611	61.4455
9.5485	61.6357
9.53094	61.6824
9.51345	61.6763
9.49604	61.7703
9.47867	61.9202
9.46137	62.1174
9.44414	62.405
9.42697	62.6159
9.40986	62.847
9.39281	63.1364
9.37583	63.2717
9.35891	63.2666
9.34204	63.2574
9.32524	63.2713
9.3085	63.4303
9.29182	63.6197
9.27519	63.6292
9.25863	63.3617
9.24213	63.1543
9.22568	63.0094
9.2093	62.9517
9.19297	63.0689
9.17669	63.2607
9.16048	63.5033
9.14433	63.8631
9.12823	64.3351
9.11218	64.8105
9.0962	65.1669
9.08027	65.5438
9.06439	65.9641
9.04858	66.3081
9.03281	66.3971
9.0171	66.5562
9.00145	66.9913
8.98585	67.3059
8.9703	67.5614
8.9548	67.8689
8.93937	68.1005
8.92398	68.3334
8.90865	68.5309
8.89337	68.7523
8.87814	69.0282
8.86296	69.3111
8.84784	69.5154
8.83277	69.7426
8.81774	69.9894
8.80277	70.1531
8.78786	70.1209
8.77298	70.2496
8.75816	70.5274
8.7434	70.7394
8.72868	70.8265
8.714	70.9927
8.69938	71.164
8.68481	71.2379
8.67029	71.353
8.65581	71.5355
8.64139	71.5828
8.62701	71.7771
8.61268	71.9878
8.5984	72.123
8.58416	72.3509
8.56997	72.581
8.55583	72.8028
8.54174	73.0884
8.52769	73.3739
8.51368	73.6419
8.49973	73.8411
8.48582	74.0106
8.47195	74.183
8.45813	74.456
8.44436	74.7183
8.43062	74.8904
8.41693	75.0204
8.4033	75.2383
8.3897	75.5226
8.37614	75.7154
8.36264	75.7515
8.34917	75.872
8.33574	76.0062
8.32236	76.2648
8.30903	76.5048
8.29573	76.6912
8.28248	76.8472
8.26927	76.9421
8.2561	77.0547
8.24298	77.2475
8.2299	77.4266
8.21685	77.6447
8.20385	77.8254
8.19089	77.8587
8.17797	77.8639
8.16509	77.9242
8.15225	77.9869
8.13946	78.0964
8.1267	78.1628
8.11398	78.237
8.10131	78.2112
8.08867	78.2761
8.07606	78.4359
8.0635	78.5429
8.05099	78.5734
8.0385	78.6597
8.02606	78.6971
8.01366	78.7565
8.00129	78.8196
7.98896	78.8528
7.97667	78.9696
7.96442	79.0798
7.9522	79.1141
7.94002	79.1256
7.92788	79.0507
7.91578	78.9667
7.90371	79.0181
7.89168	79.033
7.87969	79.0165
7.86773	79.0808
7.85581	79.0717
7.84392	79.0289
7.83207	78.967
7.82026	78.8972
7.80849	78.8209
7.79674	78.7618
7.78503	78.6559
7.77337	78.5165
7.76173	78.3343
7.75012	78.1049
7.73856	77.872
7.72703	77.715
7.71553	77.5804
7.70406	77.4235
7.69263	77.3342
7.68123	77.2389
7.66987	77.0219
7.65855	76.8166
7.64725	76.5512
7.63598	76.3217
7.62475	76.1204
7.61356	75.9424
7.60239	75.7068
7.59126	75.6294
7.58017	75.532
7.5691	75.3739
7.55806	75.3241
7.54707	75.3648
7.5361	75.4266
7.52516	75.4972
7.51425	75.5043
7.50338	75.4934
7.49253	75.4967
7.48172	75.5105
7.47094	75.4533
7.46019	75.2122
7.44947	74.64
7.43879	74.1918
7.42813	73.7775
7.4175	73.3305
7.4069	72.8333
7.39634	72.4853
7.3858	72.3001
7.37529	72.0451
7.36482	71.7337
7.35437	71.5468
7.34396	71.3849
7.33357	70.8459
7.32321	69.8254
7.31288	69.0923
7.30258	68.3558
7.29231	67.6111
7.28207	67.2222
7.27185	66.6625
7.26167	65.7252
7.25152	65.1314
7.24139	64.6417
7.23129	64.2485
7.22122	63.9047
7.21117	63.8687
7.20116	63.0801
7.19117	61.9418
7.18121	61.4672
7.17128	61.3273
7.16137	60.4119
7.1515	59.6829
7.14164	58.9482
7.13182	58.1153
7.12203	57.8675
7.11225	57.4833
7.10251	57.0047
7.0928	56.8105
7.08311	56.6756
7.07344	56.7034
7.06381	57.0401
7.0542	58.0156
7.04461	58.797
7.03506	58.0996
7.02552	58.0128
7.01601	58.2701
7.00653	58.4969
6.99708	59.2018
6.98765	59.6466
6.97824	59.8122
6.96886	60.7451
6.95951	61.7626
6.95018	60.9088
6.94087	60.4687
6.9316	60.503
6.92234	60.5184
6.91311	60.625
6.90391	60.6713
6.89473	60.2338
6.88557	60.1112
6.87644	60.4392
6.86733	62.1265
6.85824	61.7785
6.84918	59.635
6.84015	58.6801
6.83114	58.9044
6.82215	58.5264
6.81319	57.4321
6.80424	57.2935
6.79532	58.2475
6.78643	58.2282
6.77756	57.1924
6.76871	56.4785
6.75989	55.852
6.75109	55.7382
6.74231	55.5585
6.73355	55.6802
6.72482	56.1302
6.71611	56.5242
6.70742	56.2944
6.69875	55.5528
6.69011	55.9546
6.68149	56.7316
6.67289	56.2945
6.66431	55.599
6.65576	55.36
6.64722	56.7346
6.63871	58.8678
6.63022	57.9785
6.62175	56.3692
6.61331	56.1597
6.60488	56.365
6.59648	57.2805
6.5881	57.8968
6.57974	58.9001
6.5714	60.1567
6.56308	59.6802
6.55478	60.0037
6.54651	60.4291
6.53825	60.7208
6.53001	61.6689
6.5218	63.3311
6.51361	63.601
6.50544	64.6694
6.49729	67.8468
6.48915	68.8202
6.48104	67.5673
6.47295	66.7713
6.46488	66.0362
6.45683	66.0254
6.4488	66.3863
6.44079	66.8801
6.4328	67.7747
6.42482	68.9382
6.41687	71.9615
6.40894	71.5022
6.40103	68.7699
6.39314	68.44
6.38526	68.6737
6.37741	69.3594
6.36957	70.231
6.36176	69.4864
6.35396	69.7284
6.34618	71.3541
6.33843	70.5514
6.33069	69.0451
6.32297	68.7067
6.31527	68.4594
6.30758	68.3037
6.29992	68.1318
6.29227	68.051
6.28465	67.8677
6.27704	67.9272
6.26945	68.0777
6.26188	68.2114
6.25432	68.4748
6.24679	68.9585
6.23927	69.3939
6.23177	69.8065
6.22429	70.2468
6.21683	70.7809
6.20938	71.0833
6.20195	71.3839
6.19454	72.3923
6.18715	74.3307
6.17978	74.0353
6.17242	73.1821
6.16508	74.0615
6.15776	74.6602
6.15045	74.2983
6.14317	74.4557
6.1359	74.3426
6.12864	74.3148
6.12141	75.6457
6.11419	77.5121
6.10699	76.622
6.0998	75.552
6.09263	75.6305
6.08549	76.2398
6.07835	77.9826
6.07123	78.9936
6.06413	78.0384
6.05705	79.2978
6.04998	82.9381
6.04293	80.9381
6.0359	78.2162
6.02888	77.9014
6.02187	78.4477
6.01489	79.3288
6.00792	79.0754
6.00096	79.0438
5.99403	80.4683
5.98711	81.063
5.9802	80.3581
5.97331	80.9956
5.96644	81.3835
5.95958	80.3595
5.95274	80.5069
5.94591	81.5705
5.9391	84.0985
5.9323	83.4219
5.92552	81.5089
5.91876	81.35
5.91201	81.306
5.90528	82.07
5.89856	84.3761
5.89186	84.494
5.88517	85.5679
5.8785	86.1395
5.87184	83.8098
5.8652	84.022
5.85857	83.9639
5.85196	83.6407
5.84536	83.7553
5.83878	84.4824
5.83221	85.7512
5.82566	87.4214
5.81912	87.5628
5.81259	85.8977
5.80608	85.4318
5.79959	85.7195
5.79311	85.7942
5.78665	86.2029
5.78019	86.774
5.77376	88.0085
5.76734	90.0152
5.76093	88.695
5.75453	87.4407
5.74815	88.1921
5.74179	87.9854
5.73543	87.8372
5.7291	87.8458
5.72277	88.2742
5.71646	88.8447
5.71017	89.1826
5.70389	88.1994
5.69762	87.8903
5.69136	88.2461
5.68513	88.0089
5.6789	88.3515
5.67268	88.1955
5.66648	87.2603
5.6603	87.4038
5.65413	87.7156
5.64797	88.1885
5.64182	88.9144
5.63569	87.8404
5.62957	87.0857
5.62347	87.2059
5.61737	87.5739
5.61129	87.5732
5.60522	87.6799
5.59917	87.5611
5.59313	86.9554
5.5871	86.8533
5.58109	87.284
5.57509	86.8423
5.5691	85.9975
5.56312	86.1204
5.55716	86.6916
5.55121	87.3949
5.54528	87.7629
5.53935	88.1358
5.53344	88.4573
5.52754	88.9716
5.52166	89.2576
5.51578	89.1894
5.50992	89.1394
5.50407	89.3414
5.49823	89.393
5.49241	89.522
5.4866	89.7503
5.4808	90.2853
5.47501	90.2389
5.46923	90.4702
5.46347	90.8261
5.45772	90.3041
5.45198	90.0218
5.44625	90.0814
5.44054	90.0985
5.43484	90.0866
5.42914	90.4815
5.42347	91.3805
5.4178	90.9081
5.41214	90.124
5.4065	89.9168
5.40087	89.7823
5.39525	89.825
5.38964	89.8125
5.38404	89.7375
5.37846	89.6682
5.37288	89.6728
5.36732	89.7095
5.36177	89.8159
5.35623	90.2361
5.35071	90.6192
5.34519	90.1004
5.33968	89.6324
5.33419	89.6411
5.32871	89.6377
5.32324	89.6782
5.31778	89.6923
5.31233	89.7119
5.30689	89.7982
5.30147	89.8476
5.29605	90.0962
5.29065	90.2671
5.28525	90.002
5.27987	90.0041
5.2745	90.071
5.26914	90.0469
5.26379	89.9783
5.25845	90.0231
5.25312	90.0991
5.24781	90.1622
5.2425	90.2429
5.23721	90.3722
5.23192	90.3428
5.22665	90.3077
5.22138	90.37
5.21613	90.8083
5.21089	90.8364
5.20566	90.6016
5.20044	90.7083
5.19522	90.5745
5.19002	90.4334
5.18483	90.4132
5.17965	90.411
5.17448	90.4669
5.16933	90.5092
5.16418	90.4824
5.15904	90.4781
5.15391	90.6182
5.14879	90.8861
5.14368	90.7781
5.13859	90.615
5.1335	90.6037
5.12842	90.5442
5.12335	90.5551
5.1183	90.5721
5.11325	90.5491
5.10821	90.4881
5.10318	90.5145
5.09817	90.5204
5.09316	90.5532
5.08816	90.6558
5.08317	90.7409
5.07819	90.6307
5.07322	90.5756
5.06826	90.5934
5.06331	90.5531
5.05837	90.5096
5.05344	90.5564
5.04852	90.5612
5.04361	90.5772
5.03871	90.5864
5.03382	90.5832
5.02894	90.5949
5.02406	90.6389
5.0192	90.6963
5.01435	90.6294
5.0095	90.5905
5.00467	90.5836
4.99984	90.5821
4.99502	90.5466
4.99021	90.5285
4.98542	90.5249
4.98063	90.5344
4.97585	90.6198
4.97108	90.6267
4.96632	90.5906
4.96156	90.6952
4.95682	90.8176
4.95209	90.7527
4.94736	90.7225
4.94264	90.7125
4.93794	90.7285
4.93324	90.7156
4.92855	90.7051
4.92387	90.68
4.9192	90.6818
4.91453	90.7077
4.90988	90.762
4.90524	90.8043
4.9006	90.857
4.89597	90.8797
4.89135	90.897
4.88674	90.8328
4.88214	90.7674
4.87755	90.7745
4.87296	90.8235
4.86839	90.8287
4.86382	90.8547
4.85926	90.8599
4.85471	90.8467
4.85017	90.8761
4.84564	90.9359
4.84111	90.9639
4.8366	90.9201
4.83209	90.8812
4.82759	90.9244
4.8231	90.8658
4.81862	90.8275
4.81415	90.8858
4.80968	90.927
4.80522	90.9471
4.80077	90.9669
4.79633	90.9265
4.7919	90.9555
4.78747	90.9316
4.78306	90.9067
4.77865	90.9056
4.77425	90.9277
4.76986	90.9137
4.76547	90.912
4.7611	90.889
4.75673	90.8633
4.75237	90.8189
4.74802	90.8403
4.74367	90.8153
4.73934	90.8181
4.73501	90.8162
4.73069	90.8105
4.72638	90.815
4.72207	90.8262
4.71777	90.8195
4.71348	90.7463
4.7092	90.7595
4.70493	90.8146
4.70066	90.7608
4.69641	90.7446
4.69216	90.6993
4.68791	90.6944
4.68368	90.7004
4.67945	90.6603
4.67523	90.6313
4.67102	90.6644
4.66682	90.73
4.66262	90.7492
4.65843	90.7123
4.65425	90.7432
4.65007	90.7305
4.64591	90.7512
4.64175	90.7836
4.6376	90.8352
4.63345	90.9046
4.62932	90.9157
4.62519	90.8792
4.62106	90.9018
4.61695	90.896
4.61284	90.908
4.60874	90.885
4.60465	90.8963
4.60056	90.9678
4.59648	91.0144
4.59241	90.9723
4.58835	90.9677
4.58429	90.9893
4.58024	90.9854
4.5762	91.0239
4.57216	91.0596
4.56814	91.0619
4.56411	91.0991
4.5601	91.1027
4.55609	91.0974
4.55209	91.0756
4.5481	91.0505
4.54411	91.0678
4.54013	91.1001
4.53616	91.091
4.5322	91.1243
4.52824	91.1219
4.52429	91.1271
4.52034	91.115
4.51641	91.0737
4.51247	91.1043
4.50855	91.1317
4.50463	91.1508
4.50072	91.1935
4.49682	91.1902
4.49292	91.1783
4.48903	91.172
4.48515	91.2213
4.48127	91.2306
4.4774	91.2288
4.47354	91.1928
4.46968	91.1889
4.46584	91.2259
4.46199	91.2808
4.45815	91.2724
4.45432	91.3167
4.4505	91.3513
4.44668	91.3278
4.44287	91.2887
4.43907	91.3043
4.43527	91.2923
4.43148	91.306
4.4277	91.3525
4.42392	91.3945
4.42015	91.3245
4.41638	91.3132
4.41262	91.3563
4.40887	91.3993
4.40513	91.4319
4.40139	91.4111
4.39765	91.4277
4.39393	91.4296
4.39021	91.4463
4.38649	91.4464
4.38278	91.3923
4.37908	91.3912
4.37539	91.4406
4.3717	91.4969
4.36801	91.4941
4.36434	91.4906
4.36067	91.4935
4.357	91.5116
4.35335	91.5385
4.34969	91.5509
4.34605	91.57
4.34241	91.5841
4.33877	91.588
4.33514	91.6664
4.33152	91.7073
4.32791	91.6992
4.3243	91.7272
4.32069	91.7309
4.3171	91.7829
4.31351	91.8718
4.30992	91.8999
4.30634	91.8924
4.30277	91.9414
4.2992	91.9942
4.29564	91.9665
4.29208	91.9524
4.28853	92.012
4.28499	91.9921
4.28145	92.0184
4.27792	92.0384
4.27439	92.0198
4.27087	92.0352
4.26735	91.9862
4.26384	91.9152
4.26034	91.8158
4.25684	91.7194
4.25335	91.7477
4.24986	91.902
4.24638	92.08
4.24291	92.2228
4.23944	92.2744
4.23598	92.2527
4.23252	92.2334
4.22906	92.2275
4.22562	92.2476
4.22218	92.1756
4.21874	92.0098
4.21531	91.9358
4.21189	91.878
4.20847	91.7889
4.20506	91.7464
4.20165	91.7519
4.19825	91.699
4.19485	91.6839
4.19146	91.6939
4.18807	91.7175
4.18469	91.7452
4.18132	91.702
4.17795	91.6377
4.17458	91.6476
4.17123	91.6494
4.16787	91.6735
4.16453	91.69
4.16118	91.6725
4.15785	91.6536
4.15451	91.6392
4.15119	91.6418
4.14787	91.6313
4.14455	91.592
4.14124	91.6075
4.13794	91.6161
4.13464	91.6309
4.13134	91.6241
4.12805	91.5478
4.12477	91.5066
4.12149	91.5441
4.11822	91.5518
4.11495	91.5399
4.11168	91.4747
4.10843	91.4515
4.10517	91.4528
4.10192	91.417
4.09868	91.3918
4.09545	91.391
4.09221	91.3592
4.08899	91.3074
4.08576	91.2852
4.08255	91.2531
4.07933	91.1976
4.07613	91.1608
4.07292	91.0963
4.06973	91.0239
4.06654	90.9532
4.06335	90.8734
4.06017	90.7945
4.05699	90.7023
4.05382	90.6404
4.05065	90.613
4.04749	90.4842
4.04433	90.3488
4.04118	90.2592
4.03803	90.157
4.03489	90.0153
4.03175	89.8793
4.02862	89.7173
4.02549	89.6016
4.02237	89.4834
4.01925	89.3836
4.01614	89.3191
4.01303	89.2242
4.00993	89.1449
4.00683	89.0256
4.00373	88.8841
4.00064	88.7204
3.99756	88.5331
3.99448	88.3877
3.9914	88.2785
3.98833	88.1906
3.98527	88.1201
3.98221	88.1474
3.97915	88.1741
3.9761	88.2046
3.97305	88.2581
3.97001	88.2369
3.96697	88.3017
3.96394	88.4042
3.96091	88.4767
3.95789	88.6396
3.95487	88.7901
3.95186	88.9094
3.94885	89.054
3.94584	89.2922
3.94284	89.4839
3.93984	89.6386
3.93685	89.7351
3.93386	89.6908
3.93088	89.7088
3.9279	89.7302
3.92493	89.7425
3.92196	89.7429
3.919	89.7797
3.91604	89.8351
3.91308	89.8427
3.91013	89.7906
3.90718	89.7546
3.90424	89.7776
3.9013	89.8094
3.89837	89.8063
3.89544	89.7348
3.89252	89.7535
3.8896	89.7825
3.88668	89.7729
3.88377	89.7449
3.88086	89.7395
3.87796	89.7382
3.87506	89.7231
3.87217	89.6807
3.86928	89.7443
3.86639	89.7285
3.86351	89.6518
3.86064	89.6537
3.85776	89.6379
3.8549	89.6961
3.85203	89.7599
3.84917	89.7526
3.84631	89.7466
3.84346	89.7507
3.84062	89.8233
3.83777	89.8062
3.83494	89.7503
3.8321	89.8106
3.82927	89.8909
3.82644	89.8981
3.82362	89.9361
3.82081	90.0532
3.81799	90.1422
3.81518	90.1946
3.81238	90.1886
3.80958	90.2588
3.80678	90.3491
3.80399	90.3657
3.8012	90.3723
3.79841	90.377
3.79563	90.3735
3.79286	90.3823
3.79008	90.4713
3.78731	90.544
3.78455	90.5208
3.78179	90.486
3.77903	90.4788
3.77628	90.4543
3.77353	90.4182
3.77079	90.3602
3.76805	90.3778
3.76531	90.392
3.76258	90.3373
3.75985	90.3338
3.75713	90.3826
3.7544	90.3844
3.75169	90.3238
3.74898	90.2428
3.74627	90.2175
3.74356	90.2298
3.74086	90.2833
3.73816	90.2685
3.73547	90.2107
3.73278	90.1971
3.7301	90.1392
3.72741	90.1305
3.72474	90.2005
3.72206	90.1207
3.71939	90.042
3.71673	89.9535
3.71406	89.9467
3.71141	90.0506
3.70875	90.0238
3.7061	89.9036
3.70345	89.8475
3.70081	89.8945
3.69817	89.8749
3.69553	89.7833
3.6929	89.7957
3.69027	89.8908
3.68765	89.8768
3.68503	89.7252
3.68241	89.6739
3.6798	89.6942
3.67719	89.6293
3.67458	89.5555
3.67198	89.4893
3.66938	89.4795
3.66678	89.5283
3.66419	89.5642
3.66161	89.562
3.65902	89.5023
3.65644	89.4645
3.65387	89.4343
3.65129	89.4065
3.64872	89.3748
3.64616	89.387
3.64359	89.359
3.64103	89.2561
3.63848	89.1592
3.63593	89.1707
3.63338	89.2581
3.63084	89.2428
3.6283	89.1782
3.62576	89.1202
3.62322	89.1211
3.62069	89.1387
3.61817	89.1229
3.61564	89.0502
3.61312	88.9625
3.61061	88.9618
3.6081	88.8945
3.60559	88.8262
3.60308	88.7803
3.60058	88.804
3.59808	88.836
3.59558	88.8216
3.59309	88.7329
3.59061	88.6562
3.58812	88.6833
3.58564	88.6314
3.58316	88.4968
3.58069	88.4158
3.57822	88.4132
3.57575	88.4459
3.57328	88.3619
3.57082	88.2963
3.56836	88.2836
3.56591	88.1885
3.56346	88.0737
3.56101	87.9642
3.55857	87.9228
3.55613	87.9284
3.55369	87.8368
3.55126	87.6698
3.54883	87.5322
3.5464	87.409
3.54397	87.3511
3.54155	87.2529
3.53914	87.1326
3.53672	87.0223
3.53431	86.9543
3.5319	86.8403
3.5295	86.6522
3.5271	86.53
3.5247	86.4177
3.52231	86.2894
3.51991	86.0716
3.51753	85.805
3.51514	85.5852
3.51276	85.2785
3.51038	84.9105
3.50801	84.6205
3.50563	84.4078
3.50327	84.2637
3.5009	84.2368
3.49854	84.2558
3.49618	84.282
3.49382	84.3229
3.49147	84.4574
3.48912	84.6072
3.48677	84.6395
3.48443	84.6144
3.48209	84.5421
3.47975	84.4707
3.47742	84.4378
3.47509	84.405
3.47276	84.4902
3.47044	84.5596
3.46812	84.5603
3.4658	84.6087
