Name: Garnetiferous Mica Schist
Type: Rock
Class: Metamorphic
Subclass:  Schist 
Particle Size: Solid surface
Sample No.: Ward84.txt
Owner: JPL
Wavelength range:  VNIR SWIR IR 
Origin: Ward's Collection of American Rocks.  Sample locality - Gassets, Windsor County, Vermont.  Collected by - JPL.
Collected by:  Ward's Natural Science
Description: The hand specimen is a porphyroblastic, schistose rock
composed of scaly, silvery mica, quartz and garnet with biotite and
some staurolite and occasional kyanite. Geologic age - Upper Cambrian(?)


Measurement: Hemispherical reflectance
First Column: X
Second Column: Y
X Units: Wavelength (micrometers)
Y Units: Reflectance (percent)
First X Value: 2.500
Last X Value: 0.400
Number of X Values: 2101
Additional information: None
 2.500   21.2515
 2.499   20.9498
 2.498   21.0658
 2.497   21.2327
 2.496   20.6433
 2.495   21.0503
 2.494   20.8405
 2.493   20.9159
 2.492   20.7928
 2.491   20.9881
 2.490   20.8027
 2.489   20.8656
 2.488   20.7060
 2.487   20.9754
 2.486   20.6538
 2.485   20.6830
 2.484   20.6293
 2.483   20.7251
 2.482   20.7226
 2.481   20.7373
 2.480   20.6945
 2.479   20.5954
 2.478   20.5213
 2.477   20.5799
 2.476   20.3792
 2.475   20.5172
 2.474   20.3868
 2.473   20.4910
 2.472   20.4214
 2.471   20.5409
 2.470   20.2522
 2.469   20.4115
 2.468   20.2116
 2.467   20.3916
 2.466   20.0301
 2.465   20.1755
 2.464   20.0684
 2.463   20.1231
 2.462   19.9279
 2.461   19.9438
 2.460   19.9049
 2.459   19.9283
 2.458   19.8662
 2.457   19.8413
 2.456   19.6772
 2.455   19.8112
 2.454   19.5863
 2.453   19.7192
 2.452   19.6539
 2.451   19.5684
 2.450   19.5655
 2.449   19.5010
 2.448   19.5139
 2.447   19.5470
 2.446   19.3311
 2.445   19.5104
 2.444   19.3747
 2.443   19.4110
 2.442   19.2892
 2.441   19.3806
 2.440   19.2112
 2.439   19.3299
 2.438   19.2245
 2.437   19.2667
 2.436   19.2530
 2.435   19.3450
 2.434   19.2338
 2.433   19.3583
 2.432   19.3121
 2.431   19.3839
 2.430   19.2918
 2.429   19.4143
 2.428   19.3502
 2.427   19.4409
 2.426   19.4214
 2.425   19.5240
 2.424   19.5514
 2.423   19.6045
 2.422   19.5687
 2.421   19.7164
 2.420   19.6714
 2.419   19.7711
 2.418   19.7880
 2.417   19.8792
 2.416   19.9408
 2.415   19.9847
 2.414   20.0358
 2.413   20.1185
 2.412   20.1207
 2.411   20.2323
 2.410   20.1746
 2.409   20.2037
 2.408   20.2557
 2.407   20.3401
 2.406   20.3585
 2.405   20.4684
 2.404   20.4352
 2.403   20.4697
 2.402   20.4738
 2.401   20.5572
 2.400   20.5280
 2.399   20.5672
 2.398   20.6067
 2.397   20.6286
 2.396   20.6046
 2.395   20.6499
 2.394   20.6389
 2.393   20.7203
 2.392   20.7107
 2.391   20.7214
 2.390   20.6947
 2.389   20.7071
 2.388   20.7255
 2.387   20.7243
 2.386   20.7164
 2.385   20.7794
 2.384   20.7141
 2.383   20.7830
 2.382   20.7592
 2.381   20.7499
 2.380   20.7626
 2.379   20.8068
 2.378   20.7669
 2.377   20.8122
 2.376   20.7982
 2.375   20.7798
 2.374   20.7964
 2.373   20.8132
 2.372   20.8177
 2.371   20.8111
 2.370   20.8033
 2.369   20.8303
 2.368   20.7720
 2.367   20.7592
 2.366   20.7757
 2.365   20.7978
 2.364   20.8025
 2.363   20.8132
 2.362   20.8180
 2.361   20.7947
 2.360   20.7889
 2.359   20.7631
 2.358   20.7247
 2.357   20.7526
 2.356   20.7288
 2.355   20.7060
 2.354   20.6788
 2.353   20.6266
 2.352   20.6037
 2.351   20.6046
 2.350   20.6023
 2.349   20.6329
 2.348   20.6530
 2.347   20.6627
 2.346   20.6264
 2.345   20.5420
 2.344   20.6077
 2.343   20.6157
 2.342   20.6384
 2.341   20.6766
 2.340   20.7161
 2.339   20.7525
 2.338   20.7757
 2.337   20.8685
 2.336   20.9595
 2.335   20.9567
 2.334   21.0609
 2.333   21.1131
 2.332   21.1537
 2.331   21.2451
 2.330   21.4096
 2.329   21.4838
 2.328   21.6029
 2.327   21.6480
 2.326   21.7650
 2.325   21.8773
 2.324   21.9830
 2.323   22.0431
 2.322   22.1519
 2.321   22.2645
 2.320   22.4318
 2.319   22.5391
 2.318   22.6568
 2.317   22.7103
 2.316   22.8800
 2.315   22.9867
 2.314   23.0917
 2.313   23.2343
 2.312   23.3998
 2.311   23.4631
 2.310   23.6160
 2.309   23.6980
 2.308   23.8267
 2.307   23.9317
 2.306   24.1077
 2.305   24.2454
 2.304   24.3708
 2.303   24.4516
 2.302   24.5713
 2.301   24.6402
 2.300   24.8092
 2.299   24.8918
 2.298   24.9720
 2.297   25.0397
 2.296   25.1943
 2.295   25.2760
 2.294   25.3621
 2.293   25.4498
 2.292   25.5017
 2.291   25.5466
 2.290   25.6013
 2.289   25.6489
 2.288   25.7902
 2.287   25.7512
 2.286   25.8486
 2.285   25.8093
 2.284   25.8539
 2.283   25.9374
 2.282   25.9756
 2.281   25.9866
 2.280   26.0183
 2.279   26.0188
 2.278   26.0420
 2.277   25.9708
 2.276   26.0319
 2.275   25.9310
 2.274   25.9830
 2.273   25.9467
 2.272   25.9570
 2.271   25.9364
 2.270   25.9677
 2.269   25.8761
 2.268   25.9134
 2.267   25.8023
 2.266   25.7917
 2.265   25.6521
 2.264   25.7268
 2.263   25.5655
 2.262   25.5858
 2.261   25.4314
 2.260   25.4738
 2.259   25.2427
 2.258   25.2865
 2.257   25.1679
 2.256   25.0739
 2.255   24.9765
 2.254   24.9147
 2.253   24.8152
 2.252   24.7777
 2.251   24.5583
 2.250   24.5638
 2.249   24.4638
 2.248   24.4427
 2.247   24.2295
 2.246   24.2351
 2.245   24.1537
 2.244   24.1145
 2.243   23.9669
 2.242   23.8688
 2.241   23.7370
 2.240   23.8068
 2.239   23.6495
 2.238   23.6774
 2.237   23.5705
 2.236   23.4856
 2.235   23.2920
 2.234   23.2994
 2.233   23.2233
 2.232   23.0508
 2.231   22.9651
 2.230   22.8393
 2.229   22.7021
 2.228   22.7230
 2.227   22.5553
 2.226   22.4173
 2.225   22.1610
 2.224   22.1653
 2.223   21.8935
 2.222   21.7717
 2.221   21.5848
 2.220   21.4058
 2.219   21.1501
 2.218   21.0583
 2.217   20.8074
 2.216   20.6629
 2.215   20.4263
 2.214   20.3481
 2.213   20.0611
 2.212   20.0395
 2.211   19.5199
 2.210   19.7021
 2.209   19.2831
 2.208   19.2716
 2.207   19.1025
 2.206   19.0225
 2.205   18.8997
 2.204   18.8120
 2.203   18.6727
 2.202   18.6849
 2.201   18.5853
 2.200   18.6405
 2.199   18.5237
 2.198   18.5567
 2.197   18.5740
 2.196   18.6581
 2.195   18.5958
 2.194   18.8515
 2.193   18.7946
 2.192   19.0533
 2.191   19.0504
 2.190   19.3122
 2.189   19.4147
 2.188   19.6765
 2.187   19.8329
 2.186   20.2040
 2.185   20.3473
 2.184   20.6417
 2.183   20.8102
 2.182   21.2187
 2.181   21.4360
 2.180   21.7489
 2.179   22.0244
 2.178   22.3344
 2.177   22.5364
 2.176   22.9295
 2.175   23.1604
 2.174   23.5626
 2.173   23.7581
 2.172   24.0773
 2.171   24.2244
 2.170   24.5367
 2.169   24.7869
 2.168   25.0764
 2.167   25.2446
 2.166   25.5780
 2.165   25.6724
 2.164   25.9736
 2.163   26.0881
 2.162   26.3527
 2.161   26.4656
 2.160   26.6642
 2.159   26.8086
 2.158   26.9852
 2.157   27.1237
 2.156   27.3123
 2.155   27.3183
 2.154   27.4839
 2.153   27.5150
 2.152   27.7384
 2.151   27.7124
 2.150   27.8303
 2.149   27.8720
 2.148   27.9428
 2.147   27.9538
 2.146   28.0539
 2.145   28.0495
 2.144   28.1837
 2.143   28.1553
 2.142   28.2685
 2.141   28.2291
 2.140   28.3695
 2.139   28.2908
 2.138   28.3285
 2.137   28.3226
 2.136   28.3917
 2.135   28.3422
 2.134   28.3951
 2.133   28.3712
 2.132   28.3461
 2.131   28.3090
 2.130   28.3146
 2.129   28.2953
 2.128   28.3610
 2.127   28.2835
 2.126   28.2881
 2.125   28.2360
 2.124   28.3011
 2.123   28.1879
 2.122   28.2394
 2.121   28.2270
 2.120   28.2353
 2.119   28.2029
 2.118   28.1973
 2.117   28.1948
 2.116   28.2403
 2.115   28.2092
 2.114   28.2764
 2.113   28.1994
 2.112   28.2484
 2.111   28.2908
 2.110   28.3048
 2.109   28.3079
 2.108   28.3894
 2.107   28.3712
 2.106   28.4167
 2.105   28.4517
 2.104   28.5489
 2.103   28.5409
 2.102   28.5966
 2.101   28.6216
 2.100   28.6354
 2.099   28.7068
 2.098   28.8127
 2.097   28.8368
 2.096   28.9128
 2.095   28.9829
 2.094   29.0274
 2.093   29.0571
 2.092   29.1410
 2.091   29.1918
 2.090   29.2387
 2.089   29.2211
 2.088   29.3133
 2.087   29.3843
 2.086   29.4301
 2.085   29.4649
 2.084   29.5136
 2.083   29.5447
 2.082   29.5660
 2.081   29.5585
 2.080   29.6169
 2.079   29.6372
 2.078   29.6634
 2.077   29.6862
 2.076   29.6670
 2.075   29.7100
 2.074   29.7512
 2.073   29.7427
 2.072   29.7283
 2.071   29.7590
 2.070   29.8026
 2.069   29.7823
 2.068   29.7848
 2.067   29.8155
 2.066   29.8004
 2.065   29.8153
 2.064   29.7992
 2.063   29.8454
 2.062   29.8385
 2.061   29.8204
 2.060   29.8915
 2.059   29.8670
 2.058   29.8200
 2.057   29.8568
 2.056   29.8584
 2.055   29.8470
 2.054   29.8345
 2.053   29.8706
 2.052   29.8582
 2.051   29.8504
 2.050   29.8273
 2.049   29.8190
 2.048   29.8246
 2.047   29.8820
 2.046   29.8961
 2.045   29.9215
 2.044   29.9030
 2.043   29.9173
 2.042   29.8862
 2.041   29.8677
 2.040   29.8754
 2.039   29.9137
 2.038   29.8946
 2.037   29.9216
 2.036   29.8937
 2.035   29.9122
 2.034   29.9107
 2.033   29.9353
 2.032   29.9041
 2.031   29.9062
 2.030   29.8891
 2.029   29.9270
 2.028   29.9129
 2.027   29.9624
 2.026   29.9407
 2.025   29.9222
 2.024   29.9226
 2.023   29.9566
 2.022   29.9364
 2.021   29.9391
 2.020   29.8984
 2.019   29.9142
 2.018   29.9079
 2.017   29.9346
 2.016   29.9197
 2.015   30.0052
 2.014   29.9556
 2.013   30.0075
 2.012   30.0094
 2.011   29.9987
 2.010   29.9406
 2.009   29.9563
 2.008   29.8865
 2.007   30.0408
 2.006   29.9239
 2.005   29.9593
 2.004   29.9266
 2.003   29.9540
 2.002   29.9430
 2.001   29.9869
 2.000   29.9496
 1.999   30.0112
 1.998   29.9096
 1.997   29.9868
 1.996   29.9330
 1.995   29.9284
 1.994   29.9535
 1.993   29.9782
 1.992   29.9146
 1.991   30.0012
 1.990   29.9620
 1.989   30.0124
 1.988   30.0171
 1.987   30.0603
 1.986   29.9381
 1.985   30.0133
 1.984   29.9600
 1.983   30.0881
 1.982   30.0113
 1.981   29.9662
 1.980   30.0282
 1.979   30.0512
 1.978   30.0367
 1.977   30.0372
 1.976   30.0844
 1.975   30.1122
 1.974   30.0918
 1.973   30.1901
 1.972   30.0551
 1.971   30.1945
 1.970   30.1149
 1.969   30.1700
 1.968   30.1066
 1.967   30.2223
 1.966   30.1384
 1.965   30.2541
 1.964   30.1863
 1.963   30.3183
 1.962   30.1881
 1.961   30.3202
 1.960   30.2735
 1.959   30.3210
 1.958   30.3180
 1.957   30.3779
 1.956   30.3777
 1.955   30.4630
 1.954   30.3432
 1.953   30.5003
 1.952   30.4658
 1.951   30.5191
 1.950   30.4821
 1.949   30.5422
 1.948   30.4907
 1.947   30.6457
 1.946   30.5979
 1.945   30.6420
 1.944   30.6790
 1.943   30.6948
 1.942   30.6581
 1.941   30.7628
 1.940   30.6680
 1.939   30.8014
 1.938   30.7182
 1.937   30.8245
 1.936   30.8159
 1.935   30.8714
 1.934   30.8320
 1.933   30.9283
 1.932   30.8780
 1.931   30.9737
 1.930   30.9125
 1.929   30.9508
 1.928   30.8751
 1.927   31.0911
 1.926   30.7846
 1.925   31.0456
 1.924   30.9553
 1.923   30.9935
 1.922   30.8993
 1.921   30.9398
 1.920   30.8574
 1.919   30.9544
 1.918   30.8030
 1.917   30.8966
 1.916   30.8071
 1.915   30.8589
 1.914   30.7224
 1.913   30.7744
 1.912   30.7733
 1.911   30.7370
 1.910   30.7505
 1.909   30.6770
 1.908   30.5634
 1.907   30.6394
 1.906   30.6726
 1.905   30.7226
 1.904   30.6753
 1.903   30.6617
 1.902   30.6285
 1.901   30.5933
 1.900   30.5152
 1.899   30.5055
 1.898   30.4806
 1.897   30.5625
 1.896   30.3819
 1.895   30.3792
 1.894   30.3547
 1.893   30.4604
 1.892   30.3370
 1.891   30.3778
 1.890   30.3412
 1.889   30.3135
 1.888   30.2540
 1.887   30.3506
 1.886   30.2560
 1.885   30.2971
 1.884   30.2307
 1.883   30.2219
 1.882   30.2518
 1.881   30.2628
 1.880   30.1432
 1.879   30.1827
 1.878   30.2833
 1.877   30.3040
 1.876   30.2121
 1.875   30.4035
 1.874   30.3112
 1.873   30.4175
 1.872   30.3622
 1.871   30.3634
 1.870   30.3478
 1.869   30.3500
 1.868   30.2963
 1.867   30.2385
 1.866   30.1524
 1.865   30.1740
 1.864   30.1110
 1.863   30.1699
 1.862   30.0731
 1.861   30.1223
 1.860   30.0731
 1.859   30.0804
 1.858   30.0114
 1.857   30.0587
 1.856   30.0326
 1.855   30.0546
 1.854   29.9756
 1.853   29.9829
 1.852   29.9558
 1.851   29.9679
 1.850   29.9267
 1.849   29.9738
 1.848   29.8880
 1.847   29.9278
 1.846   29.8877
 1.845   29.8809
 1.844   29.8800
 1.843   29.8934
 1.842   29.8289
 1.841   29.9317
 1.840   29.8415
 1.839   29.8806
 1.838   29.8608
 1.837   29.8163
 1.836   29.7954
 1.835   29.8606
 1.834   29.8477
 1.833   29.8185
 1.832   29.7852
 1.831   29.7988
 1.830   29.8239
 1.829   29.8621
 1.828   29.8123
 1.827   29.8178
 1.826   29.7956
 1.825   29.7856
 1.824   29.7976
 1.823   29.7880
 1.822   29.7585
 1.821   29.8060
 1.820   29.8190
 1.819   29.8415
 1.818   29.8014
 1.817   29.8386
 1.816   29.8419
 1.815   29.8649
 1.814   29.8019
 1.813   29.7971
 1.812   29.7832
 1.811   29.7819
 1.810   29.7654
 1.809   29.8244
 1.808   29.8107
 1.807   29.7732
 1.806   29.8052
 1.805   29.8108
 1.804   29.7943
 1.803   29.7880
 1.802   29.8063
 1.801   29.8080
 1.800   29.7856
 1.799   29.7979
 1.798   29.7644
 1.797   29.7893
 1.796   29.7743
 1.795   29.7503
 1.794   29.7619
 1.793   29.8102
 1.792   29.8152
 1.791   29.8014
 1.790   29.7890
 1.789   29.7719
 1.788   29.7961
 1.787   29.8110
 1.786   29.8072
 1.785   29.7900
 1.784   29.7940
 1.783   29.7907
 1.782   29.7477
 1.781   29.7294
 1.780   29.7446
 1.779   29.7959
 1.778   29.7613
 1.777   29.7399
 1.776   29.7297
 1.775   29.7022
 1.774   29.7449
 1.773   29.7499
 1.772   29.7663
 1.771   29.7548
 1.770   29.7316
 1.769   29.7493
 1.768   29.7904
 1.767   29.7666
 1.766   29.7507
 1.765   29.7701
 1.764   29.7999
 1.763   29.7411
 1.762   29.7173
 1.761   29.7479
 1.760   29.7528
 1.759   29.6964
 1.758   29.7202
 1.757   29.7235
 1.756   29.7542
 1.755   29.7174
 1.754   29.7518
 1.753   29.6838
 1.752   29.7394
 1.751   29.7563
 1.750   29.7124
 1.749   29.6944
 1.748   29.7562
 1.747   29.7281
 1.746   29.7574
 1.745   29.7098
 1.744   29.7906
 1.743   29.7513
 1.742   29.7468
 1.741   29.7234
 1.740   29.7665
 1.739   29.7492
 1.738   29.7300
 1.737   29.7087
 1.736   29.7712
 1.735   29.7545
 1.734   29.7205
 1.733   29.6874
 1.732   29.7683
 1.731   29.7370
 1.730   29.7527
 1.729   29.6896
 1.728   29.7335
 1.727   29.7340
 1.726   29.7257
 1.725   29.7321
 1.724   29.6977
 1.723   29.6392
 1.722   29.6954
 1.721   29.6822
 1.720   29.6915
 1.719   29.6839
 1.718   29.6771
 1.717   29.7067
 1.716   29.6283
 1.715   29.6408
 1.714   29.6679
 1.713   29.6793
 1.712   29.5994
 1.711   29.5553
 1.710   29.6113
 1.709   29.5833
 1.708   29.6558
 1.707   29.5920
 1.706   29.6317
 1.705   29.5648
 1.704   29.5747
 1.703   29.5465
 1.702   29.5893
 1.701   29.5378
 1.700   29.5425
 1.699   29.5132
 1.698   29.5273
 1.697   29.4651
 1.696   29.5469
 1.695   29.4533
 1.694   29.4929
 1.693   29.4525
 1.692   29.5244
 1.691   29.4491
 1.690   29.5464
 1.689   29.4209
 1.688   29.3897
 1.687   29.3637
 1.686   29.4245
 1.685   29.3696
 1.684   29.4569
 1.683   29.3139
 1.682   29.3747
 1.681   29.4069
 1.680   29.3839
 1.679   29.3091
 1.678   29.4413
 1.677   29.3308
 1.676   29.3895
 1.675   29.2705
 1.674   29.3552
 1.673   29.2624
 1.672   29.3388
 1.671   29.2359
 1.670   29.2560
 1.669   29.3279
 1.668   29.1079
 1.667   29.2023
 1.666   29.2612
 1.665   29.1388
 1.664   29.2126
 1.663   29.1381
 1.662   29.1555
 1.661   29.1802
 1.660   29.1538
 1.659   29.1524
 1.658   29.2120
 1.657   29.1031
 1.656   29.1815
 1.655   29.1143
 1.654   29.1776
 1.653   29.0907
 1.652   29.1126
 1.651   29.0538
 1.650   29.1184
 1.649   28.9993
 1.648   29.0735
 1.647   29.0891
 1.646   29.0622
 1.645   29.1045
 1.644   29.0952
 1.643   29.0556
 1.642   29.1203
 1.641   28.8590
 1.640   29.1331
 1.639   28.9474
 1.638   29.1210
 1.637   28.9830
 1.636   29.0416
 1.635   28.9165
 1.634   29.0262
 1.633   28.9693
 1.632   29.0566
 1.631   28.9291
 1.630   29.0220
 1.629   28.8963
 1.628   29.0405
 1.627   28.9170
 1.626   29.0403
 1.625   28.8819
 1.624   28.9808
 1.623   28.9265
 1.622   28.9281
 1.621   28.8478
 1.620   28.9098
 1.619   28.9269
 1.618   28.9817
 1.617   28.9148
 1.616   28.9503
 1.615   28.8490
 1.614   28.9683
 1.613   28.8529
 1.612   28.8750
 1.611   28.8658
 1.610   28.8768
 1.609   28.7801
 1.608   28.9390
 1.607   28.8172
 1.606   28.8608
 1.605   28.7777
 1.604   28.8995
 1.603   28.7994
 1.602   28.8474
 1.601   28.7957
 1.600   28.8615
 1.599   28.7852
 1.598   28.9135
 1.597   28.7713
 1.596   28.8694
 1.595   28.7444
 1.594   28.8244
 1.593   28.7518
 1.592   28.8396
 1.591   28.7252
 1.590   28.8167
 1.589   28.8104
 1.588   28.8049
 1.587   28.7600
 1.586   28.8560
 1.585   28.8104
 1.584   28.7937
 1.583   28.7446
 1.582   28.8063
 1.581   28.7674
 1.580   28.8215
 1.579   28.7399
 1.578   28.7752
 1.577   28.6703
 1.576   28.7942
 1.575   28.7166
 1.574   28.7381
 1.573   28.6606
 1.572   28.7525
 1.571   28.7139
 1.570   28.7628
 1.569   28.6868
 1.568   28.7252
 1.567   28.6692
 1.566   28.7082
 1.565   28.6040
 1.564   28.6577
 1.563   28.6117
 1.562   28.6607
 1.561   28.5712
 1.560   28.5936
 1.559   28.6104
 1.558   28.5811
 1.557   28.5591
 1.556   28.6247
 1.555   28.5911
 1.554   28.5797
 1.553   28.5268
 1.552   28.6335
 1.551   28.5966
 1.550   28.5948
 1.549   28.5110
 1.548   28.5021
 1.547   28.4887
 1.546   28.5474
 1.545   28.5131
 1.544   28.5066
 1.543   28.4521
 1.542   28.4549
 1.541   28.4811
 1.540   28.5069
 1.539   28.4379
 1.538   28.4325
 1.537   28.4277
 1.536   28.4732
 1.535   28.4496
 1.534   28.4412
 1.533   28.3913
 1.532   28.3953
 1.531   28.3756
 1.530   28.3722
 1.529   28.3254
 1.528   28.3763
 1.527   28.3992
 1.526   28.3767
 1.525   28.3188
 1.524   28.3193
 1.523   28.3042
 1.522   28.3389
 1.521   28.3120
 1.520   28.3356
 1.519   28.2570
 1.518   28.2611
 1.517   28.2493
 1.516   28.2289
 1.515   28.2284
 1.514   28.2484
 1.513   28.2355
 1.512   28.2165
 1.511   28.1951
 1.510   28.2097
 1.509   28.1752
 1.508   28.1764
 1.507   28.1705
 1.506   28.1814
 1.505   28.2097
 1.504   28.2312
 1.503   28.2205
 1.502   28.1576
 1.501   28.1493
 1.500   28.1781
 1.499   28.1546
 1.498   28.1881
 1.497   28.1550
 1.496   28.1144
 1.495   28.1099
 1.494   28.1017
 1.493   28.1358
 1.492   28.1258
 1.491   28.0803
 1.490   28.0763
 1.489   28.0662
 1.488   28.0232
 1.487   28.0521
 1.486   28.0730
 1.485   28.0587
 1.484   27.9830
 1.483   27.9899
 1.482   28.0078
 1.481   28.0185
 1.480   27.9629
 1.479   28.0051
 1.478   27.9648
 1.477   27.9598
 1.476   27.9454
 1.475   27.9722
 1.474   27.9350
 1.473   27.8940
 1.472   27.9175
 1.471   27.8962
 1.470   27.9124
 1.469   27.9329
 1.468   27.8513
 1.467   27.8760
 1.466   27.8541
 1.465   27.8725
 1.464   27.7870
 1.463   27.7917
 1.462   27.7594
 1.461   27.8223
 1.460   27.7902
 1.459   27.7520
 1.458   27.7599
 1.457   27.7274
 1.456   27.6707
 1.455   27.6604
 1.454   27.6511
 1.453   27.6720
 1.452   27.6546
 1.451   27.6555
 1.450   27.6240
 1.449   27.5658
 1.448   27.5590
 1.447   27.6372
 1.446   27.4948
 1.445   27.5150
 1.444   27.4590
 1.443   27.4214
 1.442   27.3424
 1.441   27.2563
 1.440   27.1977
 1.439   27.2213
 1.438   27.0837
 1.437   27.0137
 1.436   26.8711
 1.435   26.7604
