Name: Molybdenite MoS_2
Type: Mineral
Class: Sulfides
Subclass: 
Particle Size: 45-125um
Sample No.: S-11A
Owner: JPL
Wavelength range: IR
Origin: Norway, Arendal, Froland
Collected by JPL
Description: 





Measurement: Hemispherical reflectance
First Column: X
Second Column: Y
X Units:  Wavelength (micrometers)
Y Units:  Reflectance (percent)
First X Value: 15.3853
Last X Value: 2.00032
Number of X Values: 2256
Additional information: s11aa.txt
 
15.3853	31.6308
15.3397	31.3756
15.2945	31.033
15.2495	30.6247
15.2048	30.539
15.1603	30.7947
15.1161	31.0205
15.0722	31.2111
15.0285	31.4646
14.9851	31.0442
14.9419	30.8817
14.8989	30.9694
14.8563	30.8553
14.8138	30.4194
14.7716	30.2665
14.7296	30.8429
14.6879	31.1143
14.6464	31.4296
14.6052	32.6915
14.5641	33.9906
14.5233	34.6156
14.4828	34.9123
14.4424	34.751
14.4023	34.2613
14.3624	33.7405
14.3227	32.7747
14.2833	31.407
14.244	30.5301
14.205	30.1324
14.1662	30.0431
14.1276	30.4887
14.0892	31.265
14.051	31.8284
14.0131	31.9064
13.9753	31.7134
13.9377	31.4686
13.9004	30.9253
13.8632	30.123
13.8262	29.6678
13.7895	29.8261
13.7529	30.1903
13.7165	30.64
13.6803	30.7689
13.6443	30.7185
13.6085	30.4853
13.5729	30.008
13.5374	29.6657
13.5022	29.4805
13.4671	29.2354
13.4322	29.1074
13.3975	28.9306
13.363	28.5655
13.3286	28.1965
13.2944	27.923
13.2604	27.7553
13.2266	27.6484
13.193	27.6058
13.1595	27.6353
13.1262	27.6372
13.093	27.4845
13.06	27.4584
13.0272	28.1357
12.9946	29.0784
12.9621	29.656
12.9298	29.8648
12.8976	29.4589
12.8656	28.5717
12.8337	27.7616
12.8021	27.7321
12.7705	28.2983
12.7391	28.8834
12.7079	29.2846
12.6769	29.657
12.6459	30.2302
12.6152	30.96
12.5845	31.888
12.5541	32.6887
12.5238	33.1643
12.4936	33.2905
12.4635	33.2437
12.4337	33.2557
12.4039	33.2769
12.3743	33.0842
12.3448	32.9733
12.3155	32.9661
12.2863	32.8368
12.2573	32.4855
12.2284	32.027
12.1996	31.5258
12.171	31.1382
12.1425	31.2368
12.1141	32.0635
12.0859	33.3977
12.0578	34.6786
12.0298	35.4798
12.0019	35.8642
11.9742	36.2175
11.9466	36.4919
11.9192	36.6474
11.8918	36.6697
11.8646	36.6471
11.8375	36.7325
11.8106	36.8606
11.7837	36.9451
11.757	36.9123
11.7304	36.8755
11.7039	36.8525
11.6776	36.8608
11.6513	36.9119
11.6252	36.913
11.5992	36.9229
11.5733	36.8377
11.5475	36.7999
11.5219	36.9097
11.4963	36.9372
11.4709	36.9973
11.4455	37.0274
11.4203	37.0741
11.3952	37.1148
11.3702	37.0303
11.3454	36.9578
11.3206	36.9172
11.2959	36.8432
11.2714	36.7207
11.2469	36.4835
11.2226	36.2076
11.1983	35.9464
11.1742	35.7215
11.1502	35.5824
11.1263	35.4421
11.1024	35.3546
11.0787	35.2702
11.0551	35.1758
11.0316	35.2051
11.0081	35.2348
10.9848	35.1535
10.9616	35.1037
10.9385	35.1876
10.9154	35.3865
10.8925	35.5711
10.8697	35.7945
10.8469	36.0195
10.8243	36.2481
10.8017	36.4657
10.7793	36.551
10.7569	36.4342
10.7346	36.3905
10.7125	36.4506
10.6904	36.3717
10.6684	36.2304
10.6465	36.1058
10.6247	36.0064
10.6029	35.8911
10.5813	35.8597
10.5597	35.9348
10.5383	36.053
10.5169	36.1834
10.4956	36.1938
10.4744	36.1764
10.4533	36.172
10.4323	36.2984
10.4113	36.4895
10.3904	36.7291
10.3697	36.9507
10.349	37.2676
10.3284	37.5742
10.3078	37.761
10.2874	37.8747
10.267	38.0015
10.2467	37.9934
10.2265	37.831
10.2064	37.6501
10.1863	37.6506
10.1663	37.6144
10.1464	37.5386
10.1266	37.5386
10.1069	37.5078
10.0872	37.3749
10.0676	37.2211
10.0481	37.2122
10.0287	37.3113
10.0093	37.3274
9.99005	37.2046
9.97084	37.1583
9.95169	37.12
9.93263	37.0627
9.91364	37.0789
9.89472	37.0922
9.87587	37.1238
9.8571	37.1108
9.83839	37.1961
9.81976	37.2332
9.80119	37.1195
9.78271	37.0739
9.76428	36.9779
9.74592	36.9911
9.72764	36.9477
9.70943	36.8752
9.69128	36.7512
9.6732	36.5845
9.65518	36.5205
9.63724	36.559
9.61935	36.6717
9.60155	36.7708
9.5838	36.8201
9.56611	36.9003
9.5485	36.8944
9.53094	37.0049
9.51345	37.1453
9.49604	37.0857
9.47867	36.9559
9.46137	37.0442
9.44414	37.2346
9.42697	37.317
9.40986	37.3775
9.39281	37.5354
9.37583	37.722
9.35891	37.865
9.34204	37.9836
9.32524	38.0221
9.3085	38.1321
9.29182	38.2692
9.27519	38.1101
9.25863	38.0113
9.24213	38.2176
9.22568	38.358
9.2093	38.3866
9.19297	38.3571
9.17669	38.3091
9.16048	38.2904
9.14433	38.3403
9.12823	38.3142
9.11218	38.367
9.0962	38.4213
9.08027	38.2825
9.06439	38.1304
9.04858	38.1326
9.03281	38.3145
9.0171	38.3518
9.00145	38.2464
8.98585	38.1304
8.9703	38.1456
8.9548	38.2525
8.93937	38.2815
8.92398	38.2894
8.90865	38.3054
8.89337	38.2779
8.87814	38.2441
8.86296	38.3055
8.84784	38.296
8.83277	38.3564
8.81774	38.2778
8.80277	38.2821
8.78786	38.4786
8.77298	38.5889
8.75816	38.6043
8.7434	38.7632
8.72868	38.9242
8.714	38.9194
8.69938	38.9724
8.68481	39.0197
8.67029	38.9613
8.65581	38.8058
8.64139	38.7102
8.62701	38.6974
8.61268	38.8166
8.5984	39.0058
8.58416	39.1652
8.56997	39.3604
8.55583	39.4375
8.54174	39.3638
8.52769	39.4584
8.51368	39.6566
8.49973	39.6954
8.48582	39.7813
8.47195	39.9815
8.45813	40.1107
8.44436	40.1186
8.43062	40.0722
8.41693	40.0924
8.4033	40.2164
8.3897	40.3285
8.37614	40.3815
8.36264	40.3492
8.34917	40.4418
8.33574	40.5363
8.32236	40.5492
8.30903	40.4721
8.29573	40.4983
8.28248	40.5634
8.26927	40.583
8.2561	40.7121
8.24298	40.8672
8.2299	40.8778
8.21685	41.0524
8.20385	41.2449
8.19089	41.2969
8.17797	41.29
8.16509	41.343
8.15225	41.565
8.13946	41.7397
8.1267	41.8009
8.11398	41.9427
8.10131	42.0857
8.08867	42.2332
8.07606	42.4168
8.0635	42.6186
8.05099	42.8302
8.0385	42.9852
8.02606	43.155
8.01366	43.3865
8.00129	43.5956
7.98896	43.8039
7.97667	44.0132
7.96442	44.2174
7.9522	44.3908
7.94002	44.5264
7.92788	44.6771
7.91578	44.8636
7.90371	44.9905
7.89168	45.1855
7.87969	45.3068
7.86773	45.481
7.85581	45.6533
7.84392	45.7756
7.83207	45.9444
7.82026	46.0479
7.80849	46.0742
7.79674	46.2164
7.78503	46.4081
7.77337	46.5122
7.76173	46.6055
7.75012	46.7424
7.73856	46.8589
7.72703	46.9453
7.71553	47.0167
7.70406	47.085
7.69263	47.1194
7.68123	47.2253
7.66987	47.3011
7.65855	47.3809
7.64725	47.4405
7.63598	47.4688
7.62475	47.5414
7.61356	47.5956
7.60239	47.738
7.59126	48.0151
7.58017	48.0274
7.5691	48.0071
7.55806	48.0694
7.54707	48.1745
7.5361	48.3408
7.52516	48.4595
7.51425	48.4807
7.50338	48.5187
7.49253	48.6013
7.48172	48.7502
7.47094	48.7882
7.46019	48.709
7.44947	48.5148
7.43879	48.4877
7.42813	48.4893
7.4175	48.4772
7.4069	48.4133
7.39634	48.4678
7.3858	48.4351
7.37529	48.3669
7.36482	48.3931
7.35437	48.4686
7.34396	48.6201
7.33357	48.5268
7.32321	48.1654
7.31288	48.106
7.30258	48.1126
7.29231	48.0717
7.28207	48.1972
7.27185	48.1184
7.26167	47.7895
7.25152	47.6617
7.24139	47.5595
7.23129	47.5547
7.22122	47.6311
7.21117	47.9432
7.20116	47.8079
7.19117	47.4361
7.18121	47.3934
7.17128	47.6266
7.16137	47.3278
7.1515	47.1379
7.14164	46.7842
7.13182	46.1358
7.12203	45.8818
7.11225	45.6832
7.10251	45.3017
7.0928	45.0176
7.08311	44.7222
7.07344	44.3874
7.06381	44.3309
7.0542	44.789
7.04461	45.0156
7.03506	44.2124
7.02552	43.8818
7.01601	43.819
7.00653	43.6946
6.99708	43.8628
6.98765	43.8777
6.97824	43.7818
6.96886	44.268
6.95951	44.9177
6.95018	44.3272
6.94087	44.0269
6.9316	44.1275
6.92234	44.2513
6.91311	44.485
6.90391	44.7174
6.89473	44.6386
6.88557	44.7875
6.87644	45.3575
6.86733	46.9171
6.85824	46.9932
6.84918	45.861
6.84015	45.5913
6.83114	46.1532
6.82215	46.4266
6.81319	46.3384
6.80424	46.8944
6.79532	48.343
6.78643	49.0792
6.77756	48.7558
6.76871	48.6279
6.75989	48.6114
6.75109	48.8758
6.74231	48.9504
6.73355	49.1764
6.72482	49.6966
6.71611	50.1507
6.70742	50.1586
6.69875	49.7273
6.69011	50.2163
6.68149	50.9746
6.67289	50.6962
6.66431	50.1592
6.65576	50.0286
6.64722	51.2475
6.63871	52.9689
6.63022	52.0549
6.62175	50.5909
6.61331	50.2404
6.60488	50.0542
6.59648	50.3979
6.5881	50.5416
6.57974	50.9833
6.5714	51.5515
6.56308	50.6117
6.55478	50.277
6.54651	49.9887
6.53825	49.6024
6.53001	49.797
6.5218	50.4826
6.51361	50.0713
6.50544	50.3823
6.49729	52.3143
6.48915	52.5096
6.48104	51.2816
6.47295	50.527
6.46488	49.8361
6.45683	49.7293
6.4488	49.7816
6.44079	49.8148
6.4328	50.1699
6.42482	50.871
6.41687	52.7254
6.40894	51.9939
6.40103	49.5243
6.39314	48.8108
6.38526	48.6127
6.37741	48.7531
6.36957	48.9463
6.36176	48.1541
6.35396	48.0925
6.34618	49.0285
6.33843	48.2534
6.33069	47.0926
6.32297	46.864
6.31527	46.6667
6.30758	46.4632
6.29992	46.2774
6.29227	46.1447
6.28465	46.0104
6.27704	45.8398
6.26945	45.6092
6.26188	45.3937
6.25432	45.1821
6.24679	45.0763
6.23927	44.9098
6.23177	44.7237
6.22429	44.6292
6.21683	44.5619
6.20938	44.3955
6.20195	44.1938
6.19454	44.4286
6.18715	45.3578
6.17978	44.8643
6.17242	44.0412
6.16508	44.3901
6.15776	44.6916
6.15045	44.4435
6.14317	44.3279
6.1359	44.1526
6.12864	44.094
6.12141	44.877
6.11419	45.9618
6.10699	45.2883
6.0998	44.4609
6.09263	44.3685
6.08549	44.5556
6.07835	45.4404
6.07123	45.845
6.06413	45.1186
6.05705	45.8771
6.04998	48.0475
6.04293	46.5987
6.0359	44.7434
6.02888	44.4143
6.02187	44.645
6.01489	45.0259
6.00792	44.6671
6.00096	44.4326
5.99403	45.1164
5.98711	45.3697
5.9802	44.8408
5.97331	45.1026
5.96644	45.2502
5.95958	44.4994
5.95274	44.4221
5.94591	44.9618
5.9391	46.5382
5.9323	46.1474
5.92552	44.7909
5.91876	44.6709
5.91201	44.6202
5.90528	44.9397
5.89856	46.2862
5.89186	46.2774
5.88517	46.8307
5.8785	47.0932
5.87184	45.6026
5.8652	45.6227
5.85857	45.4913
5.85196	45.2739
5.84536	45.2596
5.83878	45.6193
5.83221	46.4131
5.82566	47.5368
5.81912	47.6104
5.81259	46.6607
5.80608	46.4379
5.79959	46.631
5.79311	46.7206
5.78665	46.9561
5.78019	47.3162
5.77376	48.2589
5.76734	49.7167
5.76093	48.95
5.75453	48.2202
5.74815	48.7619
5.74179	48.6964
5.73543	48.8176
5.7291	48.9872
5.72277	49.353
5.71646	49.913
5.71017	50.3394
5.70389	49.8932
5.69762	49.8496
5.69136	50.1946
5.68513	50.1587
5.6789	50.5352
5.67268	50.6547
5.66648	50.3647
5.6603	50.6649
5.65413	50.9532
5.64797	51.3187
5.64182	51.8563
5.63569	51.2503
5.62957	50.7421
5.62347	50.7931
5.61737	51.0314
5.61129	51.0876
5.60522	51.2659
5.59917	51.408
5.59313	51.3187
5.5871	51.7197
5.58109	52.4675
5.57509	52.4048
5.5691	51.9907
5.56312	52.1769
5.55716	52.5403
5.55121	52.7224
5.54528	52.6137
5.53935	52.6509
5.53344	52.7818
5.52754	53.0607
5.52166	53.3551
5.51578	53.4402
5.50992	53.4737
5.50407	53.6762
5.49823	53.7308
5.49241	53.8855
5.4866	54.1
5.4808	54.449
5.47501	54.4814
5.46923	54.6665
5.46347	54.8912
5.45772	54.5789
5.45198	54.4528
5.44625	54.5244
5.44054	54.4884
5.43484	54.414
5.42914	54.6947
5.42347	55.2373
5.4178	54.8397
5.41214	54.3267
5.4065	54.1841
5.40087	54.0579
5.39525	53.9324
5.38964	53.7611
5.38404	53.7126
5.37846	53.6524
5.37288	53.5375
5.36732	53.4411
5.36177	53.5476
5.35623	53.859
5.35071	54.1155
5.34519	53.8441
5.33968	53.5804
5.33419	53.5925
5.32871	53.5791
5.32324	53.6001
5.31778	53.6303
5.31233	53.6768
5.30689	53.7648
5.30147	53.802
5.29605	54.0033
5.29065	54.0887
5.28525	53.9386
5.27987	54.0504
5.2745	54.152
5.26914	54.1825
5.26379	54.2875
5.25845	54.3986
5.25312	54.5144
5.24781	54.6287
5.2425	54.6951
5.23721	54.918
5.23192	55.0716
5.22665	55.1303
5.22138	55.2674
5.21613	55.5939
5.21089	55.6635
5.20566	55.5669
5.20044	55.5656
5.19522	55.4904
5.19002	55.5371
5.18483	55.5948
5.17965	55.5504
5.17448	55.5583
5.16933	55.5785
5.16418	55.5997
5.15904	55.628
5.15391	55.6632
5.14879	55.7556
5.14368	55.6699
5.13859	55.5845
5.1335	55.5951
5.12842	55.5775
5.12335	55.5982
5.1183	55.6207
5.11325	55.6164
5.10821	55.5386
5.10318	55.5352
5.09817	55.508
5.09316	55.5344
5.08816	55.5295
5.08317	55.5522
5.07819	55.4914
5.07322	55.4209
5.06826	55.3983
5.06331	55.4331
5.05837	55.425
5.05344	55.3801
5.04852	55.3963
5.04361	55.3674
5.03871	55.379
5.03382	55.4368
5.02894	55.4171
5.02406	55.499
5.0192	55.5505
5.01435	55.4435
5.0095	55.4294
5.00467	55.4516
4.99984	55.455
4.99502	55.4823
4.99021	55.5059
4.98542	55.5664
4.98063	55.6434
4.97585	55.7512
4.97108	55.8584
4.96632	55.9374
4.96156	55.9833
4.95682	56.1374
4.95209	56.2323
4.94736	56.2112
4.94264	56.1945
4.93794	56.2225
4.93324	56.284
4.92855	56.3869
4.92387	56.4779
4.9192	56.5623
4.91453	56.6371
4.90988	56.7298
4.90524	56.8879
4.9006	57.1051
4.89597	57.2463
4.89135	57.3395
4.88674	57.4272
4.88214	57.6051
4.87755	57.7652
4.87296	57.8405
4.86839	57.8609
4.86382	57.9069
4.85926	57.9579
4.85471	57.9631
4.85017	57.952
4.84564	58.0838
4.84111	58.1255
4.8366	58.1259
4.83209	58.1956
4.82759	58.214
4.8231	58.1889
4.81862	58.2672
4.81415	58.2238
4.80968	58.1896
4.80522	58.2137
4.80077	58.2914
4.79633	58.3476
4.7919	58.3671
4.78747	58.3509
4.78306	58.3027
4.77865	58.3217
4.77425	58.3571
4.76986	58.3802
4.76547	58.4161
4.7611	58.3777
4.75673	58.3553
4.75237	58.3596
4.74802	58.3461
4.74367	58.3923
4.73934	58.4723
4.73501	58.4482
4.73069	58.4648
4.72638	58.4528
4.72207	58.4379
4.71777	58.439
4.71348	58.4219
4.7092	58.4111
4.70493	58.3819
4.70066	58.3023
4.69641	58.3016
4.69216	58.314
4.68791	58.3008
4.68368	58.23
4.67945	58.2566
4.67523	58.321
4.67102	58.3156
4.66682	58.2509
4.66262	58.3076
4.65843	58.3384
4.65425	58.2814
4.65007	58.3117
4.64591	58.3631
4.64175	58.4118
4.6376	58.4396
4.63345	58.497
4.62932	58.4937
4.62519	58.3694
4.62106	58.346
4.61695	58.3852
4.61284	58.3752
4.60874	58.4021
4.60465	58.475
4.60056	58.4913
4.59648	58.4754
4.59241	58.4633
4.58835	58.4941
4.58429	58.5187
4.58024	58.4418
4.5762	58.3772
4.57216	58.3381
4.56814	58.362
4.56411	58.4089
4.5601	58.4299
4.55609	58.3976
4.55209	58.3393
4.5481	58.2825
4.54411	58.2623
4.54013	58.2815
4.53616	58.2808
4.5322	58.2555
4.52824	58.2074
4.52429	58.1448
4.52034	58.1067
4.51641	58.0209
4.51247	57.9271
4.50855	57.9566
4.50463	57.9587
4.50072	57.899
4.49682	57.8631
4.49292	57.8191
4.48903	57.8088
4.48515	57.8579
4.48127	57.8849
4.4774	57.8273
4.47354	57.7465
4.46968	57.6735
4.46584	57.6399
4.46199	57.6809
4.45815	57.72
4.45432	57.7316
4.4505	57.7342
4.44668	57.7011
4.44287	57.6876
4.43907	57.7154
4.43527	57.7059
4.43148	57.7257
4.4277	57.735
4.42392	57.708
4.42015	57.7369
4.41638	57.7323
4.41262	57.6954
4.40887	57.702
4.40513	57.7216
4.40139	57.7345
4.39765	57.7471
4.39393	57.7826
4.39021	57.8163
4.38649	57.787
4.38278	57.765
4.37908	57.7824
4.37539	57.7388
4.3717	57.6985
4.36801	57.7004
4.36434	57.764
4.36067	57.7366
4.357	57.6388
4.35335	57.6205
4.34969	57.6708
4.34605	57.6507
4.34241	57.6194
4.33877	57.5175
4.33514	57.3853
4.33152	57.3708
4.32791	57.3524
4.3243	57.2475
4.32069	57.1488
4.3171	57.0697
4.31351	56.9649
4.30992	56.7712
4.30634	56.6057
4.30277	56.484
4.2992	56.4739
4.29564	56.3671
4.29208	56.1151
4.28853	55.9885
4.28499	56.0026
4.28145	55.9387
4.27792	55.9025
4.27439	55.8883
4.27087	55.9161
4.26735	56.0486
4.26384	56.2777
4.26034	56.5719
4.25684	56.7084
4.25335	56.4841
4.24986	56.1181
4.24638	55.7746
4.24291	55.4368
4.23944	55.2226
4.23598	55.1674
4.23252	55.1106
4.22906	55.1239
4.22562	55.2956
4.22218	55.5247
4.21874	55.7135
4.21531	55.9747
4.21189	56.2188
4.20847	56.4384
4.20506	56.6679
4.20165	56.7504
4.19825	56.7947
4.19485	56.8839
4.19146	56.8256
4.18807	56.6861
4.18469	56.6424
4.18132	56.6796
4.17795	56.7058
4.17458	56.7051
4.17123	56.6666
4.16787	56.6386
4.16453	56.627
4.16118	56.5997
4.15785	56.5998
4.15451	56.6232
4.15119	56.622
4.14787	56.5354
4.14455	56.4796
4.14124	56.4835
4.13794	56.4511
4.13464	56.4194
4.13134	56.3454
4.12805	56.2847
4.12477	56.3371
4.12149	56.2963
4.11822	56.2099
4.11495	56.2545
4.11168	56.2984
4.10843	56.2352
4.10517	56.1672
4.10192	56.1238
4.09868	56.0902
4.09545	56.1064
4.09221	56.062
4.08899	56.0214
4.08576	56.0152
4.08255	55.9814
4.07933	55.9582
4.07613	55.9812
4.07292	55.9926
4.06973	55.9332
4.06654	55.8933
4.06335	55.8573
4.06017	55.79
4.05699	55.754
4.05382	55.7662
4.05065	55.8
4.04749	55.8302
4.04433	55.7915
4.04118	55.7053
4.03803	55.6585
4.03489	55.6157
4.03175	55.581
4.02862	55.6362
4.02549	55.6864
4.02237	55.6218
4.01925	55.5932
4.01614	55.5839
4.01303	55.5415
4.00993	55.4669
4.00683	55.4631
4.00373	55.403
4.00064	55.3412
3.99756	55.3439
3.99448	55.3832
3.9914	55.3488
3.98833	55.2726
3.98527	55.2769
3.98221	55.2184
3.97915	55.1643
3.9761	55.2256
3.97305	55.2385
3.97001	55.1814
3.96697	55.1428
3.96394	55.1477
3.96091	55.196
3.95789	55.1939
3.95487	55.1458
3.95186	55.1075
3.94885	55.0696
3.94584	55.0431
3.94284	54.9281
3.93984	54.8683
3.93685	54.9305
3.93386	54.985
3.93088	54.9655
3.9279	54.9377
3.92493	54.9146
3.92196	54.923
3.919	54.9559
3.91604	54.9003
3.91308	54.8024
3.91013	54.8241
3.90718	54.7886
3.90424	54.7239
3.9013	54.6916
3.89837	54.6906
3.89544	54.6676
3.89252	54.6839
3.8896	54.7318
3.88668	54.6867
3.88377	54.5874
3.88086	54.567
3.87796	54.5342
3.87506	54.5008
3.87217	54.483
3.86928	54.4887
3.86639	54.4938
3.86351	54.4506
3.86064	54.3651
3.85776	54.3405
3.8549	54.3212
3.85203	54.3118
3.84917	54.2687
3.84631	54.2261
3.84346	54.2269
3.84062	54.2089
3.83777	54.172
3.83494	54.1716
3.8321	54.155
3.82927	54.1537
3.82644	54.0974
3.82362	54.079
3.82081	54.0913
3.81799	54.0259
3.81518	53.9515
3.81238	53.9781
3.80958	53.9255
3.80678	53.827
3.80399	53.7493
3.8012	53.7149
3.79841	53.7941
3.79563	53.8045
3.79286	53.7256
3.79008	53.7682
3.78731	53.8584
3.78455	53.8017
3.78179	53.6539
3.77903	53.4975
3.77628	53.4468
3.77353	53.5253
3.77079	53.5653
3.76805	53.5299
3.76531	53.518
3.76258	53.4335
3.75985	53.3405
3.75713	53.3245
3.7544	53.2852
3.75169	53.2426
3.74898	53.2919
3.74627	53.2624
3.74356	53.2252
3.74086	53.2538
3.73816	53.2253
3.73547	53.1157
3.73278	53.0441
3.7301	53.0462
3.72741	53.0653
3.72474	53.0889
3.72206	53.0251
3.71939	52.9145
3.71673	52.8686
3.71406	52.8639
3.71141	52.8044
3.70875	52.7218
3.7061	52.7569
3.70345	52.7969
3.70081	52.6625
3.69817	52.597
3.69553	52.617
3.6929	52.6137
3.69027	52.5676
3.68765	52.4962
3.68503	52.4007
3.68241	52.2907
3.6798	52.2912
3.67719	52.2828
3.67458	52.2389
3.67198	52.1498
3.66938	52.0723
3.66678	52.0936
3.66419	52.0961
3.66161	52.0236
3.65902	51.9714
3.65644	51.9444
3.65387	51.9267
3.65129	51.923
3.64872	51.869
3.64616	51.7667
3.64359	51.6927
3.64103	51.6225
3.63848	51.6086
3.63593	51.5538
3.63338	51.5159
3.63084	51.4765
3.6283	51.4303
3.62576	51.3513
3.62322	51.2787
3.62069	51.3182
3.61817	51.2927
3.61564	51.1603
3.61312	51.0087
3.61061	50.9728
3.6081	50.9715
3.60559	50.9239
3.60308	50.9065
3.60058	50.8439
3.59808	50.7978
3.59558	50.7566
3.59309	50.637
3.59061	50.6079
3.58812	50.5438
3.58564	50.4447
3.58316	50.3597
3.58069	50.3254
3.57822	50.3025
3.57575	50.2543
3.57328	50.1761
3.57082	50.1109
3.56836	50.0516
3.56591	50.014
3.56346	49.9083
3.56101	49.8284
3.55857	49.7417
3.55613	49.6495
3.55369	49.571
3.55126	49.4928
3.54883	49.4563
3.5464	49.3608
3.54397	49.2488
3.54155	49.2021
3.53914	49.1071
3.53672	48.9584
3.53431	48.8085
3.5319	48.626
3.5295	48.4019
3.5271	48.1369
3.5247	47.8172
3.52231	47.5044
3.51991	47.2023
3.51753	46.9312
3.51514	46.6837
3.51276	46.4542
3.51038	46.3278
3.50801	46.2963
3.50563	46.2695
3.50327	46.301
3.5009	46.4129
3.49854	46.5293
3.49618	46.6074
3.49382	46.645
3.49147	46.714
3.48912	46.71
3.48677	46.6508
3.48443	46.5987
3.48209	46.522
3.47975	46.5283
3.47742	46.5725
3.47509	46.6341
3.47276	46.5651
3.47044	46.4162
3.46812	46.3457
3.4658	46.337
3.46348	46.2507
3.46117	46.158
3.45886	46.0474
