Name: Quartz SiO_2
Type: Mineral
Class: Silicates
Subclass: Tectosilicates
Particle Size: 125-500um
Sample No.: TS-1E
Owner: JPL
Wavelength range: VNIR-SWIR
Origin: Unknown.
Collected by:  JPL
Description: Crysoprase





Measurement: Hemispherical reflectance
First Column: X
Second Column: Y
X Units: Wavelength (micrometers)
Y Units: Reflectance (percent)
First X Value: 2.500
Last X Value: 0.400
Number of X Values: 2101
Additional information: ts01ea.txt

2.500  44.476898
2.499  44.166923
2.498  44.544168
2.497  44.228373
2.496  44.381140
2.495  44.659399
2.494  44.633249
2.493  44.657986
2.492  44.802910
2.491  44.803093
2.490  45.152009
2.489  44.947230
2.488  45.337209
2.487  45.183824
2.486  45.458971
2.485  45.329557
2.484  45.660022
2.483  45.579658
2.482  45.725589
2.481  45.695413
2.480  45.955769
2.479  45.970894
2.478  46.181975
2.477  46.101375
2.476  46.279930
2.475  46.317768
2.474  46.541946
2.473  46.523898
2.472  46.707889
2.471  46.914353
2.470  46.931633
2.469  47.082707
2.468  47.178057
2.467  47.265744
2.466  47.489189
2.465  47.403704
2.464  47.644822
2.463  47.789642
2.462  48.051465
2.461  48.096328
2.460  48.263553
2.459  48.403944
2.458  48.689553
2.457  48.555537
2.456  48.825920
2.455  49.085717
2.454  49.313371
2.453  49.436730
2.452  49.492595
2.451  49.703247
2.450  49.854000
2.449  50.162297
2.448  50.351135
2.447  50.404018
2.446  50.609266
2.445  50.700166
2.444  51.039063
2.443  51.042292
2.442  51.227999
2.441  51.363790
2.440  51.517744
2.439  51.736046
2.438  51.853894
2.437  51.965959
2.436  52.163232
2.435  52.219827
2.434  52.421528
2.433  52.476023
2.432  52.694572
2.431  52.823202
2.430  52.845002
2.429  52.905393
2.428  53.001204
2.427  53.083518
2.426  53.355495
2.425  53.383851
2.424  53.362145
2.423  53.411281
2.422  53.661667
2.421  53.766284
2.420  53.869643
2.419  54.005926
2.418  54.169235
2.417  54.198942
2.416  54.235468
2.415  54.418130
2.414  54.562456
2.413  54.640777
2.412  54.824551
2.411  54.925873
2.410  55.009376
2.409  55.131911
2.408  55.274758
2.407  55.340851
2.406  55.490696
2.405  55.659285
2.404  55.745251
2.403  55.828214
2.402  55.985104
2.401  56.084469
2.400  56.200508
2.399  56.276337
2.398  56.491160
2.397  56.582839
2.396  56.729835
2.395  56.831630
2.394  56.953263
2.393  57.083824
2.392  57.203905
2.391  57.291801
2.390  57.400468
2.389  57.538403
2.388  57.646546
2.387  57.717199
2.386  57.756335
2.385  57.798119
2.384  57.858493
2.383  57.874166
2.382  57.961958
2.381  58.051145
2.380  58.159205
2.379  58.169978
2.378  58.256951
2.377  58.244791
2.376  58.280030
2.375  58.329490
2.374  58.382753
2.373  58.430371
2.372  58.432526
2.371  58.427064
2.370  58.478609
2.369  58.515088
2.368  58.537083
2.367  58.543783
2.366  58.544414
2.365  58.526728
2.364  58.544224
2.363  58.538418
2.362  58.524789
2.361  58.499698
2.360  58.461497
2.359  58.393926
2.358  58.333213
2.357  58.348628
2.356  58.276442
2.355  58.204173
2.354  58.219261
2.353  58.127819
2.352  58.111194
2.351  58.044317
2.350  57.910530
2.349  57.875574
2.348  57.804804
2.347  57.707971
2.346  57.563755
2.345  57.481755
2.344  57.399826
2.343  57.305125
2.342  57.192539
2.341  57.015552
2.340  56.876120
2.339  56.770796
2.338  56.625849
2.337  56.439870
2.336  56.245201
2.335  56.055411
2.334  55.893263
2.333  55.736821
2.332  55.493894
2.331  55.345988
2.330  55.092822
2.329  54.906258
2.328  54.726964
2.327  54.511544
2.326  54.415939
2.325  54.269886
2.324  54.022877
2.323  53.878777
2.322  53.735202
2.321  53.584838
2.320  53.481831
2.319  53.367065
2.318  53.218403
2.317  53.143447
2.316  53.029100
2.315  52.948673
2.314  52.922559
2.313  52.821604
2.312  52.696155
2.311  52.733492
2.310  52.644565
2.309  52.620675
2.308  52.635902
2.307  52.644912
2.306  52.592197
2.305  52.576997
2.304  52.588985
2.303  52.648286
2.302  52.645667
2.301  52.680395
2.300  52.675071
2.299  52.739476
2.298  52.739724
2.297  52.842373
2.296  52.921856
2.295  53.003518
2.294  53.038932
2.293  53.099759
2.292  53.176687
2.291  53.259774
2.290  53.265874
2.289  53.343659
2.288  53.393892
2.287  53.510302
2.286  53.555044
2.285  53.670415
2.284  53.677949
2.283  53.714243
2.282  53.751787
2.281  53.790974
2.280  53.879027
2.279  53.975944
2.278  53.835327
2.277  53.937672
2.276  53.891950
2.275  54.006812
2.274  53.972802
2.273  54.065866
2.272  54.004001
2.271  54.023625
2.270  54.036526
2.269  54.013510
2.268  53.935541
2.267  53.973209
2.266  54.029887
2.265  54.001227
2.264  53.964159
2.263  53.911081
2.262  53.849559
2.261  53.886678
2.260  53.813544
2.259  53.808548
2.258  53.721368
2.257  53.764347
2.256  53.701516
2.255  53.756970
2.254  53.704694
2.253  53.735682
2.252  53.721897
2.251  53.745425
2.250  53.767398
2.249  53.777719
2.248  53.764911
2.247  53.800855
2.246  53.843183
2.245  53.896603
2.244  53.896987
2.243  53.891778
2.242  53.928153
2.241  53.987938
2.240  54.009561
2.239  54.086678
2.238  54.127254
2.237  54.230864
2.236  54.266001
2.235  54.219184
2.234  54.217685
2.233  54.271901
2.232  54.282271
2.231  54.385726
2.230  54.343409
2.229  54.356674
2.228  54.338090
2.227  54.354546
2.226  54.346601
2.225  54.470172
2.224  54.315083
2.223  54.364000
2.222  54.279634
2.221  54.401018
2.220  54.476981
2.219  54.506647
2.218  54.431468
2.217  54.499156
2.216  54.483297
2.215  54.621681
2.214  54.596724
2.213  54.634867
2.212  54.661420
2.211  54.789750
2.210  54.887450
2.209  55.078271
2.208  55.078649
2.207  55.380955
2.206  55.475854
2.205  55.687545
2.204  55.918678
2.203  56.155689
2.202  56.366395
2.201  56.616737
2.200  56.867851
2.199  57.197360
2.198  57.464392
2.197  57.732183
2.196  57.972575
2.195  58.249225
2.194  58.446450
2.193  58.652401
2.192  58.938060
2.191  59.222027
2.190  59.468570
2.189  59.692472
2.188  60.007904
2.187  60.312394
2.186  60.471983
2.185  60.741185
2.184  60.968107
2.183  61.262154
2.182  61.545544
2.181  61.853306
2.180  62.002665
2.179  62.328829
2.178  62.528405
2.177  62.813123
2.176  63.099808
2.175  63.332674
2.174  63.498405
2.173  63.683553
2.172  63.995568
2.171  64.209187
2.170  64.466132
2.169  64.638848
2.168  64.751006
2.167  64.923908
2.166  65.163079
2.165  65.409272
2.164  65.511919
2.163  65.707463
2.162  65.803314
2.161  66.098964
2.160  66.241815
2.159  66.347224
2.158  66.488170
2.157  66.620912
2.156  66.891262
2.155  66.915599
2.154  66.998329
2.153  67.215804
2.152  67.260581
2.151  67.411478
2.150  67.524429
2.149  67.670836
2.148  67.711825
2.147  67.819308
2.146  67.964544
2.145  68.032755
2.144  68.129573
2.143  68.165883
2.142  68.230858
2.141  68.365890
2.140  68.352038
2.139  68.473077
2.138  68.567410
2.137  68.584900
2.136  68.541091
2.135  68.665474
2.134  68.730357
2.133  68.757361
2.132  68.795462
2.131  68.811657
2.130  68.827569
2.129  68.905247
2.128  68.894544
2.127  68.903903
2.126  68.946166
2.125  68.951011
2.124  68.861425
2.123  68.870145
2.122  68.916113
2.121  68.917892
2.120  68.867087
2.119  68.824289
2.118  68.793915
2.117  68.819902
2.116  68.801587
2.115  68.724073
2.114  68.681076
2.113  68.721283
2.112  68.651975
2.111  68.635783
2.110  68.568018
2.109  68.528010
2.108  68.468684
2.107  68.469891
2.106  68.447243
2.105  68.407239
2.104  68.330318
2.103  68.336865
2.102  68.333538
2.101  68.337660
2.100  68.255306
2.099  68.233357
2.098  68.292654
2.097  68.304543
2.096  68.329725
2.095  68.394157
2.094  68.371455
2.093  68.331928
2.092  68.360169
2.091  68.433366
2.090  68.405193
2.089  68.432883
2.088  68.477248
2.087  68.481890
2.086  68.537414
2.085  68.574624
2.084  68.576151
2.083  68.555146
2.082  68.517124
2.081  68.528635
2.080  68.537567
2.079  68.581301
2.078  68.608635
2.077  68.573542
2.076  68.557383
2.075  68.529091
2.074  68.556521
2.073  68.569600
2.072  68.608902
2.071  68.621751
2.070  68.585552
2.069  68.558508
2.068  68.574194
2.067  68.598283
2.066  68.578401
2.065  68.555607
2.064  68.558419
2.063  68.557940
2.062  68.529497
2.061  68.520798
2.060  68.560425
2.059  68.501220
2.058  68.435813
2.057  68.486966
2.056  68.507381
2.055  68.460061
2.054  68.494259
2.053  68.472318
2.052  68.431931
2.051  68.387897
2.050  68.358918
2.049  68.347602
2.048  68.400916
2.047  68.345662
2.046  68.284028
2.045  68.285083
2.044  68.306792
2.043  68.246786
2.042  68.241423
2.041  68.173611
2.040  68.101498
2.039  68.079259
2.038  68.054270
2.037  68.015899
2.036  67.974394
2.035  67.867304
2.034  67.787795
2.033  67.761443
2.032  67.782822
2.031  67.653759
2.030  67.645535
2.029  67.578422
2.028  67.579222
2.027  67.499090
2.026  67.350390
2.025  67.267262
2.024  67.202133
2.023  67.124156
2.022  67.075555
2.021  67.049215
2.020  66.971697
2.019  66.819375
2.018  66.756787
2.017  66.656765
2.016  66.583059
2.015  66.482252
2.014  66.387263
2.013  66.344739
2.012  66.299328
2.011  66.202266
2.010  66.115241
2.009  65.958013
2.008  65.908187
2.007  65.762489
2.006  65.770082
2.005  65.614179
2.004  65.535819
2.003  65.445699
2.002  65.404683
2.001  65.248924
2.000  65.213710
1.999  65.139241
1.998  64.963856
1.997  64.844558
1.996  64.847566
1.995  64.710725
1.994  64.530002
1.993  64.414916
1.992  64.334865
1.991  64.184537
1.990  64.100551
1.989  63.912024
1.988  63.846420
1.987  63.727710
1.986  63.541202
1.985  63.437736
1.984  63.381450
1.983  63.152789
1.982  63.041060
1.981  62.927061
1.980  62.840214
1.979  62.666192
1.978  62.610112
1.977  62.437678
1.976  62.296260
1.975  62.161637
1.974  62.038389
1.973  61.930847
1.972  61.910046
1.971  61.658683
1.970  61.634487
1.969  61.469711
1.968  61.374580
1.967  61.217378
1.966  61.089920
1.965  60.943735
1.964  60.849275
1.963  60.764491
1.962  60.635169
1.961  60.469711
1.960  60.404221
1.959  60.212149
1.958  60.198858
1.957  60.052276
1.956  59.942131
1.955  59.761244
1.954  59.771659
1.953  59.573716
1.952  59.488582
1.951  59.413190
1.950  59.322071
1.949  59.176823
1.948  59.116404
1.947  58.997258
1.946  58.915752
1.945  58.755480
1.944  58.803627
1.943  58.564592
1.942  58.602960
1.941  58.445614
1.940  58.356049
1.939  58.322539
1.938  58.116021
1.937  58.094038
1.936  57.977134
1.935  57.940799
1.934  57.778133
1.933  57.752522
1.932  57.656054
1.931  57.535137
1.930  57.499701
1.929  57.454726
1.928  57.343696
1.927  57.344420
1.926  57.151585
1.925  57.114167
1.924  56.949812
1.923  56.912248
1.922  56.769709
1.921  56.816810
1.920  56.673863
1.919  56.569557
1.918  56.683197
1.917  56.492280
1.916  56.497877
1.915  56.452948
1.914  56.446166
1.913  56.372645
1.912  56.409247
1.911  56.453634
1.910  56.468955
1.909  56.612247
1.908  56.649973
1.907  56.879849
1.906  57.090226
1.905  57.340799
1.904  57.675103
1.903  57.993624
1.902  58.432690
1.901  58.967056
1.900  59.478384
1.899  59.958261
1.898  60.531419
1.897  61.074051
1.896  61.743605
1.895  62.384082
1.894  62.988773
1.893  63.614791
1.892  64.267618
1.891  64.922359
1.890  65.578024
1.889  66.128739
1.888  66.662356
1.887  67.219675
1.886  67.755361
1.885  68.218448
1.884  68.711197
1.883  69.048303
1.882  69.382144
1.881  69.661023
1.880  70.103714
1.879  70.298839
1.878  70.696235
1.877  70.955378
1.876  71.154623
1.875  71.371126
1.874  71.727646
1.873  71.842450
1.872  72.167753
1.871  72.332350
1.870  72.485759
1.869  72.634224
1.868  72.797534
1.867  72.908829
1.866  73.028447
1.865  73.174732
1.864  73.232060
1.863  73.357913
1.862  73.480237
1.861  73.438558
1.860  73.590512
1.859  73.610246
1.858  73.659076
1.857  73.701668
1.856  73.728221
1.855  73.779213
1.854  73.883571
1.853  73.942022
1.852  73.889821
1.851  73.958746
1.850  74.021247
1.849  74.102746
1.848  74.135934
1.847  74.159129
1.846  74.098046
1.845  74.089994
1.844  74.144729
1.843  74.215291
1.842  74.203451
1.841  74.224306
1.840  74.264833
1.839  74.266774
1.838  74.261761
1.837  74.254593
1.836  74.242020
1.835  74.311387
1.834  74.350876
1.833  74.316133
1.832  74.286205
1.831  74.276751
1.830  74.286505
1.829  74.286464
1.828  74.338571
1.827  74.301594
1.826  74.319313
1.825  74.339449
1.824  74.280416
1.823  74.371405
1.822  74.378975
1.821  74.333573
1.820  74.405566
1.819  74.289696
1.818  74.297616
1.817  74.331870
1.816  74.326685
1.815  74.294363
1.814  74.335742
1.813  74.382318
1.812  74.386239
1.811  74.409235
1.810  74.392443
1.809  74.428808
1.808  74.405272
1.807  74.382456
1.806  74.471737
1.805  74.503013
1.804  74.556146
1.803  74.481551
1.802  74.487801
1.801  74.538430
1.800  74.486238
1.799  74.465012
1.798  74.418817
1.797  74.427594
1.796  74.500054
1.795  74.461537
1.794  74.477985
1.793  74.545947
1.792  74.499441
1.791  74.473261
1.790  74.511643
1.789  74.523680
1.788  74.495569
1.787  74.484785
1.786  74.520834
1.785  74.544384
1.784  74.550124
1.783  74.557781
1.782  74.547624
1.781  74.484316
1.780  74.493993
1.779  74.551861
1.778  74.598026
1.777  74.586686
1.776  74.562656
1.775  74.613846
1.774  74.574389
1.773  74.566953
1.772  74.594202
1.771  74.606190
1.770  74.574806
1.769  74.548595
1.768  74.629710
1.767  74.694164
1.766  74.623931
1.765  74.657837
1.764  74.690878
1.763  74.634197
1.762  74.675144
1.761  74.707741
1.760  74.741127
1.759  74.742548
1.758  74.753396
1.757  74.779425
1.756  74.784231
1.755  74.750058
1.754  74.772316
1.753  74.821569
1.752  74.790746
1.751  74.846490
1.750  74.855905
1.749  74.880800
1.748  74.869001
1.747  74.892370
1.746  74.907280
1.745  74.836786
1.744  74.816835
1.743  74.861862
1.742  74.854675
1.741  74.890903
1.740  74.985172
1.739  74.967218
1.738  74.963320
1.737  74.991678
1.736  74.951641
1.735  75.026104
1.734  74.965730
1.733  75.003691
1.732  75.007626
1.731  74.989291
1.730  75.000062
1.729  75.047255
1.728  75.058923
1.727  75.043549
1.726  75.036159
1.725  75.065448
1.724  75.063290
1.723  75.052486
1.722  75.037222
1.721  75.133582
1.720  75.079508
1.719  75.030707
1.718  75.029027
1.717  75.082722
1.716  75.075331
1.715  75.126820
1.714  75.147447
1.713  75.123360
1.712  75.122706
1.711  75.117995
1.710  75.156521
1.709  75.101856
1.708  75.110715
1.707  75.145219
1.706  75.110412
1.705  75.106004
1.704  75.088486
1.703  75.102103
1.702  75.140839
1.701  75.070977
1.700  75.048931
1.699  75.120895
1.698  75.057464
1.697  75.047509
1.696  75.124195
1.695  75.153102
1.694  75.075347
1.693  74.970854
1.692  75.122649
1.691  75.132169
1.690  75.019744
1.689  75.041558
1.688  75.013596
1.687  75.055135
1.686  74.932437
1.685  75.086662
1.684  75.028561
1.683  75.029698
1.682  74.964831
1.681  75.022288
1.680  75.028182
1.679  74.964188
1.678  75.077952
1.677  75.077582
1.676  75.049329
1.675  75.031962
1.674  75.013261
1.673  75.058186
1.672  75.037608
1.671  75.028701
1.670  74.973019
1.669  75.038717
1.668  75.098382
1.667  75.085959
1.666  74.986132
1.665  75.069462
1.664  75.022078
1.663  75.005808
1.662  74.956839
1.661  75.038204
1.660  74.997827
1.659  74.957523
1.658  74.976574
1.657  75.026145
1.656  74.981654
1.655  75.004854
1.654  74.999875
1.653  75.057922
1.652  75.051767
1.651  75.071481
1.650  75.004961
1.649  75.016002
1.648  74.954989
1.647  75.060203
1.646  75.085701
1.645  75.033049
1.644  74.929033
1.643  74.993945
1.642  74.901282
1.641  74.926748
1.640  75.054140
1.639  75.003330
1.638  74.906255
1.637  75.064584
1.636  74.945504
1.635  75.068770
1.634  74.942178
1.633  74.940559
1.632  74.889946
1.631  74.969436
1.630  74.938999
1.629  74.890260
1.628  74.926127
1.627  74.861940
1.626  74.860919
1.625  74.997385
1.624  74.909994
1.623  74.921343
1.622  74.925059
1.621  74.902130
1.620  74.840916
1.619  74.867321
1.618  74.811952
1.617  74.888509
1.616  74.894212
1.615  74.838984
1.614  74.842717
1.613  74.827876
1.612  74.852133
1.611  74.829608
1.610  74.805429
1.609  74.781625
1.608  74.750123
1.607  74.825863
1.606  74.814554
1.605  74.806684
1.604  74.730407
1.603  74.815070
1.602  74.700724
1.601  74.695708
1.600  74.630936
1.599  74.701051
1.598  74.752954
1.597  74.712174
1.596  74.612388
1.595  74.542205
1.594  74.684523
1.593  74.670126
1.592  74.644892
1.591  74.644972
1.590  74.541454
1.589  74.504095
1.588  74.455537
1.587  74.502442
1.586  74.485783
1.585  74.519168
1.584  74.472625
1.583  74.528511
1.582  74.438283
1.581  74.459496
1.580  74.416155
1.579  74.402665
1.578  74.370963
1.577  74.385403
1.576  74.285779
1.575  74.285344
1.574  74.285820
1.573  74.319390
1.572  74.239078
1.571  74.271199
1.570  74.224362
1.569  74.211207
1.568  74.269313
1.567  74.182106
1.566  74.167446
1.565  74.115196
1.564  74.080163
1.563  74.065853
1.562  74.034446
1.561  74.067933
1.560  74.069208
1.559  74.040002
1.558  73.969704
1.557  73.962721
1.556  73.855916
1.555  73.884686
1.554  73.929124
1.553  73.881621
1.552  73.826633
1.551  73.806072
1.550  73.721222
1.549  73.793466
1.548  73.771855
1.547  73.674975
1.546  73.672387
1.545  73.619846
1.544  73.622834
1.543  73.639867
1.542  73.597549
1.541  73.546544
1.540  73.488513
1.539  73.436123
1.538  73.442841
1.537  73.407011
1.536  73.376456
1.535  73.379367
1.534  73.260857
1.533  73.245512
1.532  73.211212
1.531  73.241147
1.530  73.228463
1.529  73.224897
1.528  73.135672
1.527  73.048735
1.526  73.010929
1.525  72.963757
1.524  72.937295
1.523  72.978719
1.522  72.921843
1.521  72.916222
1.520  72.873246
1.519  72.808444
1.518  72.807644
1.517  72.773013
1.516  72.687288
1.515  72.664757
1.514  72.639440
1.513  72.575294
1.512  72.554539
1.511  72.557899
1.510  72.463171
1.509  72.363389
1.508  72.321249
1.507  72.304689
1.506  72.241233
1.505  72.221690
1.504  72.245679
1.503  72.171581
1.502  72.072280
1.501  72.031978
1.500  71.944739
1.499  71.917258
1.498  71.977452
1.497  71.910422
1.496  71.805705
1.495  71.780776
1.494  71.721717
1.493  71.596768
1.492  71.541539
1.491  71.525169
1.490  71.488680
1.489  71.421810
1.488  71.371569
1.487  71.378689
1.486  71.335216
1.485  71.216898
1.484  71.158055
1.483  71.128570
1.482  71.065754
1.481  70.970115
1.480  70.921846
1.479  70.900774
1.478  70.832127
1.477  70.731101
1.476  70.679275
1.475  70.600927
1.474  70.595770
1.473  70.533542
1.472  70.470252
1.471  70.409846
1.470  70.345932
1.469  70.332869
1.468  70.219926
1.467  70.166254
1.466  70.184687
1.465  70.103200
1.464  70.021748
1.463  70.043387
1.462  69.998503
1.461  69.893753
1.460  69.904154
1.459  69.963055
1.458  69.927442
1.457  69.799127
1.456  69.774002
1.455  69.787334
1.454  69.727573
1.453  69.687437
1.452  69.603502
1.451  69.572171
1.450  69.567205
1.449  69.456587
1.448  69.410793
1.447  69.243560
1.446  69.266009
1.445  69.139952
1.444  69.133231
1.443  69.054010
1.442  68.977660
1.441  68.822538
1.440  68.766162
1.439  68.708658
1.438  68.559100
1.437  68.450208
1.436  68.287399
1.435  68.229407
1.434  68.094291
1.433  67.987237
1.432  67.896276
1.431  67.726254
1.430  67.608782
1.429  67.483024
1.428  67.433496
1.427  67.330729
1.426  67.227901
1.425  67.127211
1.424  67.085592
1.423  66.967894
1.422  66.895431
1.421  66.815183
1.420  66.730319
1.419  66.575090
1.418  66.406826
1.417  65.807936
