Name: Witherite BaCO_3
Type: Mineral
Class: Carbonates
Subclass: 
Particle Size: 0-45um
Sample No.: C-2A
Owner: JPL
Wavelength range: IR
Origin: United Kingdom, England
Collected by Grieger's Inc.
Description: 





Measurement: Hemispherical reflectance
First Column: X
Second Column: Y
X Units:  Wavelength (micrometers)
Y Units:  Reflectance (percent)
First X Value: 15.3853
Last X Value: 2.00032
Number of X Values: 2256
Additional information: c02aa.txt
 
15.3853	57.2345
15.3397	57.9052
15.2945	58.8109
15.2495	59.5194
15.2048	59.7295
15.1603	59.5214
15.1161	58.926
15.0722	57.9882
15.0285	56.5704
14.9851	55.0326
14.9419	53.5956
14.8989	52.2185
14.8563	50.7453
14.8138	48.5599
14.7716	44.6232
14.7296	39.8295
14.6879	38.7399
14.6464	35.9511
14.6052	28.3302
14.5641	20.5587
14.5233	12.2692
14.4828	6.29223
14.4424	3.84892
14.4023	2.86577
14.3624	3.03526
14.3227	6.12151
14.2833	11.7596
14.244	18.5993
14.205	25.9864
14.1662	35.4742
14.1276	43.0346
14.0892	47.2679
14.051	50.2483
14.0131	52.6591
13.9753	54.7006
13.9377	56.3705
13.9004	58.0021
13.8632	59.6276
13.8262	61.1411
13.7895	62.1652
13.7529	62.9582
13.7165	63.7707
13.6803	64.5129
13.6443	64.9926
13.6085	65.2598
13.5729	65.3924
13.5374	65.4611
13.5022	65.4366
13.4671	65.2269
13.4322	64.8899
13.3975	64.5265
13.363	64.1066
13.3286	63.6529
13.2944	62.991
13.2604	62.1936
13.2266	61.347
13.193	60.4419
13.1595	59.5501
13.1262	58.8777
13.093	58.3697
13.06	57.9113
13.0272	57.5591
12.9946	57.5564
12.9621	57.875
12.9298	58.3243
12.8976	58.8092
12.8656	59.13
12.8337	59.4215
12.8021	59.8781
12.7705	60.1847
12.7391	60.3738
12.7079	60.5184
12.6769	60.6881
12.6459	60.7268
12.6152	60.7561
12.5845	60.7487
12.5541	60.5134
12.5238	59.9325
12.4936	59.0854
12.4635	58.1231
12.4337	57.3053
12.4039	56.7224
12.3743	56.2123
12.3448	55.7739
12.3155	55.496
12.2863	55.2963
12.2573	55.0211
12.2284	54.7262
12.1996	54.3924
12.171	53.7888
12.1425	52.6773
12.1141	50.9432
12.0859	48.5597
12.0578	45.516
12.0298	42.0642
12.0019	38.1669
11.9742	33.2305
11.9466	26.2556
11.9192	17.3892
11.8918	13.6354
11.8646	16.2023
11.8375	17.3796
11.8106	15.5246
11.7837	12.9874
11.757	10.5884
11.7304	8.56184
11.7039	7.32665
11.6776	7.11412
11.6513	7.51026
11.6252	8.45937
11.5992	10.4019
11.5733	13.6264
11.5475	16.8351
11.5219	18.9038
11.4963	20.5321
11.4709	21.9815
11.4455	23.129
11.4203	24.188
11.3952	25.0014
11.3702	25.446
11.3454	25.5196
11.3206	24.8784
11.2959	24.064
11.2714	25.8158
11.2469	29.1336
11.2226	31.4253
11.1983	32.7691
11.1742	33.7048
11.1502	34.7203
11.1263	36.0067
11.1024	37.5545
11.0787	39.3877
11.0551	41.7196
11.0316	44.167
11.0081	46.5201
10.9848	48.593
10.9616	50.1105
10.9385	50.9425
10.9154	51.0268
10.8925	50.4364
10.8697	49.5691
10.8469	48.809
10.8243	48.18
10.8017	47.8586
10.7793	48.1396
10.7569	49.0388
10.7346	50.2337
10.7125	51.397
10.6904	52.3806
10.6684	53.2733
10.6465	54.1879
10.6247	55.0677
10.6029	55.909
10.5813	56.5797
10.5597	57.0006
10.5383	57.2725
10.5169	57.4175
10.4956	57.2899
10.4744	56.7602
10.4533	56.1272
10.4323	55.4752
10.4113	55.0141
10.3904	54.5897
10.3697	54.1257
10.349	53.965
10.3284	54.1752
10.3078	54.5949
10.2874	54.9112
10.267	54.832
10.2467	54.4975
10.2265	54.0097
10.2064	53.517
10.1863	52.8446
10.1663	52.383
10.1464	52.5355
10.1266	52.6816
10.1069	52.5023
10.0872	52.3722
10.0676	52.3967
10.0481	52.5502
10.0287	52.7009
10.0093	52.4801
9.99005	51.9267
9.97084	51.2596
9.95169	50.7755
9.93263	50.4692
9.91364	50.3648
9.89472	50.2205
9.87587	50.0204
9.8571	49.9746
9.83839	49.7303
9.81976	49.3431
9.80119	48.9744
9.78271	48.6617
9.76428	48.5976
9.74592	48.6123
9.72764	48.5423
9.70943	48.4314
9.69128	48.1985
9.6732	47.7103
9.65518	46.7383
9.63724	45.0039
9.61935	44.7066
9.60155	45.3438
9.5838	45.2229
9.56611	45.0481
9.5485	45.0554
9.53094	45.169
9.51345	44.7011
9.49604	42.9721
9.47867	38.0053
9.46137	27.3324
9.44414	15.348
9.42697	16.7083
9.40986	30.465
9.39281	40.1483
9.37583	43.5811
9.35891	44.6708
9.34204	44.8469
9.32524	44.4644
9.3085	44.2204
9.29182	44.1068
9.27519	43.818
9.25863	43.4151
9.24213	43.0744
9.22568	42.7782
9.2093	42.4707
9.19297	41.9991
9.17669	41.5475
9.16048	41.0731
9.14433	40.6627
9.12823	40.4186
9.11218	40.1702
9.0962	39.9246
9.08027	39.7435
9.06439	39.6401
9.04858	39.4131
9.03281	38.9084
9.0171	38.4369
9.00145	37.9976
8.98585	37.5973
8.9703	37.4772
8.9548	37.7784
8.93937	38.2783
8.92398	38.7412
8.90865	39.2984
8.89337	39.9335
8.87814	40.5809
8.86296	41.4543
8.84784	42.1676
8.83277	42.1898
8.81774	41.6242
8.80277	41.1015
8.78786	40.7438
8.77298	40.669
8.75816	40.6667
8.7434	40.2949
8.72868	39.5658
8.714	38.673
8.69938	38.0466
8.68481	37.947
8.67029	38.1371
8.65581	38.1744
8.64139	38.0761
8.62701	38.1914
8.61268	38.7977
8.5984	39.6445
8.58416	40.1167
8.56997	40.1076
8.55583	39.7477
8.54174	39.2954
8.52769	38.6302
8.51368	37.8403
8.49973	37.3985
8.48582	37.4552
8.47195	37.9846
8.45813	38.5623
8.44436	38.7465
8.43062	39.0035
8.41693	39.2705
8.4033	39.4788
8.3897	39.6522
8.37614	39.7434
8.36264	39.9598
8.34917	40.2039
8.33574	40.4178
8.32236	40.4619
8.30903	40.0562
8.29573	39.235
8.28248	38.217
8.26927	37.214
8.2561	36.2273
8.24298	35.3201
8.2299	34.8579
8.21685	34.9449
8.20385	35.411
8.19089	35.9574
8.17797	36.3324
8.16509	36.7624
8.15225	37.3382
8.13946	37.8184
8.1267	38.1474
8.11398	38.241
8.10131	37.8994
8.08867	37.1168
8.07606	36.1646
8.0635	35.3136
8.05099	34.6417
8.0385	34.0303
8.02606	33.4443
8.01366	33.0487
8.00129	32.7561
7.98896	32.4788
7.97667	32.2096
7.96442	32.0791
7.9522	31.9643
7.94002	31.8242
7.92788	31.7035
7.91578	31.645
7.90371	31.6651
7.89168	31.8072
7.87969	31.8611
7.86773	31.795
7.85581	31.4697
7.84392	30.8165
7.83207	29.9363
7.82026	28.8081
7.80849	27.5079
7.79674	26.0631
7.78503	24.7271
7.77337	23.6534
7.76173	22.829
7.75012	22.1258
7.73856	21.5065
7.72703	20.9913
7.71553	20.5003
7.70406	20.0692
7.69263	19.7513
7.68123	19.4096
7.66987	19.1244
7.65855	18.9266
7.64725	18.7122
7.63598	18.4209
7.62475	18.2215
7.61356	18.2035
7.60239	18.1901
7.59126	18.1901
7.58017	18.1967
7.5691	18.1592
7.55806	18.0486
7.54707	18.03
7.5361	17.9728
7.52516	17.8608
7.51425	17.8946
7.50338	17.9476
7.49253	17.8068
7.48172	17.6386
7.47094	17.5862
7.46019	17.4396
7.44947	17.2918
7.43879	17.2142
7.42813	17.049
7.4175	16.8686
7.4069	16.7669
7.39634	16.5613
7.3858	16.1591
7.37529	15.7431
7.36482	15.4079
7.35437	14.8891
7.34396	14.171
7.33357	13.1665
7.32321	11.7794
7.31288	10.4042
7.30258	9.43415
7.29231	9.22207
7.28207	9.1578
7.27185	8.66361
7.26167	8.71246
7.25152	9.48833
7.24139	10.0011
7.23129	10.0738
7.22122	9.89349
7.21117	9.58241
7.20116	9.13014
7.19117	8.62701
7.18121	8.2529
7.17128	7.95497
7.16137	7.66497
7.1515	7.44877
7.14164	7.38058
7.13182	7.25828
7.12203	7.13303
7.11225	7.19405
7.10251	7.4563
7.0928	7.83207
7.08311	8.35218
7.07344	9.00523
7.06381	9.90934
7.0542	10.8638
7.04461	11.618
7.03506	11.9362
7.02552	12.0753
7.01601	12.1596
7.00653	12.2233
6.99708	12.3773
6.98765	12.4213
6.97824	12.3254
6.96886	12.3736
6.95951	12.4551
6.95018	12.3758
6.94087	12.3232
6.9316	12.3275
6.92234	12.4506
6.91311	12.6019
6.90391	12.6905
6.89473	12.7592
6.88557	12.8413
6.87644	12.9155
6.86733	13.0846
6.85824	13.1432
6.84918	13.0811
6.84015	13.1291
6.83114	13.2276
6.82215	13.2198
6.81319	13.1351
6.80424	13.1112
6.79532	13.2005
6.78643	13.1178
6.77756	12.86
6.76871	12.69
6.75989	12.5403
6.75109	12.4474
6.74231	12.3639
6.73355	12.3298
6.72482	12.283
6.71611	12.2056
6.70742	12.1091
6.69875	12.0439
6.69011	12.1386
6.68149	12.3436
6.67289	12.6768
6.66431	13.0615
6.65576	13.2896
6.64722	13.7804
6.63871	14.3492
6.63022	14.508
6.62175	14.5335
6.61331	14.66
6.60488	14.7531
6.59648	14.8421
6.5881	14.7079
6.57974	14.335
6.5714	13.4998
6.56308	12.5204
6.55478	11.6294
6.54651	10.7464
6.53825	9.91605
6.53001	9.15912
6.5218	8.43717
6.51361	7.67493
6.50544	6.97385
6.49729	6.38411
6.48915	5.77439
6.48104	5.16733
6.47295	4.6552
6.46488	4.15367
6.45683	3.76549
6.4488	3.49964
6.44079	3.23348
6.4328	3.04758
6.42482	3.02117
6.41687	2.85221
6.40894	2.67554
6.40103	2.63831
6.39314	2.62966
6.38526	2.59327
6.37741	2.53522
6.36957	2.5537
6.36176	2.64613
6.35396	2.72445
6.34618	2.71997
6.33843	2.74478
6.33069	2.89458
6.32297	3.02069
6.31527	3.1894
6.30758	3.41131
6.29992	3.51729
6.29227	3.67247
6.28465	3.95106
6.27704	4.15905
6.26945	4.27717
6.26188	4.43929
6.25432	4.66916
6.24679	4.88549
6.23927	5.14904
6.23177	5.44478
6.22429	5.58834
6.21683	5.80833
6.20938	6.0588
6.20195	6.234
6.19454	6.59919
6.18715	7.06754
6.17978	7.48917
6.17242	7.85416
6.16508	8.22469
6.15776	8.59851
6.15045	8.84507
6.14317	8.96278
6.1359	9.10236
6.12864	9.3945
6.12141	9.72916
6.11419	10.083
6.10699	10.2698
6.0998	10.592
6.09263	11.0258
6.08549	11.5892
6.07835	12.2538
6.07123	12.9735
6.06413	13.5864
6.05705	14.3144
6.04998	15.2075
6.04293	15.9522
6.0359	16.65
6.02888	17.5565
6.02187	18.6527
6.01489	19.8394
6.00792	20.8455
6.00096	21.9779
5.99403	23.2834
5.98711	24.5281
5.9802	25.5949
5.97331	26.8633
5.96644	28.1092
5.95958	29.2791
5.95274	30.6026
5.94591	32.0867
5.9391	33.8541
5.9323	35.0947
5.92552	35.8537
5.91876	36.8412
5.91201	37.9348
5.90528	39.1912
5.89856	40.7465
5.89186	41.8717
5.88517	43.0782
5.8785	44.3429
5.87184	45.0142
5.8652	46.1344
5.85857	47.0463
5.85196	47.7998
5.84536	48.2987
5.83878	48.3619
5.83221	47.2069
5.82566	46.112
5.81912	47.3771
5.81259	47.631
5.80608	46.9065
5.79959	48.6384
5.79311	50.6202
5.78665	50.9922
5.78019	50.3263
5.77376	49.2163
5.76734	47.7618
5.76093	45.0818
5.75453	41.6261
5.74815	36.5606
5.74179	28.7948
5.73543	19.5312
5.7291	11.5889
5.72277	6.40137
5.71646	3.64771
5.71017	2.95445
5.70389	3.19599
5.69762	3.49528
5.69136	4.16545
5.68513	7.22158
5.6789	14.7618
5.67268	26.1993
5.66648	36.9539
5.6603	44.8364
5.65413	50.1864
5.64797	53.9286
5.64182	56.8526
5.63569	58.707
5.62957	60.0784
5.62347	61.4776
5.61737	62.8074
5.61129	63.9581
5.60522	64.9886
5.59917	65.8778
5.59313	66.5958
5.5871	67.3771
5.58109	68.2362
5.57509	68.8272
5.5691	69.18
5.56312	69.6647
5.55716	70.133
5.55121	70.5507
5.54528	70.88
5.53935	71.2341
5.53344	71.5469
5.52754	71.8921
5.52166	72.1708
5.51578	72.3723
5.50992	72.5697
5.50407	72.822
5.49823	73.0501
5.49241	73.3324
5.4866	73.567
5.4808	73.9804
5.47501	74.2439
5.46923	74.6101
5.46347	74.9766
5.45772	75.0811
5.45198	75.2745
5.44625	75.6042
5.44054	75.8346
5.43484	76.0848
5.42914	76.469
5.42347	76.9523
5.4178	76.9558
5.41214	76.9066
5.4065	77.0987
5.40087	77.3063
5.39525	77.3933
5.38964	77.5492
5.38404	77.7185
5.37846	77.7918
5.37288	77.8275
5.36732	77.8853
5.36177	77.9138
5.35623	78.0858
5.35071	78.2995
5.34519	78.399
5.33968	78.5894
5.33419	78.8777
5.32871	79.1057
5.32324	79.3411
5.31778	79.5156
5.31233	79.7085
5.30689	79.8162
5.30147	79.8506
5.29605	79.9455
5.29065	80.022
5.28525	79.8763
5.27987	79.8141
5.2745	79.7378
5.26914	79.5836
5.26379	79.4096
5.25845	79.383
5.25312	79.3251
5.24781	79.392
5.2425	79.5711
5.23721	79.7658
5.23192	80.0099
5.22665	80.319
5.22138	80.4964
5.21613	80.7524
5.21089	80.9706
5.20566	81.0911
5.20044	81.2584
5.19522	81.3801
5.19002	81.5158
5.18483	81.5896
5.17965	81.5733
5.17448	81.5651
5.16933	81.4874
5.16418	81.3962
5.15904	81.2664
5.15391	81.2035
5.14879	81.1831
5.14368	81.0953
5.13859	81.0094
5.1335	81.0105
5.12842	81.0602
5.12335	81.1868
5.1183	81.345
5.11325	81.6111
5.10821	81.9385
5.10318	82.2904
5.09817	82.5343
5.09316	82.7807
5.08816	83.0588
5.08317	83.3473
5.07819	83.5682
5.07322	83.6703
5.06826	83.6791
5.06331	83.7176
5.05837	83.6876
5.05344	83.6229
5.04852	83.5338
5.04361	83.5388
5.03871	83.5844
5.03382	83.7069
5.02894	83.8433
5.02406	84.0398
5.0192	84.1452
5.01435	84.2197
5.0095	84.3
5.00467	84.4133
4.99984	84.544
4.99502	84.5799
4.99021	84.5428
4.98542	84.5405
4.98063	84.5222
4.97585	84.4135
4.97108	84.3185
4.96632	84.2973
4.96156	84.2682
4.95682	84.231
4.95209	84.1603
4.94736	84.1285
4.94264	84.0976
4.93794	84.087
4.93324	84.0508
4.92855	83.9971
4.92387	83.9431
4.9192	83.9071
4.91453	83.8568
4.90988	83.7366
4.90524	83.6278
4.9006	83.4924
4.89597	83.2606
4.89135	82.9462
4.88674	82.6203
4.88214	82.4969
4.87755	82.4207
4.87296	82.1856
4.86839	81.771
4.86382	81.2491
4.85926	80.6703
4.85471	80.0442
4.85017	79.4561
4.84564	78.9908
4.84111	78.4995
4.8366	77.7808
4.83209	76.7404
4.82759	75.3808
4.8231	73.6061
4.81862	71.3411
4.81415	68.7312
4.80968	65.9625
4.80522	63.2277
4.80077	60.6032
4.79633	57.9584
4.7919	55.3108
4.78747	52.9845
4.78306	51.3891
4.77865	50.6628
4.77425	50.8546
4.76986	51.7219
4.76547	52.9351
4.7611	54.3887
4.75673	55.9453
4.75237	57.577
4.74802	59.0528
4.74367	60.254
4.73934	61.2627
4.73501	62.0178
4.73069	62.5496
4.72638	63.1475
4.72207	63.962
4.71777	64.9353
4.71348	66.0411
4.7092	67.0995
4.70493	68.2
4.70066	69.3097
4.69641	70.2401
4.69216	70.9142
4.68791	71.4878
4.68368	72.0971
4.67945	72.6123
4.67523	72.9381
4.67102	73.2256
4.66682	73.5625
4.66262	73.9069
4.65843	74.316
4.65425	74.7876
4.65007	75.1947
4.64591	75.5407
4.64175	75.8509
4.6376	76.1399
4.63345	76.3485
4.62932	76.4792
4.62519	76.6187
4.62106	76.7135
4.61695	76.69
4.61284	76.6494
4.60874	76.6525
4.60465	76.6841
4.60056	76.6269
4.59648	76.5618
4.59241	76.5701
4.58835	76.5915
4.58429	76.5585
4.58024	76.5169
4.5762	76.5747
4.57216	76.6239
4.56814	76.648
4.56411	76.7163
4.5601	76.7924
4.55609	76.9591
4.55209	77.196
4.5481	77.4712
4.54411	77.7319
4.54013	77.9843
4.53616	78.3496
4.5322	78.7548
4.52824	79.1816
4.52429	79.7303
4.52034	80.2921
4.51641	80.8346
4.51247	81.3563
4.50855	81.8063
4.50463	82.1647
4.50072	82.456
4.49682	82.6165
4.49292	82.6034
4.48903	82.5079
4.48515	82.5254
4.48127	82.5805
4.4774	82.7216
4.47354	82.8488
4.46968	82.905
4.46584	82.925
4.46199	82.9292
4.45815	82.8136
4.45432	82.6038
4.4505	82.3962
4.44668	82.1284
4.44287	81.8124
4.43907	81.4782
4.43527	81.121
4.43148	80.6385
4.4277	79.9865
4.42392	79.2897
4.42015	78.4549
4.41638	77.4561
4.41262	76.3895
4.40887	75.3497
4.40513	74.3495
4.40139	73.5555
4.39765	73.1333
4.39393	73.1221
4.39021	73.3926
4.38649	73.8674
4.38278	74.4877
4.37908	75.1227
4.37539	75.5944
4.3717	75.8977
4.36801	76.1415
4.36434	76.3584
4.36067	76.525
4.357	76.7627
4.35335	76.9022
4.34969	76.9613
4.34605	77.0381
4.34241	77.1084
4.33877	77.0466
4.33514	77.0613
4.33152	77.1686
4.32791	77.251
4.3243	77.2059
4.32069	77.1064
4.3171	77.0271
4.31351	76.92
4.30992	76.7903
4.30634	76.6951
4.30277	76.5643
4.2992	76.3145
4.29564	76.0116
4.29208	75.7034
4.28853	75.295
4.28499	74.797
4.28145	74.265
4.27792	73.705
4.27439	73.1231
4.27087	72.6833
4.26735	72.3914
4.26384	72.2264
4.26034	72.1809
4.25684	72.2562
4.25335	72.2939
4.24986	72.2863
4.24638	72.2637
4.24291	72.1784
4.23944	72.077
4.23598	71.9431
4.23252	71.8484
4.22906	71.7423
4.22562	71.6016
4.22218	71.3887
4.21874	71.1653
4.21531	70.97
4.21189	70.7394
4.20847	70.4784
4.20506	70.2854
4.20165	70.0954
4.19825	69.8175
4.19485	69.5478
4.19146	69.3092
4.18807	69.0991
4.18469	68.8776
4.18132	68.6466
4.17795	68.3508
4.17458	67.9833
4.17123	67.6622
4.16787	67.2743
4.16453	66.8033
4.16118	66.1903
4.15785	65.4193
4.15451	64.5734
4.15119	63.4573
4.14787	62.0552
4.14455	60.2131
4.14124	57.8493
4.13794	55.0107
4.13464	51.6853
4.13134	48.9371
4.12805	47.241
4.12477	45.1216
4.12149	42.8255
4.11822	41.7708
4.11495	40.9185
4.11168	38.5197
4.10843	34.484
4.10517	29.4652
4.10192	24.3672
4.09868	20.022
4.09545	16.8262
4.09221	14.4356
4.08899	12.2956
4.08576	10.2221
4.08255	8.46851
4.07933	7.46051
4.07613	7.39506
4.07292	8.02319
4.06973	8.89717
4.06654	9.97569
4.06335	11.1624
4.06017	12.1178
4.05699	12.9786
4.05382	13.6674
4.05065	14.148
4.04749	14.6037
4.04433	14.8507
4.04118	14.9555
4.03803	15.4816
4.03489	16.666
4.03175	18.2816
4.02862	19.9929
4.02549	21.6312
4.02237	23.2868
4.01925	24.8159
4.01614	26.2424
4.01303	27.7796
4.00993	29.4454
4.00683	30.6901
4.00373	31.2598
4.00064	31.4274
3.99756	31.6171
3.99448	32.0142
3.9914	32.5994
3.98833	33.1809
3.98527	33.8049
3.98221	34.5568
3.97915	35.2881
3.9761	35.8449
3.97305	36.2493
3.97001	36.5428
3.96697	36.7658
3.96394	36.8402
3.96091	36.833
3.95789	36.7799
3.95487	36.5444
3.95186	36.4061
3.94885	36.3047
3.94584	36.0709
3.94284	35.8777
3.93984	35.8039
3.93685	35.8424
3.93386	35.8482
3.93088	35.8395
3.9279	35.8501
3.92493	35.8398
3.92196	35.9346
3.919	36.1783
3.91604	36.4321
3.91308	36.7034
3.91013	37.0654
3.90718	37.5455
3.90424	38.3128
3.9013	39.3115
3.89837	40.6441
3.89544	42.3582
3.89252	44.407
3.8896	46.6701
3.88668	49.2831
3.88377	52.3625
3.88086	55.7109
3.87796	58.9091
3.87506	61.7162
3.87217	63.9956
3.86928	65.7703
3.86639	67.1038
3.86351	68.0728
3.86064	68.8205
3.85776	69.4703
3.8549	69.9562
3.85203	70.3298
3.84917	70.5815
3.84631	70.6397
3.84346	70.6545
3.84062	70.8068
3.83777	70.9159
3.83494	71.0091
3.8321	71.2061
3.82927	71.4897
3.82644	71.8193
3.82362	72.1192
3.82081	72.3856
3.81799	72.6595
3.81518	72.9617
3.81238	73.3252
3.80958	73.6201
3.80678	73.8002
3.80399	73.9626
3.8012	74.1109
3.79841	74.29
3.79563	74.5807
3.79286	74.7917
3.79008	74.8803
3.78731	75.0412
3.78455	75.184
3.78179	75.3034
3.77903	75.3996
3.77628	75.5331
3.77353	75.7297
3.77079	75.9281
3.76805	76.0734
3.76531	76.1841
3.76258	76.3184
3.75985	76.4229
3.75713	76.4945
3.7544	76.5338
3.75169	76.6232
3.74898	76.7469
3.74627	76.835
3.74356	76.8358
3.74086	76.831
3.73816	76.7929
3.73547	76.7769
3.73278	76.7817
3.7301	76.6666
3.72741	76.537
3.72474	76.5388
3.72206	76.5123
3.71939	76.5508
3.71673	76.5965
3.71406	76.5919
3.71141	76.5762
3.70875	76.5726
3.7061	76.5683
3.70345	76.5549
3.70081	76.4938
3.69817	76.342
3.69553	76.2958
3.6929	76.313
3.69027	76.192
3.68765	76.0691
3.68503	76.0121
3.68241	75.9229
3.6798	75.7777
3.67719	75.6257
3.67458	75.4399
3.67198	75.2501
3.66938	75.0368
3.66678	74.8555
3.66419	74.6696
3.66161	74.3965
3.65902	74.0332
3.65644	73.5388
3.65387	72.8989
3.65129	71.929
3.64872	70.5068
3.64616	68.9091
3.64359	67.9098
3.64103	68.2432
3.63848	69.3972
3.63593	70.4995
3.63338	71.1946
3.63084	71.4881
3.6283	71.4621
3.62576	71.3442
3.62322	71.0417
3.62069	70.6042
3.61817	70.0648
3.61564	69.5031
3.61312	68.8562
3.61061	68.0306
3.6081	67.1428
3.60559	66.0954
3.60308	64.9951
3.60058	63.681
3.59808	62.0752
3.59558	60.2206
3.59309	58.1624
3.59061	55.9947
3.58812	53.6964
3.58564	51.285
3.58316	48.7715
3.58069	46.256
3.57822	43.6187
3.57575	40.9224
3.57328	38.3615
3.57082	36.0665
3.56836	34.1218
3.56591	32.7634
3.56346	31.7905
3.56101	30.508
3.55857	28.5273
3.55613	26.0947
3.55369	23.7211
3.55126	21.7189
3.54883	20.29
3.5464	19.3066
3.54397	18.761
3.54155	18.4373
3.53914	18.4325
3.53672	19.048
3.53431	20.0333
3.5319	21.2868
3.5295	22.5673
3.5271	23.801
3.5247	24.9625
3.52231	25.9242
3.51991	26.7707
3.51753	27.526
3.51514	28.1497
3.51276	28.6935
3.51038	29.1846
3.50801	29.7051
3.50563	30.295
3.50327	30.8638
3.5009	31.4029
3.49854	31.7993
3.49618	31.9981
3.49382	31.8885
3.49147	31.4123
3.48912	30.8157
3.48677	30.2399
3.48443	29.7568
3.48209	29.2681
3.47975	28.7892
3.47742	28.2978
3.47509	27.9642
3.47276	27.8504
3.47044	27.7619
3.46812	27.8098
3.4658	28.0183
3.46348	28.2803
3.46117	28.5586
3.45886	28.843
