Name: Fluorite CaF_2
Type: Mineral
Class: Halides
Subclass: 
Particle Size: 0-45um
Sample No.: H-2B
Owner: JPL
Wavelength range: IR
Origin: United Kingdom, England, Durham County, Weardal
Collected by Ward's
Description: 





Measurement: Hemispherical reflectance
First Column: X
Second Column: Y
X Units:  Wavelength (micrometers)
Y Units:  Reflectance (percent)
First X Value: 15.3853
Last X Value: 2.00032
Number of X Values: 2256
Additional information: h02ba.txt
 
15.3853	2.82091
15.3397	3.07948
15.2945	3.18845
15.2495	3.2776
15.2048	3.27861
15.1603	3.59229
15.1161	3.94478
15.0722	4.14458
15.0285	4.25425
14.9851	4.2862
14.9419	4.09582
14.8989	3.92501
14.8563	4.03378
14.8138	4.23324
14.7716	4.35719
14.7296	4.53526
14.6879	4.74355
14.6464	4.94434
14.6052	4.95236
14.5641	4.87595
14.5233	4.80796
14.4828	4.70019
14.4424	4.63591
14.4023	4.49238
14.3624	4.45691
14.3227	4.8945
14.2833	5.01069
14.244	5.05382
14.205	5.50423
14.1662	5.70136
14.1276	5.692
14.0892	5.67403
14.051	5.80235
14.0131	5.81463
13.9753	5.95234
13.9377	6.05008
13.9004	6.19412
13.8632	6.4957
13.8262	6.72191
13.7895	6.7752
13.7529	6.96773
13.7165	7.17335
13.6803	7.21842
13.6443	7.42092
13.6085	7.6931
13.5729	7.96847
13.5374	8.19772
13.5022	8.44743
13.4671	8.66152
13.4322	8.76291
13.3975	8.99416
13.363	9.23308
13.3286	9.45165
13.2944	9.66626
13.2604	9.92089
13.2266	10.2093
13.193	10.2759
13.1595	10.2123
13.1262	10.2418
13.093	10.5283
13.06	10.6103
13.0272	10.4536
12.9946	10.3603
12.9621	10.5005
12.9298	10.5957
12.8976	10.6509
12.8656	10.7047
12.8337	10.854
12.8021	11.0432
12.7705	11.2264
12.7391	11.4484
12.7079	11.6125
12.6769	11.7488
12.6459	11.801
12.6152	12.092
12.5845	12.3544
12.5541	12.4681
12.5238	12.6742
12.4936	12.8605
12.4635	13.1139
12.4337	13.4865
12.4039	13.9563
12.3743	14.6157
12.3448	15.2492
12.3155	15.9318
12.2863	16.633
12.2573	17.31
12.2284	17.9308
12.1996	18.4581
12.171	18.8559
12.1425	19.2788
12.1141	19.7918
12.0859	20.4026
12.0578	21.0358
12.0298	21.491
12.0019	21.739
11.9742	22.0207
11.9466	22.4188
11.9192	22.7818
11.8918	23.0546
11.8646	23.3148
11.8375	23.6111
11.8106	23.656
11.7837	23.7356
11.757	24.2292
11.7304	24.7741
11.7039	25.1653
11.6776	25.3449
11.6513	25.446
11.6252	25.6301
11.5992	25.7157
11.5733	25.5595
11.5475	25.2171
11.5219	24.7429
11.4963	23.7796
11.4709	22.4819
11.4455	21.3156
11.4203	20.2492
11.3952	19.7313
11.3702	20.4247
11.3454	21.9877
11.3206	23.5487
11.2959	25.1771
11.2714	27.0078
11.2469	28.2555
11.2226	28.753
11.1983	28.9987
11.1742	29.1585
11.1502	29.4095
11.1263	29.6331
11.1024	29.7831
11.0787	29.9538
11.0551	30.1833
11.0316	30.3985
11.0081	30.5165
10.9848	30.5688
10.9616	30.728
10.9385	30.9497
10.9154	31.0778
10.8925	31.2815
10.8697	31.5257
10.8469	31.5836
10.8243	31.5892
10.8017	31.68
10.7793	31.8455
10.7569	31.9174
10.7346	32.038
10.7125	32.1094
10.6904	32.1122
10.6684	32.2136
10.6465	32.199
10.6247	32.1465
10.6029	32.1732
10.5813	32.216
10.5597	32.257
10.5383	32.4301
10.5169	32.5505
10.4956	32.4977
10.4744	32.361
10.4533	32.3249
10.4323	32.2609
10.4113	32.3081
10.3904	32.3869
10.3697	32.3605
10.349	32.2839
10.3284	32.2357
10.3078	32.199
10.2874	32.2344
10.267	32.1598
10.2467	31.9292
10.2265	31.8303
10.2064	31.7937
10.1863	31.6886
10.1663	31.5234
10.1464	31.2852
10.1266	31.0196
10.1069	30.7732
10.0872	30.6085
10.0676	30.586
10.0481	30.5622
10.0287	30.4915
10.0093	30.3769
9.99005	30.201
9.97084	29.9835
9.95169	29.9905
9.93263	30.0111
9.91364	29.9835
9.89472	29.8341
9.87587	29.7245
9.8571	29.5715
9.83839	29.4473
9.81976	29.3458
9.80119	29.2531
9.78271	29.1265
9.76428	28.883
9.74592	28.7531
9.72764	28.7224
9.70943	28.6064
9.69128	28.5107
9.6732	28.4683
9.65518	28.305
9.63724	28.0923
9.61935	27.9763
9.60155	27.8693
9.5838	27.7512
9.56611	27.8538
9.5485	27.8216
9.53094	27.6916
9.51345	27.5434
9.49604	27.4216
9.47867	27.4741
9.46137	27.6264
9.44414	27.6615
9.42697	27.8261
9.40986	28.2562
9.39281	28.7049
9.37583	29.2702
9.35891	29.7412
9.34204	30.0094
9.32524	30.2303
9.3085	30.227
9.29182	30.1528
9.27519	30.0277
9.25863	29.7815
9.24213	29.5101
9.22568	29.302
9.2093	29.0767
9.19297	28.9051
9.17669	28.8272
9.16048	28.7076
9.14433	28.611
9.12823	28.6645
9.11218	28.8339
9.0962	28.8679
9.08027	28.7073
9.06439	28.6316
9.04858	28.6626
9.03281	28.71
9.0171	28.7978
9.00145	28.8055
8.98585	28.8229
8.9703	28.8582
8.9548	28.9165
8.93937	28.9994
8.92398	29.1559
8.90865	29.235
8.89337	29.2413
8.87814	29.3004
8.86296	29.4015
8.84784	29.529
8.83277	29.6319
8.81774	29.6573
8.80277	29.7352
8.78786	29.7925
8.77298	29.8908
8.75816	30.1726
8.7434	30.5515
8.72868	30.6801
8.714	30.6743
8.69938	30.8747
8.68481	30.9938
8.67029	30.9996
8.65581	31.0694
8.64139	31.0084
8.62701	30.9127
8.61268	31.0529
8.5984	31.6269
8.58416	32.2657
8.56997	32.6984
8.55583	33.1232
8.54174	33.5782
8.52769	33.8519
8.51368	34.0908
8.49973	34.4382
8.48582	34.7103
8.47195	34.89
8.45813	35.0287
8.44436	35.1037
8.43062	35.4057
8.41693	35.7288
8.4033	35.8331
8.3897	35.9524
8.37614	36.15
8.36264	36.3951
8.34917	36.6429
8.33574	36.8652
8.32236	37.0385
8.30903	37.3311
8.29573	37.7228
8.28248	38.0579
8.26927	38.4802
8.2561	39.0005
8.24298	39.4096
8.2299	39.9583
8.21685	40.6751
8.20385	41.0775
8.19089	41.4039
8.17797	41.7705
8.16509	42.0126
8.15225	42.1211
8.13946	42.2496
8.1267	42.4269
8.11398	42.466
8.10131	42.5569
8.08867	42.7153
8.07606	42.8564
8.0635	42.8981
8.05099	42.9626
8.0385	43.1788
8.02606	43.3733
8.01366	43.4642
8.00129	43.5696
7.98896	43.7589
7.97667	43.9909
7.96442	44.1638
7.9522	44.2588
7.94002	44.3453
7.92788	44.4363
7.91578	44.5782
7.90371	44.702
7.89168	44.7925
7.87969	44.7994
7.86773	44.8533
7.85581	44.9926
7.84392	45.1054
7.83207	45.2318
7.82026	45.3035
7.80849	45.3498
7.79674	45.5071
7.78503	45.614
7.77337	45.7095
7.76173	45.8275
7.75012	45.891
7.73856	45.8896
7.72703	45.9983
7.71553	46.0925
7.70406	46.1385
7.69263	46.1986
7.68123	46.2889
7.66987	46.2916
7.65855	46.3012
7.64725	46.3027
7.63598	46.2289
7.62475	46.1692
7.61356	46.1061
7.60239	45.949
7.59126	45.9158
7.58017	45.929
7.5691	45.8981
7.55806	45.953
7.54707	46.0831
7.5361	46.2129
7.52516	46.3044
7.51425	46.3625
7.50338	46.426
7.49253	46.4749
7.48172	46.5839
7.47094	46.6441
7.46019	46.5543
7.44947	46.1887
7.43879	46.0466
7.42813	45.9389
7.4175	45.7907
7.4069	45.6342
7.39634	45.4295
7.3858	45.2651
7.37529	45.0997
7.36482	44.8606
7.35437	44.7339
7.34396	44.59
7.33357	44.1379
7.32321	43.4408
7.31288	43.0584
7.30258	42.5819
7.29231	42.0347
7.28207	41.6697
7.27185	41.1972
7.26167	40.5671
7.25152	40.1524
7.24139	39.6623
7.23129	39.1592
7.22122	38.7122
7.21117	38.4019
7.20116	37.6781
7.19117	36.7902
7.18121	36.2371
7.17128	35.8953
7.16137	35.2459
7.1515	34.7688
7.14164	34.2195
7.13182	33.7176
7.12203	33.6015
7.11225	33.4117
7.10251	33.2146
7.0928	33.0622
7.08311	32.825
7.07344	32.727
7.06381	32.7308
7.0542	33.1004
7.04461	33.2876
7.03506	32.5668
7.02552	32.2651
7.01601	32.1105
7.00653	31.9853
6.99708	32.1557
6.98765	32.1443
6.97824	32.0254
6.96886	32.392
6.95951	32.8836
6.95018	32.3532
6.94087	32.0372
6.9316	32.0612
6.92234	32.1389
6.91311	32.315
6.90391	32.4837
6.89473	32.3846
6.88557	32.4545
6.87644	32.8172
6.86733	33.8817
6.85824	33.788
6.84918	32.7356
6.84015	32.4241
6.83114	32.862
6.82215	33.0254
6.81319	32.6912
6.80424	32.7676
6.79532	33.4866
6.78643	33.7542
6.77756	33.2756
6.76871	32.9685
6.75989	32.7606
6.75109	32.9054
6.74231	32.9227
6.73355	33.0829
6.72482	33.4916
6.71611	33.8758
6.70742	33.8167
6.69875	33.4226
6.69011	33.761
6.68149	34.3829
6.67289	34.2805
6.66431	33.9615
6.65576	33.9775
6.64722	35.0625
6.63871	36.6672
6.63022	36.3416
6.62175	35.5443
6.61331	35.6956
6.60488	36.0907
6.59648	36.9817
6.5881	37.7214
6.57974	38.6856
6.5714	39.7532
6.56308	39.5905
6.55478	39.8682
6.54651	40.2588
6.53825	40.5738
6.53001	41.3112
6.5218	42.5606
6.51361	42.7686
6.50544	43.6108
6.49729	46.018
6.48915	46.7864
6.48104	46.0604
6.47295	45.7554
6.46488	45.379
6.45683	45.5574
6.4488	45.9413
6.44079	46.3181
6.4328	47.0371
6.42482	47.9651
6.41687	50.1679
6.40894	49.6537
6.40103	47.4643
6.39314	47.0929
6.38526	47.2063
6.37741	47.6437
6.36957	48.1893
6.36176	47.5106
6.35396	47.6041
6.34618	48.7247
6.33843	48.0888
6.33069	46.9917
6.32297	46.7888
6.31527	46.6816
6.30758	46.6132
6.29992	46.5068
6.29227	46.4999
6.28465	46.3951
6.27704	46.4108
6.26945	46.4159
6.26188	46.335
6.25432	46.2519
6.24679	46.3422
6.23927	46.472
6.23177	46.5515
6.22429	46.5313
6.21683	46.5178
6.20938	46.4288
6.20195	46.3935
6.19454	46.8214
6.18715	47.9172
6.17978	47.4251
6.17242	46.5285
6.16508	46.9345
6.15776	47.3291
6.15045	47.0773
6.14317	47.1313
6.1359	47.019
6.12864	46.9984
6.12141	47.9633
6.11419	49.1864
6.10699	48.4116
6.0998	47.5261
6.09263	47.4581
6.08549	47.7846
6.07835	48.8905
6.07123	49.5371
6.06413	48.8534
6.05705	49.7477
6.04998	52.24
6.04293	50.7904
6.0359	48.932
6.02888	48.7366
6.02187	49.1072
6.01489	49.6864
6.00792	49.4466
6.00096	49.3907
5.99403	50.327
5.98711	50.6771
5.9802	50.1636
5.97331	50.5859
5.96644	50.8406
5.95958	50.0773
5.95274	50.1407
5.94591	50.8262
5.9391	52.5821
5.9323	52.1521
5.92552	50.7767
5.91876	50.6356
5.91201	50.6414
5.90528	51.1606
5.89856	52.7949
5.89186	52.8977
5.88517	53.6806
5.8785	54.0962
5.87184	52.4139
5.8652	52.5503
5.85857	52.5636
5.85196	52.3607
5.84536	52.36
5.83878	52.852
5.83221	53.7159
5.82566	54.8374
5.81912	54.9518
5.81259	53.7558
5.80608	53.341
5.79959	53.546
5.79311	53.6232
5.78665	53.8671
5.78019	54.2086
5.77376	55.0267
5.76734	56.4822
5.76093	55.5289
5.75453	54.5808
5.74815	55.0777
5.74179	54.8419
5.73543	54.663
5.7291	54.6374
5.72277	54.9455
5.71646	55.3989
5.71017	55.6491
5.70389	54.9395
5.69762	54.7415
5.69136	54.9727
5.68513	54.7264
5.6789	54.9969
5.67268	54.9632
5.66648	54.417
5.6603	54.6806
5.65413	54.9881
5.64797	55.3039
5.64182	55.733
5.63569	54.856
5.62957	54.1516
5.62347	53.989
5.61737	53.9616
5.61129	53.7742
5.60522	53.6442
5.59917	53.3245
5.59313	52.8238
5.5871	52.7902
5.58109	53.0352
5.57509	52.5604
5.5691	51.8796
5.56312	51.8632
5.55716	52.1933
5.55121	52.7232
5.54528	53.056
5.53935	53.3755
5.53344	53.6782
5.52754	54.1166
5.52166	54.418
5.51578	54.4249
5.50992	54.365
5.50407	54.5217
5.49823	54.5977
5.49241	54.6506
5.4866	54.7737
5.4808	55.1892
5.47501	55.2021
5.46923	55.4124
5.46347	55.6387
5.45772	55.2124
5.45198	55.0387
5.44625	55.1283
5.44054	55.0821
5.43484	54.9903
5.42914	55.2135
5.42347	55.8471
5.4178	55.4835
5.41214	54.8229
5.4065	54.5416
5.40087	54.337
5.39525	54.1747
5.38964	53.9771
5.38404	53.8113
5.37846	53.6392
5.37288	53.5105
5.36732	53.3983
5.36177	53.377
5.35623	53.6857
5.35071	53.9433
5.34519	53.5499
5.33968	53.2557
5.33419	53.3217
5.32871	53.331
5.32324	53.3337
5.31778	53.4011
5.31233	53.4802
5.30689	53.5791
5.30147	53.6544
5.29605	53.8265
5.29065	53.9691
5.28525	53.879
5.27987	53.96
5.2745	54.0188
5.26914	54.0615
5.26379	54.1694
5.25845	54.3377
5.25312	54.5144
5.24781	54.6988
5.2425	54.8671
5.23721	54.9832
5.23192	55.0236
5.22665	55.0565
5.22138	55.227
5.21613	55.6478
5.21089	55.701
5.20566	55.485
5.20044	55.5396
5.19522	55.43
5.19002	55.4005
5.18483	55.4411
5.17965	55.4471
5.17448	55.4112
5.16933	55.3834
5.16418	55.3343
5.15904	55.2986
5.15391	55.419
5.14879	55.675
5.14368	55.5547
5.13859	55.3878
5.1335	55.3502
5.12842	55.2982
5.12335	55.2778
5.1183	55.2747
5.11325	55.3158
5.10821	55.2931
5.10318	55.3072
5.09817	55.296
5.09316	55.2698
5.08816	55.2653
5.08317	55.255
5.07819	55.153
5.07322	55.1475
5.06826	55.1597
5.06331	55.0747
5.05837	55.0171
5.05344	55.0561
5.04852	55.0779
5.04361	55.0693
5.03871	55.0743
5.03382	55.0861
5.02894	55.1413
5.02406	55.1827
5.0192	55.1678
5.01435	55.0953
5.0095	55.0595
5.00467	55.0489
4.99984	55.088
4.99502	55.1155
4.99021	55.1364
4.98542	55.1939
4.98063	55.2484
4.97585	55.3295
4.97108	55.384
4.96632	55.4027
4.96156	55.5305
4.95682	55.6536
4.95209	55.6632
4.94736	55.6738
4.94264	55.7126
4.93794	55.7519
4.93324	55.8016
4.92855	55.8361
4.92387	55.823
4.9192	55.8747
4.91453	55.9642
4.90988	56.0316
4.90524	56.0792
4.9006	56.1205
4.89597	56.2175
4.89135	56.2641
4.88674	56.2558
4.88214	56.2601
4.87755	56.2662
4.87296	56.3351
4.86839	56.3523
4.86382	56.3518
4.85926	56.377
4.85471	56.3948
4.85017	56.4006
4.84564	56.4636
4.84111	56.5818
4.8366	56.5617
4.83209	56.4752
4.82759	56.499
4.8231	56.5709
4.81862	56.5454
4.81415	56.5229
4.80968	56.5434
4.80522	56.574
4.80077	56.6239
4.79633	56.6026
4.7919	56.5866
4.78747	56.5948
4.78306	56.6244
4.77865	56.6308
4.77425	56.5722
4.76986	56.5403
4.76547	56.5738
4.7611	56.6008
4.75673	56.5765
4.75237	56.5459
4.74802	56.5734
4.74367	56.5406
4.73934	56.5682
4.73501	56.6347
4.73069	56.6431
4.72638	56.5817
4.72207	56.5912
4.71777	56.6104
4.71348	56.6039
4.7092	56.5664
4.70493	56.5527
4.70066	56.5595
4.69641	56.5944
4.69216	56.5847
4.68791	56.622
4.68368	56.6312
4.67945	56.6293
4.67523	56.6172
4.67102	56.5725
4.66682	56.5832
4.66262	56.6241
4.65843	56.6185
4.65425	56.6023
4.65007	56.6213
4.64591	56.6879
4.64175	56.6839
4.6376	56.6816
4.63345	56.7404
4.62932	56.7534
4.62519	56.7455
4.62106	56.7737
4.61695	56.6965
4.61284	56.7222
4.60874	56.767
4.60465	56.7695
4.60056	56.8043
4.59648	56.8637
4.59241	56.848
4.58835	56.7772
4.58429	56.7658
4.58024	56.8101
4.5762	56.8345
4.57216	56.8523
4.56814	56.8415
4.56411	56.8345
4.5601	56.9307
4.55609	56.9678
4.55209	56.8964
4.5481	56.8867
4.54411	56.8845
4.54013	56.8877
4.53616	56.8866
4.5322	56.8897
4.52824	56.8514
4.52429	56.8504
4.52034	56.9274
4.51641	56.9395
4.51247	56.9016
4.50855	56.8492
4.50463	56.8321
4.50072	56.8474
4.49682	56.8414
4.49292	56.888
4.48903	56.8712
4.48515	56.9125
4.48127	56.964
4.4774	56.9182
4.47354	56.8973
4.46968	56.9276
4.46584	56.9547
4.46199	56.9723
4.45815	56.9656
4.45432	56.9528
4.4505	56.946
4.44668	56.9551
4.44287	56.9499
4.43907	57.0145
4.43527	57.0327
4.43148	57.051
4.4277	57.083
4.42392	57.0912
4.42015	57.0635
4.41638	57.0746
4.41262	57.0296
4.40887	57.0233
4.40513	57.1064
4.40139	57.1348
4.39765	57.104
4.39393	57.0648
4.39021	57.1269
4.38649	57.1962
4.38278	57.1858
4.37908	57.1269
4.37539	57.1524
4.3717	57.1637
4.36801	57.1133
4.36434	57.1417
4.36067	57.1943
4.357	57.2718
4.35335	57.2881
4.34969	57.2973
4.34605	57.2794
4.34241	57.2713
4.33877	57.3017
4.33514	57.3721
4.33152	57.4274
4.32791	57.4544
4.3243	57.4922
4.32069	57.5023
4.3171	57.509
4.31351	57.516
4.30992	57.5223
4.30634	57.589
4.30277	57.665
4.2992	57.741
4.29564	57.7932
4.29208	57.8763
4.28853	57.9058
4.28499	57.8734
4.28145	57.8766
4.27792	57.8806
4.27439	57.7949
4.27087	57.7298
4.26735	57.66
4.26384	57.5863
4.26034	57.5171
4.25684	57.512
4.25335	57.6132
4.24986	57.8109
4.24638	58.0046
4.24291	58.1119
4.23944	58.151
4.23598	58.2081
4.23252	58.2045
4.22906	58.1085
4.22562	58.0774
4.22218	58.0626
4.21874	57.9508
4.21531	57.8581
4.21189	57.7779
4.20847	57.6876
4.20506	57.5884
4.20165	57.562
4.19825	57.5774
4.19485	57.5308
4.19146	57.461
4.18807	57.4858
4.18469	57.5232
4.18132	57.4815
4.17795	57.5137
4.17458	57.5664
4.17123	57.5648
4.16787	57.5374
4.16453	57.4903
4.16118	57.4629
4.15785	57.4547
4.15451	57.514
4.15119	57.6429
4.14787	57.6229
4.14455	57.5731
4.14124	57.5383
4.13794	57.5559
4.13464	57.5988
4.13134	57.5565
4.12805	57.501
4.12477	57.5155
4.12149	57.5206
4.11822	57.5469
4.11495	57.5419
4.11168	57.5217
4.10843	57.5597
4.10517	57.5564
4.10192	57.5381
4.09868	57.5603
4.09545	57.5617
4.09221	57.548
4.08899	57.5903
4.08576	57.5983
4.08255	57.5656
4.07933	57.5438
4.07613	57.491
4.07292	57.4652
4.06973	57.4595
4.06654	57.4683
4.06335	57.4938
4.06017	57.4589
4.05699	57.4238
4.05382	57.4127
4.05065	57.4744
4.04749	57.4653
4.04433	57.4111
4.04118	57.3223
4.03803	57.2614
4.03489	57.2366
4.03175	57.2067
4.02862	57.1108
4.02549	57.053
4.02237	57.038
4.01925	56.9947
4.01614	56.9224
4.01303	56.8835
4.00993	56.8189
4.00683	56.7492
4.00373	56.6022
4.00064	56.4545
3.99756	56.3268
3.99448	56.2627
3.9914	56.1632
3.98833	56.0098
3.98527	55.9265
3.98221	55.8916
3.97915	55.8384
3.9761	55.8379
3.97305	55.8724
3.97001	55.9057
3.96697	55.9239
3.96394	55.9516
3.96091	56.0469
3.95789	56.1918
3.95487	56.2566
3.95186	56.3236
3.94885	56.4698
3.94584	56.6478
3.94284	56.732
3.93984	56.8904
3.93685	57.0428
3.93386	57.0507
3.93088	57.0355
3.9279	57.0287
3.92493	57.0638
3.92196	57.0663
3.919	57.0873
3.91604	57.1418
3.91308	57.1692
3.91013	57.153
3.90718	57.1287
3.90424	57.1222
3.9013	57.1173
3.89837	57.1344
3.89544	57.1579
3.89252	57.1666
3.8896	57.1932
3.88668	57.2049
3.88377	57.161
3.88086	57.1219
3.87796	57.0914
3.87506	57.1496
3.87217	57.2366
3.86928	57.264
3.86639	57.2534
3.86351	57.2296
3.86064	57.255
3.85776	57.2348
3.8549	57.2333
3.85203	57.2613
3.84917	57.2832
3.84631	57.3167
3.84346	57.3342
3.84062	57.2947
3.83777	57.3014
3.83494	57.3543
3.8321	57.4056
3.82927	57.383
3.82644	57.3612
3.82362	57.3803
3.82081	57.4415
3.81799	57.5842
3.81518	57.6579
3.81238	57.6759
3.80958	57.6562
3.80678	57.6296
3.80399	57.6663
3.8012	57.6214
3.79841	57.6217
3.79563	57.6934
3.79286	57.7264
3.79008	57.7767
3.78731	57.827
3.78455	57.8131
3.78179	57.807
3.77903	57.8235
3.77628	57.8171
3.77353	57.7968
3.77079	57.7866
3.76805	57.7528
3.76531	57.7773
3.76258	57.8019
3.75985	57.768
3.75713	57.819
3.7544	57.8692
3.75169	57.8243
3.74898	57.7704
3.74627	57.7914
3.74356	57.8085
3.74086	57.8103
3.73816	57.8245
3.73547	57.8119
3.73278	57.7704
3.7301	57.788
3.72741	57.7819
3.72474	57.8005
3.72206	57.8524
3.71939	57.8513
3.71673	57.8166
3.71406	57.8166
3.71141	57.8575
3.70875	57.7772
3.7061	57.6819
3.70345	57.6932
3.70081	57.7589
3.69817	57.8147
3.69553	57.7803
3.6929	57.7728
3.69027	57.7976
3.68765	57.7661
3.68503	57.7626
3.68241	57.7515
3.6798	57.7417
3.67719	57.7797
3.67458	57.7714
3.67198	57.7578
3.66938	57.7618
3.66678	57.7622
3.66419	57.7556
3.66161	57.7445
3.65902	57.7803
3.65644	57.7793
3.65387	57.7442
3.65129	57.7488
3.64872	57.7581
3.64616	57.76
3.64359	57.7088
3.64103	57.6617
3.63848	57.5969
3.63593	57.5743
3.63338	57.678
3.63084	57.7425
3.6283	57.726
3.62576	57.7434
3.62322	57.7555
3.62069	57.6811
3.61817	57.6598
3.61564	57.764
3.61312	57.7372
3.61061	57.6798
3.6081	57.6569
3.60559	57.6979
3.60308	57.6963
3.60058	57.6366
3.59808	57.5957
3.59558	57.6035
3.59309	57.6332
3.59061	57.5981
3.58812	57.5907
3.58564	57.6259
3.58316	57.6558
3.58069	57.626
3.57822	57.5797
3.57575	57.5737
3.57328	57.5461
3.57082	57.5535
3.56836	57.5193
3.56591	57.5042
3.56346	57.5032
3.56101	57.4583
3.55857	57.4385
3.55613	57.4872
3.55369	57.4999
3.55126	57.466
3.54883	57.4928
3.5464	57.5429
3.54397	57.491
3.54155	57.3781
3.53914	57.2585
3.53672	57.1955
3.53431	57.2287
3.5319	57.2372
3.5295	57.1599
3.5271	57.102
3.5247	57.0524
3.52231	57.0089
3.51991	56.9523
3.51753	56.9019
3.51514	56.9124
3.51276	56.9128
3.51038	56.8024
3.50801	56.719
3.50563	56.5545
3.50327	56.4138
3.5009	56.3756
3.49854	56.3897
3.49618	56.4158
3.49382	56.3699
3.49147	56.3072
3.48912	56.2899
3.48677	56.2666
3.48443	56.2419
3.48209	56.2059
3.47975	56.1606
3.47742	56.2227
3.47509	56.2505
3.47276	56.2167
3.47044	56.2419
3.46812	56.2921
3.4658	56.3564
3.46348	56.4385
3.46117	56.5342
