Name: Triphylite Li(Mn,Fe)PO_4
Type: Mineral
Class: Phosphates
Subclass: 
Particle Size: 0-45um
Sample No.: P-4A
Owner: JPL
Wavelength range: IR
Origin: USA, New Hampshire, North Graton, Palermo Mine
Collected by Burminco
Description: 





Measurement: Hemispherical reflectance
First Column: X
Second Column: Y
X Units:  Wavelength (micrometers)
Y Units:  Reflectance (percent)
First X Value: 15.3853
Last X Value: 2.00032
Number of X Values: 2256
Additional information: p04aa.txt
 
15.3853	6.15616
15.3397	5.7089
15.2945	5.09243
15.2495	4.37703
15.2048	3.54181
15.1603	2.88228
15.1161	2.78202
15.0722	2.8668
15.0285	2.71678
14.9851	2.87918
14.9419	3.42303
14.8989	3.73098
14.8563	3.66683
14.8138	4.10399
14.7716	4.71945
14.7296	5.0135
14.6879	5.08423
14.6464	5.51938
14.6052	6.20628
14.5641	6.62691
14.5233	6.78485
14.4828	7.06195
14.4424	7.41613
14.4023	7.8809
14.3624	8.30796
14.3227	8.75666
14.2833	9.01517
14.244	9.43677
14.205	10.0276
14.1662	10.333
14.1276	10.5131
14.0892	10.7726
14.051	11.0488
14.0131	11.3075
13.9753	11.6049
13.9377	11.9652
13.9004	12.2032
13.8632	12.3153
13.8262	12.4504
13.7895	12.654
13.7529	12.9506
13.7165	13.3181
13.6803	13.5508
13.6443	13.6991
13.6085	13.8882
13.5729	14.1572
13.5374	14.4434
13.5022	14.5356
13.4671	14.7387
13.4322	14.8282
13.3975	14.8212
13.363	15.1133
13.3286	15.2797
13.2944	15.365
13.2604	15.5917
13.2266	15.808
13.193	15.8731
13.1595	16.043
13.1262	16.176
13.093	16.2038
13.06	16.3252
13.0272	16.636
12.9946	16.6838
12.9621	16.5825
12.9298	16.6186
12.8976	16.6335
12.8656	16.6074
12.8337	16.5455
12.8021	16.4561
12.7705	16.5906
12.7391	16.8398
12.7079	16.8703
12.6769	16.8653
12.6459	16.9587
12.6152	16.944
12.5845	16.9007
12.5541	16.7786
12.5238	16.7401
12.4936	16.8058
12.4635	17.0242
12.4337	17.3187
12.4039	17.4772
12.3743	17.5595
12.3448	17.7772
12.3155	17.9181
12.2863	17.7783
12.2573	17.6219
12.2284	17.5939
12.1996	17.6603
12.171	17.568
12.1425	17.451
12.1141	17.3507
12.0859	17.2471
12.0578	17.2067
12.0298	17.2336
12.0019	17.2219
11.9742	17.06
11.9466	16.887
11.9192	16.9252
11.8918	16.8958
11.8646	16.8355
11.8375	16.7016
11.8106	16.5882
11.7837	16.4729
11.757	16.2326
11.7304	16.0642
11.7039	15.959
11.6776	15.787
11.6513	15.4779
11.6252	15.1399
11.5992	14.9848
11.5733	14.9253
11.5475	14.8895
11.5219	14.8186
11.4963	14.7243
11.4709	14.6339
11.4455	14.5331
11.4203	14.3459
11.3952	14.0519
11.3702	13.7652
11.3454	13.4785
11.3206	13.1332
11.2959	12.906
11.2714	12.8719
11.2469	12.5931
11.2226	12.2187
11.1983	11.9662
11.1742	11.8148
11.1502	11.5682
11.1263	11.2411
11.1024	10.9956
11.0787	10.6874
11.0551	10.4217
11.0316	10.1612
11.0081	9.93803
10.9848	9.73772
10.9616	9.58822
10.9385	9.46695
10.9154	9.22073
10.8925	8.92474
10.8697	8.8081
10.8469	8.76961
10.8243	8.79418
10.8017	8.80567
10.7793	8.76566
10.7569	8.77092
10.7346	8.97673
10.7125	9.0794
10.6904	9.11922
10.6684	9.09825
10.6465	8.98995
10.6247	8.81703
10.6029	8.51615
10.5813	8.15352
10.5597	8.06247
10.5383	8.28209
10.5169	8.77849
10.4956	9.24914
10.4744	9.51095
10.4533	9.68264
10.4323	9.75232
10.4113	9.75084
10.3904	9.79676
10.3697	9.80701
10.349	9.83446
10.3284	9.96322
10.3078	9.98961
10.2874	9.9806
10.267	9.99101
10.2467	9.94654
10.2265	9.89792
10.2064	9.86946
10.1863	9.87373
10.1663	9.9558
10.1464	10.0078
10.1266	10.1162
10.1069	10.3021
10.0872	10.5044
10.0676	10.6792
10.0481	10.8151
10.0287	11.0521
10.0093	11.3326
9.99005	11.5707
9.97084	11.6485
9.95169	11.6926
9.93263	11.7538
9.91364	11.8877
9.89472	12.0141
9.87587	12.0013
9.8571	11.9884
9.83839	12.0809
9.81976	12.1572
9.80119	12.1529
9.78271	12.2035
9.76428	12.3091
9.74592	12.4677
9.72764	12.6446
9.70943	12.6648
9.69128	12.7753
9.6732	13.0835
9.65518	13.1514
9.63724	13.2263
9.61935	13.3302
9.60155	13.3727
9.5838	13.5405
9.56611	13.6176
9.5485	13.5738
9.53094	13.5702
9.51345	13.6108
9.49604	13.6616
9.47867	13.6021
9.46137	13.4948
9.44414	13.4224
9.42697	13.3444
9.40986	13.1876
9.39281	13.0615
9.37583	12.9049
9.35891	12.8344
9.34204	12.6532
9.32524	12.4201
9.3085	12.0662
9.29182	11.727
9.27519	11.5072
9.25863	11.1282
9.24213	10.3034
9.22568	9.36732
9.2093	8.36465
9.19297	7.16692
9.17669	6.352
9.16048	6.61375
9.14433	7.6166
9.12823	8.73976
9.11218	9.73701
9.0962	10.2275
9.08027	10.4996
9.06439	10.7742
9.04858	10.806
9.03281	10.7065
9.0171	10.7332
9.00145	10.8271
8.98585	10.8129
8.9703	10.5856
8.9548	10.1346
8.93937	9.50954
8.92398	8.7861
8.90865	8.39912
8.89337	8.28527
8.87814	8.17326
8.86296	8.12829
8.84784	8.10359
8.83277	8.03906
8.81774	8.05008
8.80277	8.1598
8.78786	8.12192
8.77298	8.09074
8.75816	8.20403
8.7434	8.39939
8.72868	8.50316
8.714	8.75054
8.69938	9.02071
8.68481	9.19459
8.67029	9.44609
8.65581	9.76768
8.64139	10.0421
8.62701	10.1178
8.61268	10.1551
8.5984	10.192
8.58416	9.99728
8.56997	9.45113
8.55583	8.63981
8.54174	7.7284
8.52769	6.88901
8.51368	6.01027
8.49973	5.18222
8.48582	4.44208
8.47195	3.80697
8.45813	3.2361
8.44436	2.87001
8.43062	2.52429
8.41693	2.19391
8.4033	1.94644
8.3897	1.83601
8.37614	1.59723
8.36264	1.44135
8.34917	1.4126
8.33574	1.36027
8.32236	1.28642
8.30903	1.26047
8.29573	1.22376
8.28248	1.30564
8.26927	1.25269
8.2561	1.2473
8.24298	1.31318
8.2299	1.33012
8.21685	1.32156
8.20385	1.38037
8.19089	1.51364
8.17797	1.64731
8.16509	1.81683
8.15225	1.88852
8.13946	1.92408
8.1267	2.0575
8.11398	2.2581
8.10131	2.44235
8.08867	2.58049
8.07606	2.6673
8.0635	2.7443
8.05099	2.96097
8.0385	3.22653
8.02606	3.39563
8.01366	3.47104
8.00129	3.59804
7.98896	3.75449
7.97667	3.96144
7.96442	4.11924
7.9522	4.30731
7.94002	4.4508
7.92788	4.55543
7.91578	4.72426
7.90371	4.82727
7.89168	4.94639
7.87969	5.20087
7.86773	5.44737
7.85581	5.61312
7.84392	5.78777
7.83207	6.04837
7.82026	6.26792
7.80849	6.52436
7.79674	6.7463
7.78503	6.95787
7.77337	7.22512
7.76173	7.45455
7.75012	7.65008
7.73856	7.87151
7.72703	8.08136
7.71553	8.28241
7.70406	8.47094
7.69263	8.74113
7.68123	9.0073
7.66987	9.21346
7.65855	9.41278
7.64725	9.68874
7.63598	9.9178
7.62475	10.11
7.61356	10.3873
7.60239	10.6208
7.59126	10.8711
7.58017	11.0601
7.5691	11.0979
7.55806	11.2696
7.54707	11.52
7.5361	11.7215
7.52516	11.9325
7.51425	12.0942
7.50338	12.2362
7.49253	12.3673
7.48172	12.4864
7.47094	12.5592
7.46019	12.6338
7.44947	12.6955
7.43879	12.7983
7.42813	12.9233
7.4175	13.0875
7.4069	13.33
7.39634	13.5229
7.3858	13.6417
7.37529	13.7866
7.36482	13.9578
7.35437	14.0181
7.34396	14.1714
7.33357	14.2888
7.32321	14.2757
7.31288	14.2904
7.30258	14.3095
7.29231	14.3622
7.28207	14.5067
7.27185	14.5693
7.26167	14.5752
7.25152	14.6083
7.24139	14.6887
7.23129	14.7762
7.22122	14.78
7.21117	14.8886
7.20116	14.9485
7.19117	14.9602
7.18121	15.0643
7.17128	15.2574
7.16137	15.2138
7.1515	15.2142
7.14164	15.2337
7.13182	15.1882
7.12203	15.2123
7.11225	15.194
7.10251	15.1263
7.0928	15.1162
7.08311	15.1803
7.07344	15.2034
7.06381	15.3305
7.0542	15.6001
7.04461	15.838
7.03506	15.6739
7.02552	15.5075
7.01601	15.4348
7.00653	15.4906
6.99708	15.6998
6.98765	15.7742
6.97824	15.7458
6.96886	15.9889
6.95951	16.1937
6.95018	15.8797
6.94087	15.7754
6.9316	15.7816
6.92234	15.8451
6.91311	16.0941
6.90391	16.1857
6.89473	16.0456
6.88557	16.1083
6.87644	16.3654
6.86733	17.0581
6.85824	17.0831
6.84918	16.5383
6.84015	16.3807
6.83114	16.611
6.82215	16.6865
6.81319	16.5776
6.80424	16.6811
6.79532	17.0105
6.78643	17.0927
6.77756	16.8997
6.76871	16.8027
6.75989	16.7061
6.75109	16.7575
6.74231	16.6823
6.73355	16.6462
6.72482	16.8283
6.71611	17.0095
6.70742	16.8565
6.69875	16.5006
6.69011	16.6156
6.68149	16.8708
6.67289	16.7596
6.66431	16.6212
6.65576	16.5961
6.64722	16.9891
6.63871	17.6522
6.63022	17.3995
6.62175	16.8765
6.61331	16.7273
6.60488	16.7411
6.59648	16.9897
6.5881	17.12
6.57974	17.3996
6.5714	17.6419
6.56308	17.225
6.55478	17.0782
6.54651	16.838
6.53825	16.5656
6.53001	16.592
6.5218	16.8122
6.51361	16.6156
6.50544	16.8535
6.49729	17.8607
6.48915	18.2005
6.48104	18.0006
6.47295	17.939
6.46488	17.8687
6.45683	17.9894
6.4488	18.167
6.44079	18.2617
6.4328	18.5099
6.42482	18.8953
6.41687	19.7694
6.40894	19.4106
6.40103	18.4395
6.39314	18.27
6.38526	18.0823
6.37741	18.0738
6.36957	18.22
6.36176	17.8953
6.35396	17.8804
6.34618	18.3447
6.33843	18.0635
6.33069	17.5882
6.32297	17.5589
6.31527	17.5395
6.30758	17.556
6.29992	17.5575
6.29227	17.5643
6.28465	17.5586
6.27704	17.5253
6.26945	17.5434
6.26188	17.5516
6.25432	17.5705
6.24679	17.5261
6.23927	17.4205
6.23177	17.5217
6.22429	17.5554
6.21683	17.5573
6.20938	17.5189
6.20195	17.4369
6.19454	17.5302
6.18715	17.8842
6.17978	17.677
6.17242	17.4185
6.16508	17.7232
6.15776	17.771
6.15045	17.5108
6.14317	17.5746
6.1359	17.5058
6.12864	17.4377
6.12141	17.8392
6.11419	18.3679
6.10699	18.0675
6.0998	17.7191
6.09263	17.6682
6.08549	17.8136
6.07835	18.2444
6.07123	18.3984
6.06413	18.0305
6.05705	18.3823
6.04998	19.46
6.04293	18.7691
6.0359	17.8327
6.02888	17.6324
6.02187	17.6754
6.01489	17.8563
6.00792	17.7804
6.00096	17.7175
5.99403	17.967
5.98711	18.1328
5.9802	17.9288
5.97331	18.008
5.96644	18.0425
5.95958	17.7207
5.95274	17.6979
5.94591	17.908
5.9391	18.6472
5.9323	18.5508
5.92552	17.9707
5.91876	17.8658
5.91201	17.763
5.90528	17.9248
5.89856	18.5847
5.89186	18.5573
5.88517	18.8687
5.8785	19.0397
5.87184	18.2872
5.8652	18.2301
5.85857	18.1719
5.85196	18.0544
5.84536	18.0371
5.83878	18.1239
5.83221	18.4331
5.82566	18.9269
5.81912	18.8092
5.81259	18.09
5.80608	17.8512
5.79959	17.8886
5.79311	17.8846
5.78665	17.9697
5.78019	18.012
5.77376	18.2615
5.76734	18.8605
5.76093	18.5805
5.75453	18.1982
5.74815	18.3306
5.74179	18.2388
5.73543	18.2465
5.7291	18.2451
5.72277	18.3928
5.71646	18.6115
5.71017	18.6337
5.70389	18.3329
5.69762	18.3227
5.69136	18.366
5.68513	18.3314
5.6789	18.5883
5.67268	18.6311
5.66648	18.3909
5.6603	18.5173
5.65413	18.7093
5.64797	18.9479
5.64182	19.1824
5.63569	18.811
5.62957	18.5345
5.62347	18.4887
5.61737	18.5431
5.61129	18.5814
5.60522	18.6672
5.59917	18.6709
5.59313	18.5495
5.5871	18.7153
5.58109	19.0572
5.57509	18.9502
5.5691	18.6349
5.56312	18.6352
5.55716	18.7833
5.55121	18.8462
5.54528	18.7601
5.53935	18.7462
5.53344	18.7506
5.52754	18.8575
5.52166	18.8593
5.51578	18.7846
5.50992	18.7941
5.50407	18.9067
5.49823	18.9201
5.49241	18.8651
5.4866	18.7961
5.4808	19.0158
5.47501	19.0012
5.46923	19.0158
5.46347	19.1221
5.45772	18.9451
5.45198	18.8972
5.44625	19.0248
5.44054	19.0628
5.43484	18.9966
5.42914	19.108
5.42347	19.4068
5.4178	19.3301
5.41214	19.1313
5.4065	19.0029
5.40087	18.9343
5.39525	18.9234
5.38964	18.9191
5.38404	18.9617
5.37846	18.9495
5.37288	18.8456
5.36732	18.7439
5.36177	18.7671
5.35623	18.886
5.35071	18.9094
5.34519	18.5401
5.33968	18.2256
5.33419	18.1232
5.32871	17.9056
5.32324	17.6233
5.31778	17.3126
5.31233	17.0031
5.30689	16.6751
5.30147	16.3208
5.29605	16.0617
5.29065	16.0085
5.28525	16.0185
5.27987	16.0249
5.2745	16.1565
5.26914	16.31
5.26379	16.3736
5.25845	16.3959
5.25312	16.3894
5.24781	16.3714
5.2425	16.2475
5.23721	16.1637
5.23192	16.0911
5.22665	15.8042
5.22138	15.5842
5.21613	15.6074
5.21089	15.4735
5.20566	15.2211
5.20044	15.1283
5.19522	15.0285
5.19002	14.8574
5.18483	14.7273
5.17965	14.7134
5.17448	14.7091
5.16933	14.7381
5.16418	14.8484
5.15904	14.9639
5.15391	15.1569
5.14879	15.3807
5.14368	15.5321
5.13859	15.6624
5.1335	15.7673
5.12842	15.8601
5.12335	15.9352
5.1183	15.8544
5.11325	15.6893
5.10821	15.6242
5.10318	15.6388
5.09817	15.6755
5.09316	15.7123
5.08816	15.7705
5.08317	15.973
5.07819	16.1494
5.07322	16.2049
5.06826	16.2077
5.06331	16.2541
5.05837	16.3561
5.05344	16.4116
5.04852	16.4105
5.04361	16.3743
5.03871	16.3837
5.03382	16.4933
5.02894	16.6481
5.02406	16.8429
5.0192	17.0561
5.01435	17.2135
5.0095	17.2423
5.00467	17.3085
4.99984	17.3652
4.99502	17.3993
4.99021	17.4945
4.98542	17.5606
4.98063	17.5658
4.97585	17.6053
4.97108	17.5599
4.96632	17.5622
4.96156	17.6444
4.95682	17.7148
4.95209	17.817
4.94736	18.0122
4.94264	18.1316
4.93794	18.077
4.93324	17.904
4.92855	17.7556
4.92387	17.7228
4.9192	17.6927
4.91453	17.6808
4.90988	17.6913
4.90524	17.6529
4.9006	17.6817
4.89597	17.6759
4.89135	17.5678
4.88674	17.4934
4.88214	17.5023
4.87755	17.5517
4.87296	17.6959
4.86839	17.955
4.86382	18.1316
4.85926	18.3266
4.85471	18.5925
4.85017	18.8204
4.84564	18.9842
4.84111	19.1006
4.8366	19.2009
4.83209	19.2473
4.82759	19.2675
4.8231	19.2476
4.81862	19.3321
4.81415	19.4022
4.80968	19.3697
4.80522	19.4444
4.80077	19.531
4.79633	19.6149
4.7919	19.7988
4.78747	20.0835
4.78306	20.3783
4.77865	20.5954
4.77425	20.8187
4.76986	21.0723
4.76547	21.3308
4.7611	21.5879
4.75673	21.8054
4.75237	22.0269
4.74802	22.285
4.74367	22.5614
4.73934	22.762
4.73501	22.9761
4.73069	23.1837
4.72638	23.24
4.72207	23.336
4.71777	23.3681
4.71348	23.3437
4.7092	23.3127
4.70493	23.192
4.70066	23.0762
4.69641	23.0373
4.69216	22.9572
4.68791	22.8482
4.68368	22.7738
4.67945	22.6446
4.67523	22.5636
4.67102	22.5357
4.66682	22.5277
4.66262	22.5568
4.65843	22.6292
4.65425	22.8716
4.65007	23.1238
4.64591	23.2921
4.64175	23.4696
4.6376	23.7211
4.63345	23.982
4.62932	24.1895
4.62519	24.3619
4.62106	24.4566
4.61695	24.5238
4.61284	24.599
4.60874	24.7299
4.60465	24.921
4.60056	25.135
4.59648	25.2644
4.59241	25.4031
4.58835	25.5916
4.58429	25.7984
4.58024	25.9203
4.5762	26.0022
4.57216	26.1369
4.56814	26.2545
4.56411	26.3645
4.5601	26.3967
4.55609	26.4833
4.55209	26.598
4.5481	26.6054
4.54411	26.5523
4.54013	26.5365
4.53616	26.5926
4.5322	26.7527
4.52824	26.8265
4.52429	26.826
4.52034	26.7832
4.51641	26.7248
4.51247	26.6836
4.50855	26.7184
4.50463	26.7305
4.50072	26.7256
4.49682	26.7028
4.49292	26.7327
4.48903	26.8185
4.48515	26.9105
4.48127	26.9153
4.4774	26.9507
4.47354	27.0469
4.46968	27.0718
4.46584	27.2259
4.46199	27.5501
4.45815	27.8259
4.45432	28.091
4.4505	28.3423
4.44668	28.6768
4.44287	29.0091
4.43907	29.3786
4.43527	29.7652
4.43148	30.0264
4.4277	30.3031
4.42392	30.6534
4.42015	30.9988
4.41638	31.3793
4.41262	31.6181
4.40887	31.7924
4.40513	31.9806
4.40139	32.152
4.39765	32.2911
4.39393	32.4454
4.39021	32.5919
4.38649	32.7998
4.38278	32.9757
4.37908	33.1426
4.37539	33.3079
4.3717	33.3754
4.36801	33.4061
4.36434	33.5443
4.36067	33.6708
4.357	33.8092
4.35335	33.9428
4.34969	34.0421
4.34605	34.1954
4.34241	34.2631
4.33877	34.2979
4.33514	34.3481
4.33152	34.4311
4.32791	34.5125
4.3243	34.5948
4.32069	34.6444
4.3171	34.6793
4.31351	34.748
4.30992	34.8349
4.30634	34.872
4.30277	34.8553
4.2992	34.8808
4.29564	34.9506
4.29208	34.9879
4.28853	35.0112
4.28499	34.9814
4.28145	35.0318
4.27792	35.0696
4.27439	34.983
4.27087	35.0009
4.26735	35.1615
4.26384	35.2941
4.26034	35.571
4.25684	35.8477
4.25335	36.005
4.24986	36.0414
4.24638	36.0714
4.24291	36.0747
4.23944	36.0993
4.23598	36.23
4.23252	36.3306
4.22906	36.4852
4.22562	36.6478
4.22218	36.8392
4.21874	37.0749
4.21531	37.3417
4.21189	37.5676
4.20847	37.798
4.20506	37.9492
4.20165	38.0036
4.19825	38.1008
4.19485	38.2398
4.19146	38.3549
4.18807	38.4696
4.18469	38.5642
4.18132	38.6331
4.17795	38.7577
4.17458	38.8043
4.17123	38.8647
4.16787	39.0378
4.16453	39.0976
4.16118	39.174
4.15785	39.3732
4.15451	39.4769
4.15119	39.5303
4.14787	39.5703
4.14455	39.5833
4.14124	39.7259
4.13794	39.9385
4.13464	39.9737
4.13134	40.0039
4.12805	40.1036
4.12477	40.1742
4.12149	40.2967
4.11822	40.3881
4.11495	40.4431
4.11168	40.5101
4.10843	40.6157
4.10517	40.7465
4.10192	40.8323
4.09868	40.9206
4.09545	41.0389
4.09221	41.121
4.08899	41.2317
4.08576	41.3122
4.08255	41.4282
4.07933	41.4667
4.07613	41.4906
4.07292	41.615
4.06973	41.7923
4.06654	41.8618
4.06335	41.854
4.06017	41.8776
4.05699	41.9808
4.05382	42.0948
4.05065	42.2099
4.04749	42.2884
4.04433	42.3064
4.04118	42.3511
4.03803	42.4904
4.03489	42.595
4.03175	42.6856
4.02862	42.7683
4.02549	42.8324
4.02237	42.9668
4.01925	43.0513
4.01614	43.0338
4.01303	43.1707
4.00993	43.3331
4.00683	43.2788
4.00373	43.276
4.00064	43.4791
3.99756	43.6769
3.99448	43.7426
3.9914	43.7058
3.98833	43.7188
3.98527	43.806
3.98221	43.979
3.97915	44.1172
3.9761	44.2028
3.97305	44.2838
3.97001	44.3524
3.96697	44.4442
3.96394	44.5236
3.96091	44.5636
3.95789	44.6427
3.95487	44.77
3.95186	44.8886
3.94885	44.9989
3.94584	45.0771
3.94284	45.1342
3.93984	45.23
3.93685	45.3723
3.93386	45.4208
3.93088	45.4077
3.9279	45.551
3.92493	45.7079
3.92196	45.6867
3.919	45.7559
3.91604	45.9226
3.91308	45.9676
3.91013	45.9973
3.90718	46.088
3.90424	46.1556
3.9013	46.2628
3.89837	46.3866
3.89544	46.4326
3.89252	46.5107
3.8896	46.5856
3.88668	46.6183
3.88377	46.7228
3.88086	46.8434
3.87796	46.9488
3.87506	47.0349
3.87217	47.0958
3.86928	47.1445
3.86639	47.2537
3.86351	47.3521
3.86064	47.4146
3.85776	47.4523
3.8549	47.4827
3.85203	47.5535
3.84917	47.6142
3.84631	47.6503
3.84346	47.7095
3.84062	47.8957
3.83777	48.1081
3.83494	48.1551
3.8321	48.184
3.82927	48.2705
3.82644	48.3293
3.82362	48.4195
3.82081	48.4883
3.81799	48.5726
3.81518	48.576
3.81238	48.5795
3.80958	48.6925
3.80678	48.8445
3.80399	48.9778
3.8012	49.0315
3.79841	49.0434
3.79563	49.1379
3.79286	49.1947
3.79008	49.2126
3.78731	49.3905
3.78455	49.5065
3.78179	49.5041
3.77903	49.5733
3.77628	49.5983
3.77353	49.6655
3.77079	49.7429
3.76805	49.8579
3.76531	49.9842
3.76258	50.031
3.75985	50.0601
3.75713	50.142
3.7544	50.2323
3.75169	50.3492
3.74898	50.421
3.74627	50.4877
3.74356	50.5318
3.74086	50.5719
3.73816	50.6219
3.73547	50.7154
3.73278	50.8135
3.7301	50.8666
3.72741	50.8924
3.72474	50.9827
3.72206	51.0195
3.71939	51.0758
3.71673	51.2063
3.71406	51.2713
3.71141	51.3314
3.70875	51.335
3.7061	51.3051
3.70345	51.3682
3.70081	51.4946
3.69817	51.576
3.69553	51.6757
3.6929	51.803
3.69027	51.816
3.68765	51.8836
3.68503	51.9553
3.68241	51.9816
3.6798	52.0444
3.67719	52.1404
3.67458	52.2747
3.67198	52.3126
3.66938	52.3388
3.66678	52.4138
3.66419	52.4481
3.66161	52.4853
3.65902	52.5615
3.65644	52.6195
3.65387	52.6125
3.65129	52.5922
3.64872	52.7002
3.64616	52.8175
3.64359	52.8939
3.64103	52.9674
3.63848	52.9835
3.63593	53.0478
3.63338	53.1488
3.63084	53.1973
3.6283	53.2401
3.62576	53.288
3.62322	53.2949
3.62069	53.309
3.61817	53.4337
3.61564	53.5908
3.61312	53.5882
3.61061	53.5683
3.6081	53.657
3.60559	53.7422
3.60308	53.7364
3.60058	53.6893
3.59808	53.7088
3.59558	53.809
3.59309	53.9636
3.59061	54.0113
3.58812	53.9854
3.58564	54.0826
3.58316	54.0725
3.58069	54.0329
3.57822	54.1542
3.57575	54.2359
3.57328	54.2576
3.57082	54.357
3.56836	54.4549
3.56591	54.4167
3.56346	54.4244
3.56101	54.5177
3.55857	54.5444
3.55613	54.504
3.55369	54.4809
3.55126	54.5042
3.54883	54.5082
3.5464	54.4903
3.54397	54.5085
3.54155	54.6064
3.53914	54.6237
3.53672	54.6305
3.53431	54.6707
3.5319	54.6594
3.5295	54.6742
3.5271	54.7484
3.5247	54.8194
3.52231	54.8476
3.51991	54.8571
3.51753	54.8989
3.51514	54.9089
3.51276	54.9462
3.51038	55.0603
3.50801	55.0505
3.50563	54.9726
3.50327	55.058
3.5009	55.1222
3.49854	55.0761
3.49618	55.0543
3.49382	55.1449
3.49147	55.2064
3.48912	55.2564
3.48677	55.3104
3.48443	55.3786
3.48209	55.4509
3.47975	55.5041
3.47742	55.4912
3.47509	55.5046
3.47276	55.6109
3.47044	55.6939
3.46812	55.7123
3.4658	55.8015
3.46348	55.9627
