Name: Alkali Granite
Type: Rock
Class: Igneous
Subclass:  Felsic 
Particle Size: Solid surface
Sample No.: Ward13.txt
Owner: JPL
Wavelength range:  VNIR SWIR IR 
Origin: Ward's Collection of American Rocks.  Sample locality - Quincy, Norfolk County, Massachusetts.
Collected by:  Ward's Natural Science
Description: A dark gray granular rock consisting of feldspar, quartz and
black pryibole.
Geologic age - Carboniferous (probably Mississippian).



Measurement: Hemispherical reflectance
First Column: X
Second Column: Y
X Units: Wavelength (micrometers)
Y Units: Reflectance (percent)
First X Value: 2.500
Last X Value: 0.400
Number of X Values: 2101
Additional information: None

2.500  26.736019
2.499  26.245353
2.498  26.686041
2.497  26.538421
2.496  26.444293
2.495  26.606342
2.494  26.730238
2.493  26.587958
2.492  26.716146
2.491  26.638694
2.490  26.743568
2.489  26.633068
2.488  27.001447
2.487  26.700445
2.486  26.838215
2.485  26.834154
2.484  26.947354
2.483  27.019424
2.482  27.163735
2.481  26.834208
2.480  27.366253
2.479  27.154414
2.478  27.302045
2.477  27.149477
2.476  27.371002
2.475  27.304379
2.474  27.358720
2.473  27.189672
2.472  27.383459
2.471  27.431246
2.470  27.677182
2.469  27.442610
2.468  27.646456
2.467  27.582335
2.466  27.697222
2.465  27.647773
2.464  27.801826
2.463  27.763245
2.462  27.917841
2.461  27.698121
2.460  27.994575
2.459  27.929817
2.458  27.930770
2.457  27.933072
2.456  28.114967
2.455  28.064245
2.454  28.224780
2.453  28.107805
2.452  28.368196
2.451  28.210243
2.450  28.402123
2.449  28.212582
2.448  28.354890
2.447  28.138972
2.446  28.268781
2.445  28.341338
2.444  28.516033
2.443  28.502964
2.442  28.476724
2.441  28.429399
2.440  28.531797
2.439  28.561274
2.438  28.703435
2.437  28.578655
2.436  28.613072
2.435  28.509810
2.434  28.718661
2.433  28.646743
2.432  28.760685
2.431  28.662848
2.430  28.863020
2.429  28.747163
2.428  28.847265
2.427  28.797843
2.426  28.825759
2.425  28.801111
2.424  28.854203
2.423  28.815193
2.422  28.905657
2.421  28.857892
2.420  28.911630
2.419  28.938466
2.418  29.005856
2.417  28.888952
2.416  29.030300
2.415  29.029939
2.414  29.133786
2.413  29.099412
2.412  29.173378
2.411  29.165650
2.410  29.306433
2.409  29.175514
2.408  29.325673
2.407  29.333692
2.406  29.459559
2.405  29.384642
2.404  29.507052
2.403  29.543306
2.402  29.609415
2.401  29.606902
2.400  29.667605
2.399  29.732325
2.398  29.778443
2.397  29.848157
2.396  29.888033
2.395  29.872538
2.394  30.031968
2.393  30.005706
2.392  30.094406
2.391  30.120517
2.390  30.203332
2.389  30.282383
2.388  30.404003
2.387  30.451962
2.386  30.489208
2.385  30.562463
2.384  30.572842
2.383  30.550512
2.382  30.613476
2.381  30.635380
2.380  30.702104
2.379  30.716935
2.378  30.735800
2.377  30.819433
2.376  30.853984
2.375  30.832439
2.374  30.903759
2.373  30.891713
2.372  30.876671
2.371  30.878648
2.370  30.945404
2.369  30.945106
2.368  30.992000
2.367  30.965737
2.366  30.961727
2.365  30.973107
2.364  30.964713
2.363  30.964715
2.362  30.937228
2.361  30.918866
2.360  30.925974
2.359  30.875085
2.358  30.781647
2.357  30.755984
2.356  30.720997
2.355  30.693965
2.354  30.667675
2.353  30.598260
2.352  30.507708
2.351  30.430010
2.350  30.381411
2.349  30.375891
2.348  30.319199
2.347  30.256316
2.346  30.201261
2.345  30.200415
2.344  30.188655
2.343  30.157889
2.342  30.098413
2.341  30.131614
2.340  30.118691
2.339  30.149196
2.338  30.132410
2.337  30.150541
2.336  30.196579
2.335  30.269228
2.334  30.253015
2.333  30.229331
2.332  30.302996
2.331  30.424232
2.330  30.450461
2.329  30.535488
2.328  30.590954
2.327  30.684137
2.326  30.600186
2.325  30.777345
2.324  30.843291
2.323  30.880908
2.322  30.966129
2.321  31.056350
2.320  31.058068
2.319  31.195862
2.318  31.271360
2.317  31.409404
2.316  31.551902
2.315  31.687583
2.314  31.701977
2.313  31.822937
2.312  31.846717
2.311  31.958353
2.310  31.967586
2.309  32.087082
2.308  32.082840
2.307  32.146099
2.306  32.277783
2.305  32.334351
2.304  32.332407
2.303  32.388361
2.302  32.413265
2.301  32.498132
2.300  32.479166
2.299  32.517759
2.298  32.536252
2.297  32.657974
2.296  32.661386
2.295  32.738315
2.294  32.707394
2.293  32.757452
2.292  32.762897
2.291  32.889784
2.290  32.872594
2.289  33.017298
2.288  33.042029
2.287  33.054920
2.286  33.083846
2.285  33.115671
2.284  33.086826
2.283  33.199151
2.282  33.198416
2.281  33.223834
2.280  33.242792
2.279  33.284847
2.278  33.261493
2.277  33.306281
2.276  33.280703
2.275  33.390800
2.274  33.281741
2.273  33.349357
2.272  33.297326
2.271  33.401375
2.270  33.342266
2.269  33.531365
2.268  33.502032
2.267  33.475390
2.266  33.460159
2.265  33.476440
2.264  33.445806
2.263  33.493064
2.262  33.514538
2.261  33.516626
2.260  33.470701
2.259  33.491524
2.258  33.546351
2.257  33.578915
2.256  33.623779
2.255  33.654711
2.254  33.589250
2.253  33.663828
2.252  33.617271
2.251  33.671690
2.250  33.681567
2.249  33.817772
2.248  33.657219
2.247  33.721010
2.246  33.666674
2.245  33.755761
2.244  33.750479
2.243  33.839802
2.242  33.777190
2.241  33.802284
2.240  33.704785
2.239  33.832483
2.238  33.810377
2.237  33.895181
2.236  33.852711
2.235  34.018430
2.234  33.864330
2.233  33.900947
2.232  33.854555
2.231  33.917412
2.230  33.912140
2.229  34.025912
2.228  33.896782
2.227  34.064183
2.226  33.992244
2.225  34.071195
2.224  33.959562
2.223  34.079111
2.222  34.016049
2.221  34.180242
2.220  34.072035
2.219  34.286366
2.218  34.028351
2.217  34.148337
2.216  34.108212
2.215  34.165372
2.214  34.160416
2.213  34.222006
2.212  34.195647
2.211  34.129867
2.210  34.300631
2.209  34.366240
2.208  34.181347
2.207  34.381586
2.206  34.270506
2.205  34.389247
2.204  34.345625
2.203  34.317238
2.202  34.410000
2.201  34.536501
2.200  34.444605
2.199  34.524129
2.198  34.475892
2.197  34.613364
2.196  34.537644
2.195  34.602673
2.194  34.493746
2.193  34.599064
2.192  34.550213
2.191  34.568083
2.190  34.515893
2.189  34.654272
2.188  34.640780
2.187  34.629710
2.186  34.528972
2.185  34.734268
2.184  34.597623
2.183  34.610082
2.182  34.584268
2.181  34.797273
2.180  34.622977
2.179  34.819799
2.178  34.729131
2.177  34.833773
2.176  34.742893
2.175  34.798301
2.174  34.797292
2.173  34.832354
2.172  34.786989
2.171  34.819417
2.170  34.810263
2.169  34.910881
2.168  34.841389
2.167  34.871291
2.166  34.889231
2.165  34.947568
2.164  34.886782
2.163  34.997394
2.162  34.888373
2.161  34.944845
2.160  34.954808
2.159  35.024664
2.158  34.943349
2.157  35.021907
2.156  34.960100
2.155  34.969178
2.154  34.910445
2.153  35.016817
2.152  34.942073
2.151  35.036434
2.150  35.009797
2.149  35.051806
2.148  34.987372
2.147  35.084430
2.146  35.021562
2.145  35.053575
2.144  35.030490
2.143  35.027598
2.142  35.071282
2.141  35.050844
2.140  34.954801
2.139  34.981587
2.138  34.994374
2.137  35.051246
2.136  34.936144
2.135  34.989255
2.134  34.981358
2.133  35.047183
2.132  34.943881
2.131  34.932765
2.130  34.942161
2.129  34.951949
2.128  34.889730
2.127  34.878057
2.126  34.912421
2.125  34.906249
2.124  34.851248
2.123  34.836011
2.122  34.831460
2.121  34.808961
2.120  34.804082
2.119  34.842817
2.118  34.763747
2.117  34.790033
2.116  34.722828
2.115  34.727661
2.114  34.706899
2.113  34.723543
2.112  34.658343
2.111  34.687519
2.110  34.634335
2.109  34.602008
2.108  34.588062
2.107  34.586913
2.106  34.502658
2.105  34.504381
2.104  34.459476
2.103  34.445220
2.102  34.428700
2.101  34.497451
2.100  34.457967
2.099  34.421221
2.098  34.367105
2.097  34.426960
2.096  34.413966
2.095  34.386511
2.094  34.420915
2.093  34.445104
2.092  34.393124
2.091  34.396152
2.090  34.415481
2.089  34.422553
2.088  34.347260
2.087  34.375007
2.086  34.354239
2.085  34.327210
2.084  34.353445
2.083  34.387942
2.082  34.382014
2.081  34.315346
2.080  34.317842
2.079  34.327502
2.078  34.293817
2.077  34.304780
2.076  34.246547
2.075  34.230496
2.074  34.258764
2.073  34.271031
2.072  34.246004
2.071  34.210189
2.070  34.241461
2.069  34.217460
2.068  34.172416
2.067  34.167782
2.066  34.166648
2.065  34.169067
2.064  34.146807
2.063  34.121071
2.062  34.134411
2.061  34.095555
2.060  34.047592
2.059  34.009776
2.058  34.007623
2.057  34.012003
2.056  33.974883
2.055  33.977514
2.054  33.984990
2.053  33.987212
2.052  33.973869
2.051  33.878160
2.050  33.863910
2.049  33.842814
2.048  33.818258
2.047  33.751312
2.046  33.762576
2.045  33.767162
2.044  33.785356
2.043  33.734335
2.042  33.729897
2.041  33.673513
2.040  33.643967
2.039  33.588144
2.038  33.603197
2.037  33.537310
2.036  33.491958
2.035  33.457240
2.034  33.418835
2.033  33.388669
2.032  33.386153
2.031  33.330111
2.030  33.330506
2.029  33.268888
2.028  33.234540
2.027  33.177643
2.026  33.154476
2.025  33.095492
2.024  33.088465
2.023  33.001724
2.022  33.035502
2.021  32.943798
2.020  32.967258
2.019  32.910580
2.018  32.836787
2.017  32.798943
2.016  32.791511
2.015  32.672535
2.014  32.702478
2.013  32.610563
2.012  32.618765
2.011  32.474366
2.010  32.419253
2.009  32.355103
2.008  32.349848
2.007  32.290266
2.006  32.224756
2.005  32.166871
2.004  32.183180
2.003  32.060398
2.002  32.011000
2.001  31.993205
2.000  31.872297
1.999  31.815402
1.998  31.798282
1.997  31.638827
1.996  31.596799
1.995  31.546554
1.994  31.527743
1.993  31.384944
1.992  31.422185
1.991  31.264881
1.990  31.193527
1.989  31.122110
1.988  31.068885
1.987  30.970644
1.986  30.960400
1.985  30.788711
1.984  30.792778
1.983  30.675424
1.982  30.676760
1.981  30.556547
1.980  30.546613
1.979  30.433985
1.978  30.387510
1.977  30.309400
1.976  30.209677
1.975  30.074504
1.974  30.145753
1.973  29.993308
1.972  29.992371
1.971  29.837948
1.970  29.925526
1.969  29.751828
1.968  29.757595
1.967  29.672188
1.966  29.631717
1.965  29.513711
1.964  29.572523
1.963  29.471760
1.962  29.464772
1.961  29.248931
1.960  29.352371
1.959  29.212395
1.958  29.207215
1.957  29.056421
1.956  29.166816
1.955  29.001188
1.954  28.977960
1.953  28.800407
1.952  28.784269
1.951  28.762978
1.950  28.692604
1.949  28.692550
1.948  28.747166
1.947  28.632236
1.946  28.622747
1.945  28.551406
1.944  28.615945
1.943  28.336565
1.942  28.458590
1.941  28.364755
1.940  28.431618
1.939  28.361880
1.938  28.393657
1.937  28.252160
1.936  28.338597
1.935  28.286900
1.934  28.335111
1.933  28.290887
1.932  28.362689
1.931  28.297118
1.930  28.330606
1.929  28.217045
1.928  28.410049
1.927  28.400122
1.926  28.373842
1.925  28.406044
1.924  28.357333
1.923  28.342571
1.922  28.469820
1.921  28.462069
1.920  28.542991
1.919  28.603678
1.918  28.671152
1.917  28.679677
1.916  28.759734
1.915  28.840980
1.914  28.983039
1.913  28.999585
1.912  29.076624
1.911  29.267994
1.910  29.400860
1.909  29.386763
1.908  29.644859
1.907  29.686227
1.906  29.923485
1.905  29.967717
1.904  30.256757
1.903  30.415383
1.902  30.720213
1.901  30.821021
1.900  31.049739
1.899  31.266106
1.898  31.583844
1.897  31.768619
1.896  32.124663
1.895  32.309898
1.894  32.554158
1.893  32.755105
1.892  33.073457
1.891  33.202428
1.890  33.462914
1.889  33.742574
1.888  33.883150
1.887  34.017800
1.886  34.315931
1.885  34.439980
1.884  34.709350
1.883  34.796907
1.882  35.029360
1.881  35.150229
1.880  35.340481
1.879  35.363710
1.878  35.630661
1.877  35.682219
1.876  35.755524
1.875  35.815354
1.874  35.933788
1.873  35.999100
1.872  36.072500
1.871  36.110647
1.870  36.158702
1.869  36.182981
1.868  36.259933
1.867  36.359917
1.866  36.453809
1.865  36.508701
1.864  36.625835
1.863  36.696905
1.862  36.754405
1.861  36.753792
1.860  36.833491
1.859  36.780343
1.858  36.798893
1.857  36.801004
1.856  36.851766
1.855  36.853399
1.854  36.967024
1.853  36.930941
1.852  36.947944
1.851  36.931440
1.850  37.001755
1.849  36.983960
1.848  37.029865
1.847  37.005474
1.846  37.055358
1.845  37.004033
1.844  37.043510
1.843  37.017277
1.842  37.099250
1.841  37.056887
1.840  37.092340
1.839  37.067341
1.838  37.077318
1.837  36.992570
1.836  37.048862
1.835  37.041494
1.834  37.105111
1.833  37.075857
1.832  37.111936
1.831  37.057007
1.830  37.158448
1.829  37.108601
1.828  37.126609
1.827  37.130396
1.826  37.122546
1.825  37.131386
1.824  37.156839
1.823  37.076852
1.822  37.096125
1.821  37.112381
1.820  37.115342
1.819  37.109171
1.818  37.129374
1.817  37.124798
1.816  37.096565
1.815  37.101591
1.814  37.177831
1.813  37.166400
1.812  37.154756
1.811  37.128331
1.810  37.141700
1.809  37.111833
1.808  37.165477
1.807  37.137482
1.806  37.136765
1.805  37.162993
1.804  37.170038
1.803  37.177972
1.802  37.173037
1.801  37.152740
1.800  37.187778
1.799  37.171901
1.798  37.188165
1.797  37.149236
1.796  37.160838
1.795  37.151373
1.794  37.145586
1.793  37.182953
1.792  37.203578
1.791  37.181274
1.790  37.209542
1.789  37.236731
1.788  37.231941
1.787  37.207483
1.786  37.192562
1.785  37.173454
1.784  37.127793
1.783  37.134520
1.782  37.181556
1.781  37.117428
1.780  37.136329
1.779  37.188026
1.778  37.177311
1.777  37.189003
1.776  37.149448
1.775  37.130355
1.774  37.138486
1.773  37.173809
1.772  37.161483
1.771  37.109492
1.770  37.105855
1.769  37.146152
1.768  37.114159
1.767  37.171038
1.766  37.172627
1.765  37.168641
1.764  37.157445
1.763  37.177096
1.762  37.153022
1.761  37.189885
1.760  37.154302
1.759  37.198377
1.758  37.198540
1.757  37.243653
1.756  37.223088
1.755  37.268436
1.754  37.236320
1.753  37.214162
1.752  37.225404
1.751  37.272898
1.750  37.244801
1.749  37.243970
1.748  37.198385
1.747  37.197021
1.746  37.218585
1.745  37.302496
1.744  37.214326
1.743  37.227482
1.742  37.247251
1.741  37.285482
1.740  37.237046
1.739  37.261114
1.738  37.281295
1.737  37.289446
1.736  37.277624
1.735  37.323233
1.734  37.263490
1.733  37.271673
1.732  37.220200
1.731  37.253320
1.730  37.262512
1.729  37.256781
1.728  37.219923
1.727  37.337530
1.726  37.279428
1.725  37.311746
1.724  37.239353
1.723  37.251175
1.722  37.291379
1.721  37.342748
1.720  37.306322
1.719  37.352046
1.718  37.281446
1.717  37.330834
1.716  37.263949
1.715  37.317871
1.714  37.223036
1.713  37.291867
1.712  37.194346
1.711  37.293219
1.710  37.227769
1.709  37.297183
1.708  37.286163
1.707  37.338898
1.706  37.152981
1.705  37.182247
1.704  37.187131
1.703  37.329733
1.702  37.272129
1.701  37.326669
1.700  37.200087
1.699  37.318914
1.698  37.267973
1.697  37.312137
1.696  37.187612
1.695  37.313776
1.694  37.268532
1.693  37.277889
1.692  37.201889
1.691  37.266577
1.690  37.139012
1.689  37.245665
1.688  37.213316
1.687  37.200051
1.686  37.168206
1.685  37.208562
1.684  37.181599
1.683  37.229334
1.682  37.146878
1.681  37.294276
1.680  37.235243
1.679  37.213039
1.678  37.122722
1.677  37.228717
1.676  37.140360
1.675  37.217128
1.674  37.119702
1.673  37.156376
1.672  37.101764
1.671  37.178797
1.670  37.108959
1.669  37.158221
1.668  37.037069
1.667  37.229464
1.666  37.049764
1.665  37.119545
1.664  37.142530
1.663  37.160992
1.662  37.076221
1.661  37.226092
1.660  37.189485
1.659  37.085442
1.658  37.088622
1.657  37.075556
1.656  37.078753
1.655  37.110427
1.654  37.018629
1.653  37.060757
1.652  36.997932
1.651  37.058048
1.650  37.008582
1.649  37.090734
1.648  36.995070
1.647  36.982198
1.646  36.976189
1.645  37.004875
1.644  36.875369
1.643  37.005993
1.642  37.093488
1.641  36.997953
1.640  37.051822
1.639  37.052124
1.638  36.885515
1.637  37.093897
1.636  36.888106
1.635  36.971535
1.634  36.944112
1.633  36.902840
1.632  36.869389
1.631  36.964551
1.630  36.874041
1.629  36.907846
1.628  36.900725
1.627  36.934247
1.626  36.956695
1.625  36.995132
1.624  36.829381
1.623  36.877131
1.622  36.849182
1.621  36.866363
1.620  36.790769
1.619  36.919861
1.618  36.800950
1.617  36.856914
1.616  36.772032
1.615  36.883902
1.614  36.750583
1.613  36.863310
1.612  36.685195
1.611  36.741135
1.610  36.715721
1.609  36.784727
1.608  36.723697
1.607  36.725469
1.606  36.662065
1.605  36.758251
1.604  36.605956
1.603  36.721778
1.602  36.653288
1.601  36.688939
1.600  36.615897
1.599  36.647241
1.598  36.605500
1.597  36.734654
1.596  36.562599
1.595  36.581316
1.594  36.549561
1.593  36.638529
1.592  36.522105
1.591  36.543516
1.590  36.521050
1.589  36.544958
1.588  36.505938
1.587  36.539282
1.586  36.514600
1.585  36.513515
1.584  36.432455
1.583  36.513861
1.582  36.402661
1.581  36.514260
1.580  36.388437
1.579  36.457361
1.578  36.402854
1.577  36.458675
1.576  36.410016
1.575  36.418806
1.574  36.400870
1.573  36.406695
1.572  36.330399
1.571  36.377033
1.570  36.277953
1.569  36.267502
1.568  36.217190
1.567  36.225832
1.566  36.230492
1.565  36.224885
1.564  36.169541
1.563  36.191155
1.562  36.207177
1.561  36.244787
1.560  36.164844
1.559  36.126829
1.558  36.105917
1.557  36.110516
1.556  36.097330
1.555  36.151141
1.554  36.025397
1.553  36.012464
1.552  36.017965
1.551  36.010689
1.550  35.971674
1.549  35.958066
1.548  35.955586
1.547  35.993118
1.546  35.873540
1.545  35.893370
1.544  35.882769
1.543  35.858753
1.542  35.820112
1.541  35.871210
1.540  35.803581
1.539  35.781323
1.538  35.724018
1.537  35.738754
1.536  35.750184
1.535  35.745209
1.534  35.686867
1.533  35.608188
1.532  35.591790
1.531  35.650931
1.530  35.625802
1.529  35.629466
1.528  35.577769
1.527  35.594805
1.526  35.608800
1.525  35.608976
1.524  35.500929
1.523  35.451111
1.522  35.495494
1.521  35.508718
1.520  35.427468
1.519  35.389174
1.518  35.381851
1.517  35.411849
1.516  35.375462
1.515  35.315641
1.514  35.288323
1.513  35.281660
1.512  35.242968
1.511  35.216248
1.510  35.156136
1.509  35.080626
1.508  35.100853
1.507  35.136142
1.506  35.092684
1.505  35.049677
1.504  34.992449
1.503  35.026607
1.502  35.040263
1.501  34.986745
1.500  35.002188
1.499  34.965898
1.498  34.906187
1.497  34.876564
1.496  34.822879
1.495  34.758737
1.494  34.754472
1.493  34.719784
1.492  34.691328
1.491  34.720603
1.490  34.703587
1.489  34.606720
1.488  34.576824
1.487  34.570084
1.486  34.540658
1.485  34.465811
1.484  34.472132
1.483  34.472428
1.482  34.462144
1.481  34.395576
1.480  34.350558
1.479  34.315392
1.478  34.307996
1.477  34.289752
1.476  34.287128
1.475  34.259346
1.474  34.234153
1.473  34.157054
1.472  34.151473
1.471  34.103828
1.470  34.068092
1.469  34.051714
1.468  34.048022
1.467  33.978507
1.466  33.967488
1.465  33.975620
1.464  33.957032
1.463  33.892477
1.462  33.891993
1.461  33.814334
1.460  33.840935
1.459  33.837194
1.458  33.870889
1.457  33.793183
1.456  33.815417
1.455  33.742786
1.454  33.718023
1.453  33.746249
1.452  33.720774
1.451  33.653804
1.450  33.737754
1.449  33.650444
1.448  33.717841
1.447  33.601508
1.446  33.616352
1.445  33.585126
1.444  33.657395
1.443  33.585701
1.442  33.599665
1.441  33.614340
1.440  33.562372
1.439  33.529127
1.438  33.510033
1.437  33.497608
1.436  33.631504
1.435  33.536690
1.434  33.538068
1.433  33.480967
1.432  33.515253
1.431  33.483140
1.430  33.463114
