Name: Vesuvianite Ca_10(Mg,Fe^2+)_2Al_4(Si_2O_7)_2(SiO_4)_5(OH,F)_4
Type: Mineral
Class: Silicates
Subclass: Sorosilicate
Particle Size: 125-500um
Sample No.: SS-3A
Owner: JPL
Wavelength range: VNIR-SWIR
Origin: USA, California, Riverside County, Crestmore Quarry.
Collected by:  Burminco
Description: 





Measurement: Hemispherical reflectance
First Column: X
Second Column: Y
X Units: Wavelength (micrometers)
Y Units: Reflectance (percent)
First X Value: 2.500
Last X Value: 0.400
Number of X Values: 2101
Additional information: ss03aa.txt

2.500  19.526249
2.499  19.421101
2.498  19.400167
2.497  19.664989
2.496  18.981124
2.495  19.679312
2.494  19.305353
2.493  19.557475
2.492  19.334105
2.491  19.551983
2.490  19.268421
2.489  19.456141
2.488  19.480486
2.487  19.498768
2.486  19.459622
2.485  19.469282
2.484  19.274507
2.483  19.593710
2.482  19.525438
2.481  19.473783
2.480  19.368842
2.479  19.573843
2.478  19.488219
2.477  19.506949
2.476  19.380314
2.475  19.485539
2.474  19.345779
2.473  19.500122
2.472  19.410469
2.471  19.638802
2.470  19.463032
2.469  19.529157
2.468  19.441919
2.467  19.538134
2.466  19.452300
2.465  19.596678
2.464  19.426240
2.463  19.520493
2.462  19.448245
2.461  19.435287
2.460  19.318209
2.459  19.489924
2.458  19.356792
2.457  19.424556
2.456  19.447935
2.455  19.523531
2.454  19.367026
2.453  19.435315
2.452  19.358392
2.451  19.352864
2.450  19.274268
2.449  19.357683
2.448  19.297273
2.447  19.301578
2.446  19.141360
2.445  19.258118
2.444  19.193759
2.443  19.223555
2.442  19.084189
2.441  19.160736
2.440  19.020952
2.439  19.139129
2.438  18.928997
2.437  19.031758
2.436  19.026400
2.435  18.970217
2.434  18.992952
2.433  19.030040
2.432  18.944968
2.431  18.993859
2.430  18.925554
2.429  19.043482
2.428  18.915795
2.427  19.085278
2.426  19.015543
2.425  19.055083
2.424  19.033261
2.423  19.038452
2.422  19.001199
2.421  19.078208
2.420  19.125426
2.419  19.082171
2.418  19.021241
2.417  19.057789
2.416  19.087789
2.415  19.182109
2.414  19.131976
2.413  19.217362
2.412  19.157810
2.411  19.197342
2.410  19.138163
2.409  19.197692
2.408  19.138077
2.407  19.214427
2.406  19.230232
2.405  19.304689
2.404  19.250846
2.403  19.371064
2.402  19.281712
2.401  19.328960
2.400  19.319988
2.399  19.420224
2.398  19.417572
2.397  19.441598
2.396  19.467901
2.395  19.527771
2.394  19.522089
2.393  19.558211
2.392  19.589947
2.391  19.628775
2.390  19.630308
2.389  19.742296
2.388  19.742901
2.387  19.740706
2.386  19.752782
2.385  19.777090
2.384  19.772911
2.383  19.829540
2.382  19.845589
2.381  19.753530
2.380  19.705851
2.379  19.744412
2.378  19.698295
2.377  19.718325
2.376  19.665890
2.375  19.646056
2.374  19.580654
2.373  19.582359
2.372  19.554733
2.371  19.542762
2.370  19.456147
2.369  19.365837
2.368  19.273073
2.367  19.225983
2.366  19.127060
2.365  19.046912
2.364  19.013109
2.363  18.969193
2.362  18.890295
2.361  18.834043
2.360  18.789330
2.359  18.694643
2.358  18.649145
2.357  18.610424
2.356  18.501124
2.355  18.468497
2.354  18.491695
2.353  18.467869
2.352  18.476736
2.351  18.471674
2.350  18.490216
2.349  18.552641
2.348  18.555304
2.347  18.609157
2.346  18.661708
2.345  18.766232
2.344  18.915640
2.343  18.939839
2.342  19.066420
2.341  19.164340
2.340  19.338615
2.339  19.518590
2.338  19.636318
2.337  19.735693
2.336  19.910300
2.335  20.054412
2.334  20.218210
2.333  20.311334
2.332  20.502079
2.331  20.697539
2.330  20.830421
2.329  20.938645
2.328  21.155956
2.327  21.266009
2.326  21.379105
2.325  21.536722
2.324  21.668149
2.323  21.729172
2.322  21.851583
2.321  21.940500
2.320  22.000869
2.319  22.087734
2.318  22.212862
2.317  22.227551
2.316  22.331627
2.315  22.333175
2.314  22.401057
2.313  22.435005
2.312  22.524454
2.311  22.509930
2.310  22.622252
2.309  22.684151
2.308  22.781255
2.307  22.785035
2.306  22.831191
2.305  22.952255
2.304  23.117427
2.303  23.151394
2.302  23.269675
2.301  23.401643
2.300  23.555211
2.299  23.660666
2.298  23.759252
2.297  23.946184
2.296  24.168724
2.295  24.297186
2.294  24.463077
2.293  24.582964
2.292  24.861065
2.291  24.912037
2.290  25.220929
2.289  25.313921
2.288  25.421153
2.287  25.567879
2.286  25.721943
2.285  25.823772
2.284  26.024120
2.283  26.070547
2.282  26.230000
2.281  26.270625
2.280  26.428943
2.279  26.522808
2.278  26.661425
2.277  26.685807
2.276  26.899200
2.275  26.935603
2.274  27.043141
2.273  27.174648
2.272  27.294881
2.271  27.381666
2.270  27.467291
2.269  27.580372
2.268  27.700720
2.267  27.744812
2.266  27.979660
2.265  28.021022
2.264  28.230245
2.263  28.306865
2.262  28.527946
2.261  28.518481
2.260  28.790661
2.259  28.934665
2.258  29.169438
2.257  29.230119
2.256  29.441282
2.255  29.535275
2.254  29.697780
2.253  29.866708
2.252  30.089828
2.251  30.110658
2.250  30.394638
2.249  30.499758
2.248  30.677483
2.247  30.794198
2.246  31.001205
2.245  31.082343
2.244  31.270231
2.243  31.375105
2.242  31.567320
2.241  31.560579
2.240  31.795486
2.239  31.793549
2.238  31.989511
2.237  32.051497
2.236  32.190995
2.235  32.166037
2.234  32.423230
2.233  32.413845
2.232  32.564865
2.231  32.602777
2.230  32.759512
2.229  32.729100
2.228  32.861898
2.227  32.847195
2.226  33.030235
2.225  33.007593
2.224  33.184243
2.223  33.107927
2.222  33.244883
2.221  33.149137
2.220  33.355965
2.219  33.199615
2.218  33.374070
2.217  33.386020
2.216  33.477691
2.215  33.458324
2.214  33.633211
2.213  33.617734
2.212  33.983539
2.211  33.815724
2.210  34.209891
2.209  34.241531
2.208  34.506709
2.207  34.661823
2.206  34.998589
2.205  35.171515
2.204  35.499372
2.203  35.712643
2.202  36.086342
2.201  36.280191
2.200  36.648602
2.199  36.842856
2.198  37.080943
2.197  37.337361
2.196  37.594142
2.195  37.763776
2.194  37.992171
2.193  38.176036
2.192  38.344933
2.191  38.567848
2.190  38.681354
2.189  38.757822
2.188  38.938792
2.187  39.030622
2.186  39.180955
2.185  39.232605
2.184  39.402075
2.183  39.370701
2.182  39.531575
2.181  39.579997
2.180  39.731770
2.179  39.792298
2.178  39.971305
2.177  39.981485
2.176  40.106433
2.175  40.120853
2.174  40.256580
2.173  40.264544
2.172  40.467465
2.171  40.485923
2.170  40.606015
2.169  40.618442
2.168  40.724288
2.167  40.738981
2.166  40.816674
2.165  40.805835
2.164  40.924303
2.163  40.865498
2.162  40.962461
2.161  40.938435
2.160  40.958432
2.159  40.949469
2.158  41.010456
2.157  40.913238
2.156  40.997257
2.155  40.892869
2.154  40.914729
2.153  40.859237
2.152  40.949315
2.151  40.875460
2.150  40.898529
2.149  40.896476
2.148  41.028838
2.147  41.063397
2.146  41.122258
2.145  41.160650
2.144  41.382718
2.143  41.436179
2.142  41.647333
2.141  41.758215
2.140  41.948241
2.139  42.110053
2.138  42.304971
2.137  42.482984
2.136  42.742257
2.135  42.862865
2.134  43.099384
2.133  43.377238
2.132  43.607015
2.131  43.779180
2.130  43.996831
2.129  44.167446
2.128  44.461305
2.127  44.702165
2.126  44.921681
2.125  45.080804
2.124  45.313208
2.123  45.465435
2.122  45.691295
2.121  45.887875
2.120  46.107601
2.119  46.273543
2.118  46.536294
2.117  46.696519
2.116  46.902062
2.115  47.064669
2.114  47.264826
2.113  47.450056
2.112  47.593990
2.111  47.795986
2.110  48.024369
2.109  48.181231
2.108  48.412169
2.107  48.551731
2.106  48.714961
2.105  48.926664
2.104  49.101399
2.103  49.228299
2.102  49.439029
2.101  49.571916
2.100  49.687970
2.099  49.912868
2.098  50.095500
2.097  50.251683
2.096  50.439246
2.095  50.532747
2.094  50.707371
2.093  50.863784
2.092  51.008555
2.091  51.110388
2.090  51.262899
2.089  51.388664
2.088  51.521426
2.087  51.614974
2.086  51.747215
2.085  51.846965
2.084  51.916893
2.083  52.031416
2.082  52.118849
2.081  52.223971
2.080  52.308008
2.079  52.356355
2.078  52.446653
2.077  52.485269
2.076  52.540757
2.075  52.654929
2.074  52.772964
2.073  52.788241
2.072  52.814164
2.071  52.888403
2.070  52.940062
2.069  52.958501
2.068  52.962362
2.067  53.046808
2.066  53.095160
2.065  53.091013
2.064  53.090008
2.063  53.155462
2.062  53.212919
2.061  53.263050
2.060  53.267590
2.059  53.244006
2.058  53.286615
2.057  53.359732
2.056  53.383438
2.055  53.438231
2.054  53.518037
2.053  53.579792
2.052  53.546589
2.051  53.607440
2.050  53.653286
2.049  53.736712
2.048  53.788819
2.047  53.845278
2.046  53.918668
2.045  53.965351
2.044  53.999571
2.043  53.996367
2.042  54.029050
2.041  54.116595
2.040  54.114427
2.039  54.154528
2.038  54.154810
2.037  54.196467
2.036  54.215650
2.035  54.223467
2.034  54.149258
2.033  54.138799
2.032  54.190638
2.031  54.199861
2.030  54.074342
2.029  54.073454
2.028  54.020684
2.027  54.028786
2.026  53.978872
2.025  53.904525
2.024  53.809736
2.023  53.784391
2.022  53.760556
2.021  53.698664
2.020  53.642637
2.019  53.630173
2.018  53.646119
2.017  53.643404
2.016  53.620127
2.015  53.599303
2.014  53.513873
2.013  53.531208
2.012  53.524268
2.011  53.572750
2.010  53.520141
2.009  53.523816
2.008  53.438475
2.007  53.465156
2.006  53.455446
2.005  53.472597
2.004  53.394334
2.003  53.373497
2.002  53.255073
2.001  53.178239
2.000  53.073567
1.999  52.990808
1.998  52.889532
1.997  52.739949
1.996  52.608806
1.995  52.450467
1.994  52.279181
1.993  52.091048
1.992  51.874773
1.991  51.726836
1.990  51.457717
1.989  51.484191
1.988  51.438540
1.987  51.443201
1.986  51.338081
1.985  51.376708
1.984  51.505286
1.983  51.701551
1.982  51.780667
1.981  51.957594
1.980  52.123675
1.979  52.366013
1.978  52.510480
1.977  52.648753
1.976  52.730912
1.975  52.953920
1.974  53.013826
1.973  53.108702
1.972  53.093940
1.971  53.195928
1.970  53.223477
1.969  53.319041
1.968  53.382334
1.967  53.528946
1.966  53.584362
1.965  53.752795
1.964  53.873843
1.963  53.947186
1.962  54.152010
1.961  54.269353
1.960  54.437362
1.959  54.668546
1.958  54.709220
1.957  55.047171
1.956  55.059445
1.955  55.266174
1.954  55.261719
1.953  55.445589
1.952  55.596051
1.951  55.680256
1.950  55.724031
1.949  55.823177
1.948  55.900587
1.947  55.973192
1.946  56.040477
1.945  56.189815
1.944  56.206078
1.943  56.298374
1.942  56.312588
1.941  56.426705
1.940  56.454947
1.939  56.524887
1.938  56.558150
1.937  56.683906
1.936  56.620729
1.935  56.750266
1.934  56.754618
1.933  56.886562
1.932  56.895785
1.931  57.018244
1.930  57.023072
1.929  57.138248
1.928  57.209683
1.927  57.271297
1.926  57.198695
1.925  57.331671
1.924  57.387071
1.923  57.461025
1.922  57.536736
1.921  57.632457
1.920  57.687286
1.919  57.790534
1.918  57.795615
1.917  57.930388
1.916  57.909944
1.915  58.013315
1.914  58.057684
1.913  58.218025
1.912  58.202343
1.911  58.357887
1.910  58.288588
1.909  58.434914
1.908  58.495561
1.907  58.543544
1.906  58.551277
1.905  58.626043
1.904  58.805165
1.903  58.866951
1.902  58.903545
1.901  59.062204
1.900  59.053374
1.899  59.220706
1.898  59.269392
1.897  59.386291
1.896  59.456071
1.895  59.608882
1.894  59.620550
1.893  59.751289
1.892  59.747399
1.891  59.945138
1.890  59.959590
1.889  60.027818
1.888  60.044815
1.887  60.172255
1.886  60.246237
1.885  60.345260
1.884  60.363295
1.883  60.451823
1.882  60.481922
1.881  60.583322
1.880  60.667750
1.879  60.686344
1.878  60.733306
1.877  60.805367
1.876  60.783606
1.875  60.861071
1.874  60.936958
1.873  61.119110
1.872  61.135999
1.871  61.241763
1.870  61.299693
1.869  61.342674
1.868  61.383499
1.867  61.439697
1.866  61.502900
1.865  61.623609
1.864  61.679149
1.863  61.675584
1.862  61.709088
1.861  61.783740
1.860  61.817653
1.859  61.893845
1.858  61.917723
1.857  61.934541
1.856  61.976126
1.855  62.126546
1.854  62.152556
1.853  62.146465
1.852  62.189101
1.851  62.224845
1.850  62.214896
1.849  62.228772
1.848  62.280097
1.847  62.316770
1.846  62.326265
1.845  62.403809
1.844  62.450257
1.843  62.506873
1.842  62.435852
1.841  62.481989
1.840  62.554017
1.839  62.543365
1.838  62.599370
1.837  62.672019
1.836  62.642043
1.835  62.672440
1.834  62.715402
1.833  62.849302
1.832  62.883580
1.831  62.940407
1.830  62.960667
1.829  63.017443
1.828  63.092033
1.827  63.103652
1.826  63.146120
1.825  63.244295
1.824  63.265258
1.823  63.312696
1.822  63.298473
1.821  63.355937
1.820  63.396385
1.819  63.449628
1.818  63.481486
1.817  63.489019
1.816  63.526803
1.815  63.590658
1.814  63.626753
1.813  63.655011
1.812  63.678827
1.811  63.706733
1.810  63.750150
1.809  63.792005
1.808  63.855326
1.807  63.833809
1.806  63.850623
1.805  63.898092
1.804  63.902529
1.803  63.918694
1.802  63.952419
1.801  63.992281
1.800  63.977054
1.799  64.069256
1.798  64.085170
1.797  64.044593
1.796  64.117679
1.795  64.113586
1.794  64.080651
1.793  64.096885
1.792  64.075068
1.791  64.099487
1.790  64.152107
1.789  64.188160
1.788  64.152632
1.787  64.164444
1.786  64.195091
1.785  64.234935
1.784  64.279234
1.783  64.255971
1.782  64.225433
1.781  64.244668
1.780  64.277675
1.779  64.288689
1.778  64.248575
1.777  64.264277
1.776  64.339446
1.775  64.335556
1.774  64.339228
1.773  64.350486
1.772  64.375556
1.771  64.410978
1.770  64.409385
1.769  64.403761
1.768  64.462633
1.767  64.507071
1.766  64.520432
1.765  64.516795
1.764  64.512522
1.763  64.490531
1.762  64.525971
1.761  64.577060
1.760  64.585528
1.759  64.611287
1.758  64.676527
1.757  64.668885
1.756  64.693798
1.755  64.719046
1.754  64.732138
1.753  64.686534
1.752  64.735553
1.751  64.794469
1.750  64.838390
1.749  64.783208
1.748  64.835961
1.747  64.839436
1.746  64.801412
1.745  64.827538
1.744  64.876524
1.743  64.845361
1.742  64.922760
1.741  64.889774
1.740  64.939651
1.739  64.996731
1.738  65.015725
1.737  65.008420
1.736  65.037328
1.735  65.048790
1.734  65.058827
1.733  65.059999
1.732  65.073809
1.731  65.141602
1.730  65.137755
1.729  65.132143
1.728  65.163566
1.727  65.118458
1.726  65.172311
1.725  65.105669
1.724  65.213656
1.723  65.211175
1.722  65.236916
1.721  65.225331
1.720  65.219002
1.719  65.209230
1.718  65.256510
1.717  65.231867
1.716  65.270011
1.715  65.315080
1.714  65.350368
1.713  65.404186
1.712  65.380801
1.711  65.348470
1.710  65.420517
1.709  65.400073
1.708  65.491797
1.707  65.388174
1.706  65.490556
1.705  65.476616
1.704  65.510792
1.703  65.433665
1.702  65.471844
1.701  65.516224
1.700  65.539642
1.699  65.501217
1.698  65.563785
1.697  65.583467
1.696  65.629201
1.695  65.590618
1.694  65.693041
1.693  65.727200
1.692  65.762779
1.691  65.741431
1.690  65.763076
1.689  65.730471
1.688  65.809597
1.687  65.825316
1.686  65.843070
1.685  65.859226
1.684  65.984070
1.683  65.978717
1.682  66.015341
1.681  65.980356
1.680  66.091946
1.679  66.075535
1.678  66.159425
1.677  66.141554
1.676  66.231900
1.675  66.130593
1.674  66.286224
1.673  66.248993
1.672  66.315398
1.671  66.393383
1.670  66.420790
1.669  66.472037
1.668  66.473089
1.667  66.450604
1.666  66.546115
1.665  66.446821
1.664  66.621520
1.663  66.624073
1.662  66.709090
1.661  66.720495
1.660  66.846438
1.659  66.736282
1.658  66.783470
1.657  66.855174
1.656  66.945547
1.655  66.874981
1.654  67.032159
1.653  67.039107
1.652  67.087378
1.651  67.083569
1.650  67.106850
1.649  67.181155
1.648  67.218618
1.647  67.256959
1.646  67.311727
1.645  67.271867
1.644  67.428575
1.643  67.388051
1.642  67.463821
1.641  67.460436
1.640  67.624719
1.639  67.511154
1.638  67.650823
1.637  67.688437
1.636  67.715650
1.635  67.694717
1.634  67.808837
1.633  67.724075
1.632  67.913665
1.631  68.010816
1.630  67.918336
1.629  67.942824
1.628  67.978891
1.627  68.059168
1.626  68.008885
1.625  68.131379
1.624  68.144291
1.623  68.137186
1.622  68.197920
1.621  68.243555
1.620  68.351526
1.619  68.321270
1.618  68.357990
1.617  68.416469
1.616  68.441181
1.615  68.461893
1.614  68.527176
1.613  68.536104
1.612  68.555615
1.611  68.572349
1.610  68.633513
1.609  68.652970
1.608  68.614042
1.607  68.701545
1.606  68.758075
1.605  68.744118
1.604  68.836964
1.603  68.824847
1.602  68.870224
1.601  68.828781
1.600  68.924904
1.599  68.973043
1.598  68.926379
1.597  68.936073
1.596  68.943953
1.595  68.971603
1.594  69.041937
1.593  69.005976
1.592  69.079472
1.591  69.059909
1.590  69.181518
1.589  69.124066
1.588  69.233375
1.587  69.203818
1.586  69.180189
1.585  69.164435
1.584  69.203995
1.583  69.199667
1.582  69.231712
1.581  69.268065
1.580  69.329602
1.579  69.296141
1.578  69.318350
1.577  69.214080
1.576  69.264538
1.575  69.294451
1.574  69.320565
1.573  69.362121
1.572  69.349763
1.571  69.326890
1.570  69.398846
1.569  69.347268
1.568  69.329323
1.567  69.333788
1.566  69.337358
1.565  69.354979
1.564  69.328717
1.563  69.386101
1.562  69.450229
1.561  69.381773
1.560  69.436664
1.559  69.440806
1.558  69.410744
1.557  69.443912
1.556  69.451551
1.555  69.374186
1.554  69.375786
1.553  69.442965
1.552  69.453952
1.551  69.400999
1.550  69.380337
1.549  69.385916
1.548  69.410634
1.547  69.395109
1.546  69.344178
1.545  69.347859
1.544  69.372745
1.543  69.397711
1.542  69.346273
1.541  69.337952
1.540  69.312226
1.539  69.300176
1.538  69.310730
1.537  69.293172
1.536  69.255385
1.535  69.224360
1.534  69.213831
1.533  69.181867
1.532  69.199660
1.531  69.176912
1.530  69.168917
1.529  69.153234
1.528  69.097514
1.527  69.077126
1.526  69.097494
1.525  69.059274
1.524  69.008765
1.523  68.984478
1.522  68.939828
1.521  68.932620
1.520  68.913044
1.519  68.887621
1.518  68.873402
1.517  68.788889
1.516  68.767517
1.515  68.766506
1.514  68.723584
1.513  68.702446
1.512  68.708321
1.511  68.605868
1.510  68.576877
1.509  68.558197
1.508  68.499571
1.507  68.452766
1.506  68.406521
1.505  68.338572
1.504  68.344803
1.503  68.273672
1.502  68.164021
1.501  68.131473
1.500  68.074004
1.499  68.029398
1.498  68.000111
1.497  67.947766
1.496  67.863914
1.495  67.789397
1.494  67.722399
1.493  67.635479
1.492  67.538401
1.491  67.445965
1.490  67.358047
1.489  67.259649
1.488  67.110538
1.487  67.043110
1.486  67.044931
1.485  66.957268
1.484  66.865037
1.483  66.800803
1.482  66.678580
1.481  66.565306
1.480  66.505694
1.479  66.464855
1.478  66.378047
1.477  66.287703
1.476  66.152950
1.475  66.061891
1.474  66.016223
1.473  65.867617
1.472  65.789154
1.471  65.719354
1.470  65.643501
1.469  65.574391
1.468  65.485638
1.467  65.372428
1.466  65.229143
1.465  65.152360
1.464  65.084726
1.463  64.981892
1.462  64.912255
1.461  64.844293
1.460  64.760428
1.459  64.726009
1.458  64.647970
1.457  64.594133
1.456  64.506208
1.455  64.475263
1.454  64.346786
1.453  64.241152
1.452  64.164612
1.451  64.060678
1.450  63.934979
1.449  63.786696
1.448  63.558079
1.447  63.313831
1.446  62.977049
1.445  62.626588
1.444  62.284523
1.443  61.914475
1.442  61.443510
1.441  60.991572
1.440  60.537622
1.439  60.094631
1.438  59.709349
1.437  59.451685
1.436  59.341096
1.435  59.296154
1.434  59.431967
1.433  59.710465
1.432  60.080085
1.431  60.564845
1.430  61.089319
1.429  61.608660
1.428  62.156724
1.427  62.678267
1.426  63.056978
1.425  63.321644
1.424  63.460955
1.423  63.600796
1.422  63.509838
