Name: Rhyolite
Type: Rock
Class: Igneous
Subclass: Felsic
Particle Size: Whole Rock Chips
Sample No.: AP-961-149
Owner: United States Geological Survey, L. C. Rowan
Wavelength range: 0.405 - 14.05 um
Origin: Iberian Pyrite Belt, Spain

Description: Rhyolite, slightly altered





Measurement: Directional Hemispherical Reflectance
First Column: X
Second Column: Y
X Units: Wavelength (micrometers)
Y Units: Reflectance (percent)
First X Value: 14.05105
Last X Value: 0.40500
Number of X Values: 2530
Additional Information: rhy149a.txt

 14.051   3.5741
 14.013   3.3990
 13.975   3.3578
 13.938   3.2857
 13.900   3.6462
 13.863   3.6771
 13.826   3.6565
 13.790   3.6050
 13.753   3.6462
 13.717   3.3166
 13.680   3.0797
 13.644   3.0179
 13.609   3.1930
 13.573   3.2239
 13.538   3.4402
 13.502   3.5432
 13.467   3.7801
 13.432   3.8831
 13.398   3.8213
 13.363   3.6256
 13.329   3.5741
 13.295   3.4505
 13.261   3.4608
 13.227   3.4505
 13.193   3.7492
 13.160   3.9552
 13.126   4.1509
 13.093   4.2024
 13.060   4.2642
 13.027   4.1509
 12.995   4.0273
 12.962   3.8831
 12.930   3.8625
 12.898   3.7904
 12.866   4.0273
 12.834   4.1715
 12.802   4.3981
 12.771   4.5011
 12.739   4.5011
 12.708   4.3260
 12.677   4.2127
 12.646   4.0170
 12.616   3.8625
 12.585   3.6256
 12.554   3.5432
 12.524   3.6153
 12.494   3.7698
 12.464   3.7492
 12.434   3.7492
 12.404   3.6050
 12.375   3.3887
 12.345   2.8943
 12.316   2.6265
 12.287   2.4720
 12.258   2.4514
 12.229   2.3690
 12.200   2.4514
 12.171   2.5647
 12.143   2.7089
 12.115   2.7398
 12.086   2.8531
 12.058   2.9252
 12.030   3.0385
 12.002   2.9767
 11.975   3.0591
 11.947   3.0797
 11.920   3.1930
 11.892   3.2239
 11.865   3.2960
 11.838   3.3681
 11.811   3.4505
 11.784   3.5020
 11.757   3.5947
 11.731   3.6256
 11.704   3.7389
 11.678   3.7595
 11.652   3.8625
 11.626   3.8110
 11.600   3.7904
 11.574   3.8316
 11.548   3.9552
 11.522   3.8934
 11.497   3.9449
 11.471   4.0170
 11.446   4.1097
 11.421   4.0685
 11.396   4.1818
 11.371   4.2745
 11.346   4.4187
 11.321   4.4084
 11.297   4.4393
 11.272   4.4702
 11.248   4.4702
 11.223   4.3775
 11.199   4.4393
 11.175   4.5217
 11.151   4.5835
 11.127   4.5114
 11.103   4.6144
 11.079   4.6350
 11.056   4.7380
 11.032   4.8822
 11.009   4.9440
 10.985   4.8925
 10.962   4.9955
 10.939   4.9749
 10.916   4.9852
 10.893   5.0367
 10.870   5.1088
 10.848   5.1706
 10.825   5.2221
 10.802   5.0985
 10.780   5.0676
 10.758   5.1294
 10.735   5.2736
 10.713   5.2530
 10.691   5.3766
 10.669   5.4281
 10.647   5.4796
 10.625   5.4899
 10.604   5.6032
 10.582   5.5620
 10.560   5.6238
 10.539   5.7577
 10.518   5.9019
 10.496   5.9431
 10.475   6.0255
 10.454   6.0667
 10.433   6.2315
 10.412   6.3448
 10.391   6.5096
 10.370   6.5714
 10.350   6.7053
 10.329   6.8701
 10.309   7.1173
 10.288   7.2203
 10.268   7.4366
 10.247   7.7250
 10.227   7.9928
 10.207   8.1988
 10.187   8.4460
 10.167   8.6417
 10.147   8.9919
 10.127   9.3524
 10.108   9.6511
 10.088   9.8674
 10.068  10.1146
 10.049  10.2382
 10.029  10.5163
 10.010  10.7429
  9.991  10.9592
  9.972  11.1755
  9.952  11.3918
  9.933  11.7626
  9.914  12.0613
  9.895  12.0098
  9.877  11.8862
  9.858  11.7111
  9.839  11.4948
  9.821  11.1034
  9.802  10.8150
  9.783  10.6811
  9.765  10.7326
  9.747  10.9283
  9.728  11.3609
  9.710  11.9480
  9.692  12.7205
  9.674  13.3591
  9.656  13.7711
  9.638  14.0389
  9.620  14.3479
  9.602  14.3685
  9.585  14.3479
  9.567  14.2346
  9.549  14.0080
  9.532  13.6269
  9.514  13.2046
  9.497  12.8544
  9.479  12.6278
  9.462  12.4630
  9.445  12.6072
  9.428  12.8441
  9.411  13.1531
  9.394  13.5033
  9.377  13.9771
  9.360  14.3170
  9.343  14.5539
  9.326  14.6981
  9.309  14.8526
  9.293  14.9659
  9.276  15.1101
  9.259  15.0689
  9.243  15.0586
  9.226  15.0792
  9.210  15.0689
  9.194  14.9453
  9.178  14.8217
  9.161  14.6363
  9.145  14.4612
  9.129  14.2037
  9.113  14.0492
  9.097  13.7299
  9.081  13.5033
  9.065  13.2767
  9.049  13.1943
  9.034  13.0707
  9.018  12.9986
  9.002  12.9162
  8.987  12.9574
  8.971  12.9677
  8.956  12.9986
  8.940  13.1531
  8.925  13.2458
  8.909  13.1943
  8.894  13.3694
  8.879  13.5651
  8.864  13.7093
  8.849  13.8123
  8.834  13.8844
  8.819  13.8535
  8.804  13.9565
  8.789  13.9668
  8.774  14.0080
  8.759  14.0492
  8.744  14.1522
  8.730  14.1522
  8.715  14.2037
  8.700  14.1831
  8.686  14.2037
  8.671  14.0595
  8.657  13.7299
  8.642  13.2458
  8.628  12.7205
  8.614  12.4321
  8.599  12.8441
  8.585  13.4312
  8.571  13.9977
  8.557  14.5024
  8.543  14.7702
  8.529  14.8011
  8.515  14.9659
  8.501  15.0792
  8.487  15.2852
  8.473  15.4912
  8.459  15.6766
  8.445  15.7693
  8.431  15.9238
  8.418  16.0783
  8.404  16.2328
  8.391  16.3049
  8.377  16.4594
  8.363  16.6242
  8.350  16.6654
  8.337  16.5418
  8.323  16.4388
  8.310  16.2946
  8.297  16.2225
  8.283  16.0783
  8.270  15.9856
  8.257  15.8929
  8.244  15.8208
  8.231  15.6457
  8.218  15.4191
  8.205  15.1822
  8.192  14.8835
  8.179  14.4200
  8.166  13.8844
  8.153  13.2664
  8.140  12.5660
  8.128  11.7420
  8.115  10.9489
  8.102  10.1661
  8.090   9.4760
  8.077   8.8168
  8.064   8.1988
  8.052   7.6117
  8.039   7.1070
  8.027   6.6126
  8.015   6.1903
  8.002   5.7783
  7.990   5.4384
  7.978   5.0676
  7.965   4.7689
  7.953   4.4187
  7.941   4.0685
  7.929   3.7183
  7.917   3.4711
  7.905   3.2136
  7.893   3.0591
  7.881   2.8531
  7.869   2.6986
  7.857   2.4926
  7.845   2.3690
  7.833   2.2454
  7.821   2.1424
  7.809   1.9879
  7.798   1.8540
  7.786   1.8437
  7.774   1.8849
  7.763   1.8128
  7.751   1.7922
  7.739   1.7510
  7.728   1.6686
  7.716   1.6068
  7.705   1.5862
  7.694   1.4935
  7.682   1.4626
  7.671   1.4214
  7.659   1.4523
  7.648   1.4111
  7.637   1.3390
  7.626   1.2772
  7.614   1.3081
  7.603   1.2463
  7.592   1.2051
  7.581   1.2051
  7.570   1.1948
  7.559   1.1639
  7.548   1.2360
  7.537   1.2051
  7.526   1.2257
  7.515   1.1639
  7.504   1.1433
  7.493   1.0815
  7.483   1.0712
  7.472   1.0815
  7.461   1.1433
  7.450   1.1330
  7.440   1.0609
  7.429   1.0197
  7.418   1.0609
  7.408   1.0403
  7.397   1.0609
  7.387   1.1227
  7.376   1.1227
  7.366   1.0609
  7.355   1.0712
  7.345   1.0403
  7.334   1.0712
  7.324   1.0815
  7.314   1.0300
  7.303   1.0094
  7.293   1.0403
  7.283   1.0300
  7.273   1.0815
  7.263   1.0815
  7.252   1.1433
  7.242   1.1639
  7.232   1.1330
  7.222   1.1742
  7.212   1.1742
  7.202   1.0712
  7.192   1.0712
  7.182   1.0815
  7.172   1.1227
  7.162   1.1124
  7.152   1.1330
  7.143   1.1536
  7.133   1.2360
  7.123   1.2772
  7.113   1.2875
  7.103   1.2360
  7.094   1.2463
  7.084   1.3184
  7.074   1.3596
  7.065   1.3184
  7.055   1.2669
  7.046   1.1948
  7.036   1.1845
  7.026   1.2566
  7.017   1.3493
  7.007   1.2875
  6.998   1.2875
  6.989   1.2772
  6.979   1.2772
  6.970   1.2875
  6.960   1.3596
  6.951   1.2978
  6.942   1.2875
  6.932   1.3596
  6.923   1.3699
  6.914   1.3287
  6.905   1.4111
  6.896   1.4008
  6.886   1.3493
  6.877   1.3390
  6.868   1.4111
  6.859   1.4111
  6.850   1.4523
  6.841   1.4420
  6.832   1.4111
  6.823   1.3699
  6.814   1.4008
  6.805   1.4008
  6.796   1.4317
  6.787   1.4214
  6.778   1.4214
  6.770   1.4523
  6.761   1.4626
  6.752   1.4420
  6.743   1.5038
  6.734   1.5244
  6.726   1.5038
  6.717   1.4111
  6.708   1.4317
  6.700   1.4832
  6.691   1.4935
  6.682   1.5038
  6.674   1.5759
  6.665   1.5965
  6.657   1.6068
  6.648   1.5862
  6.640   1.5553
  6.631   1.5244
  6.623   1.5244
  6.614   1.5347
  6.606   1.5965
  6.597   1.5965
  6.589   1.5965
  6.581   1.6068
  6.572   1.6377
  6.564   1.5965
  6.556   1.5656
  6.547   1.5656
  6.539   1.5759
  6.531   1.5450
  6.523   1.6068
  6.514   1.6377
  6.506   1.6480
  6.498   1.6789
  6.490   1.7201
  6.482   1.7098
  6.474   1.6892
  6.466   1.6995
  6.458   1.7613
  6.450   1.7819
  6.442   1.8025
  6.434   1.7716
  6.426   1.8025
  6.418   1.8128
  6.410   1.8540
  6.402   1.8746
  6.394   1.8643
  6.386   1.8334
  6.378   1.7819
  6.370   1.7407
  6.363   1.7613
  6.355   1.7716
  6.347   1.8128
  6.339   1.8025
  6.332   1.8025
  6.324   1.8231
  6.316   1.8334
  6.308   1.8437
  6.301   1.8128
  6.293   1.7407
  6.286   1.7304
  6.278   1.6892
  6.270   1.6377
  6.263   1.5965
  6.255   1.6583
  6.248   1.6480
  6.240   1.6377
  6.233   1.6480
  6.225   1.6583
  6.218   1.6583
  6.210   1.6789
  6.203   1.6480
  6.195   1.6274
  6.188   1.6171
  6.181   1.6686
  6.173   1.6892
  6.166   1.7098
  6.159   1.7098
  6.151   1.7304
  6.144   1.7201
  6.137   1.7304
  6.130   1.7613
  6.122   1.8128
  6.115   1.8128
  6.108   1.8231
  6.101   1.8849
  6.094   1.9364
  6.086   1.9261
  6.079   1.8849
  6.072   1.8540
  6.065   1.8437
  6.058   1.8643
  6.051   1.9261
  6.044   1.9261
  6.037   1.9261
  6.030   1.8952
  6.023   1.8849
  6.016   1.9261
  6.009   1.9364
  6.002   1.9467
  5.995   1.9364
  5.988   1.8952
  5.981   1.9055
  5.974   1.8952
  5.967   1.8952
  5.960   1.9055
  5.954   1.9364
  5.947   1.9570
  5.940   1.9673
  5.933   1.9158
  5.926   1.9055
  5.920   1.9467
  5.913   1.9570
  5.906   1.9261
  5.899   1.9879
  5.893   2.0703
  5.886   2.0600
  5.879   2.0394
  5.873   2.0909
  5.866   2.0806
  5.859   2.0909
  5.853   2.1115
  5.846   2.1218
  5.840   2.1836
  5.833   2.2557
  5.827   2.2145
  5.820   2.2145
  5.813   2.2454
  5.807   2.2351
  5.800   2.2145
  5.794   2.3072
  5.788   2.3278
  5.781   2.2969
  5.775   2.2969
  5.768   2.3072
  5.762   2.2557
  5.755   2.3175
  5.749   2.3381
  5.743   2.3072
  5.736   2.3381
  5.730   2.3793
  5.724   2.3896
  5.717   2.4102
  5.711   2.3690
  5.705   2.3484
  5.698   2.3381
  5.692   2.3793
  5.686   2.4514
  5.680   2.4617
  5.674   2.4308
  5.667   2.4411
  5.661   2.4308
  5.655   2.3999
  5.649   2.3587
  5.643   2.3793
  5.637   2.3896
  5.630   2.3587
  5.624   2.3484
  5.618   2.3381
  5.612   2.3175
  5.606   2.3175
  5.600   2.3484
  5.594   2.3999
  5.588   2.3896
  5.582   2.3278
  5.576   2.2660
  5.570   2.2969
  5.564   2.3175
  5.558   2.3484
  5.552   2.3690
  5.546   2.4205
  5.540   2.4617
  5.534   2.4308
  5.528   2.4308
  5.523   2.4823
  5.517   2.4926
  5.511   2.5235
  5.505   2.5441
  5.499   2.5647
  5.493   2.6162
  5.487   2.6471
  5.482   2.6574
  5.476   2.7192
  5.470   2.7604
  5.464   2.8016
  5.459   2.8119
  5.453   2.8325
  5.447   2.7913
  5.441   2.7810
  5.436   2.8119
  5.430   2.8222
  5.424   2.8222
  5.419   2.8222
  5.413   2.7913
  5.407   2.7501
  5.402   2.7501
  5.396   2.7604
  5.390   2.6986
  5.385   2.6368
  5.379   2.6368
  5.374   2.6780
  5.368   2.6574
  5.363   2.6574
  5.357   2.6471
  5.352   2.6162
  5.346   2.5853
  5.341   2.5544
  5.335   2.5441
  5.330   2.5956
  5.324   2.5956
  5.319   2.6162
  5.313   2.6368
  5.308   2.6986
  5.302   2.6677
  5.297   2.6574
  5.291   2.6780
  5.286   2.6471
  5.281   2.6574
  5.275   2.7089
  5.270   2.7295
  5.265   2.7707
  5.259   2.8428
  5.254   2.8634
  5.249   2.9252
  5.243   2.9767
  5.238   2.9767
  5.233   2.9870
  5.227   3.0591
  5.222   3.1106
  5.217   3.1312
  5.212   3.1312
  5.206   3.1930
  5.201   3.2857
  5.196   3.3269
  5.191   3.2651
  5.186   3.2445
  5.180   3.2857
  5.175   3.3578
  5.170   3.3681
  5.165   3.3475
  5.160   3.3681
  5.155   3.3475
  5.150   3.2960
  5.145   3.2754
  5.139   3.2960
  5.134   3.3578
  5.129   3.3784
  5.124   3.3887
  5.119   3.4299
  5.114   3.4299
  5.109   3.4299
  5.104   3.4505
  5.099   3.4711
  5.094   3.4917
  5.089   3.4711
  5.084   3.4402
  5.079   3.4402
  5.074   3.4505
  5.069   3.4196
  5.064   3.3887
  5.059   3.4093
  5.054   3.4505
  5.049   3.4814
  5.044   3.4711
  5.040   3.5123
  5.035   3.5020
  5.030   3.4402
  5.025   3.4505
  5.020   3.5123
  5.015   3.5329
  5.010   3.5226
  5.005   3.5329
  5.001   3.4917
  4.996   3.4814
  4.991   3.5432
  4.986   3.5432
  4.981   3.5844
  4.977   3.6874
  4.972   3.7492
  4.967   3.8625
  4.962   3.9655
  4.958   3.9655
  4.953   4.0170
  4.948   4.0994
  4.943   4.1612
  4.939   4.2127
  4.934   4.2642
  4.929   4.2436
  4.925   4.2642
  4.920   4.3363
  4.915   4.3878
  4.911   4.4805
  4.906   4.5629
  4.901   4.6144
  4.897   4.6453
  4.892   4.7483
  4.888   4.8822
  4.883   4.9955
  4.878   5.0882
  4.874   5.2427
  4.869   5.3663
  4.865   5.3972
  4.860   5.4075
  4.856   5.4693
  4.851   5.5929
  4.846   5.6959
  4.842   5.7783
  4.837   5.8710
  4.833   5.9019
  4.828   5.9637
  4.824   5.9740
  4.819   5.9843
  4.815   6.0049
  4.810   6.0358
  4.806   6.0152
  4.802   5.9843
  4.797   5.9843
  4.793   5.9431
  4.788   5.9431
  4.784   5.9534
  4.779   5.9431
  4.775   5.9431
  4.771   5.9431
  4.766   6.0049
  4.762   6.0667
  4.758   6.1388
  4.753   6.1903
  4.749   6.2315
  4.744   6.3345
  4.740   6.4272
  4.736   6.4272
  4.731   6.4375
  4.727   6.4581
  4.723   6.4581
  4.719   6.4890
  4.714   6.5611
  4.710   6.6126
  4.706   6.6847
  4.701   6.7362
  4.697   6.7568
  4.693   6.7671
  4.689   6.7053
  4.684   6.6950
  4.680   6.7568
  4.676   6.8289
  4.672   6.8392
  4.668   6.9010
  4.663   6.9834
  4.659   7.0349
  4.655   7.1070
  4.651   7.1482
  4.647   7.1791
  4.643   7.2512
  4.638   7.3130
  4.634   7.3542
  4.630   7.4675
  4.626   7.5705
  4.622   7.6838
  4.618   7.8177
  4.614   7.9001
  4.610   7.9516
  4.605   8.0649
  4.601   8.1267
  4.597   8.1370
  4.593   8.1679
  4.589   8.2194
  4.585   8.2297
  4.581   8.3018
  4.577   8.4048
  4.573   8.4460
  4.569   8.4048
  4.565   8.4666
  4.561   8.5593
  4.557   8.6005
  4.553   8.6108
  4.549   8.6520
  4.545   8.6623
  4.541   8.6623
  4.537   8.6726
  4.533   8.6520
  4.529   8.6829
  4.525   8.7344
  4.521   8.7344
  4.517   8.6829
  4.513   8.6829
  4.509   8.7241
  4.505   8.7035
  4.502   8.6108
  4.498   8.5490
  4.494   8.5696
  4.490   8.6108
  4.486   8.6211
  4.482   8.5902
  4.478   8.6211
  4.474   8.6211
  4.470   8.6314
  4.467   8.7138
  4.463   8.7859
  4.459   8.8271
  4.455   8.8683
  4.451   8.9919
  4.447   9.0640
  4.444   9.0331
  4.440   9.1567
  4.436   9.2700
  4.432   9.2700
  4.428   9.3215
  4.425   9.3524
  4.421   9.4039
  4.417   9.5069
  4.413   9.5481
  4.410   9.6202
  4.406   9.7232
  4.402   9.8571
  4.398   9.9292
  4.395  10.0322
  4.391  10.0940
  4.387  10.1455
  4.384  10.2485
  4.380  10.3309
  4.376  10.3824
  4.372  10.5060
  4.369  10.5987
  4.365  10.6605
  4.361  10.7738
  4.358  10.8562
  4.354  10.9592
  4.350  11.0416
  4.347  11.1034
  4.343  11.2064
  4.340  11.2682
  4.336  11.2579
  4.332  11.3300
  4.329  11.4124
  4.325  11.5051
  4.321  11.5772
  4.318  11.5978
  4.314  11.6390
  4.311  11.5978
  4.307  11.5978
  4.304  11.6802
  4.300  11.7523
  4.296  11.7523
  4.293  11.7420
  4.289  11.7729
  4.286  11.8347
  4.282  11.8965
  4.279  11.9377
  4.275  11.8553
  4.272  11.8553
  4.268  11.8965
  4.265  11.9274
  4.261  11.9274
  4.258  12.0304
  4.254  12.1643
  4.251  12.2570
  4.247  12.3909
  4.244  12.3909
  4.240  12.3291
  4.237  12.4321
  4.233  12.4733
  4.230  12.5351
  4.226  12.5454
  4.223  12.5763
  4.219  12.6484
  4.216  12.6587
  4.213  12.6175
  4.209  12.6690
  4.206  12.7514
  4.202  12.8441
  4.199  12.8441
  4.196  12.7514
  4.192  12.7926
  4.189  12.9162
  4.185  12.9368
  4.182  12.9162
  4.179  12.8853
  4.175  12.9265
  4.172  12.9368
  4.169  13.0089
  4.165  13.0913
  4.162  13.1428
  4.159  13.1634
  4.155  13.2149
  4.152  13.2149
  4.149  13.2252
  4.145  13.2767
  4.142  13.3076
  4.139  13.2973
  4.135  13.2973
  4.132  13.3282
  4.129  13.3694
  4.126  13.3591
  4.122  13.4003
  4.119  13.4312
  4.116  13.5239
  4.112  13.5651
  4.109  13.5239
  4.106  13.5136
  4.103  13.5239
  4.099  13.5342
  4.096  13.5754
  4.093  13.6784
  4.090  13.7814
  4.086  13.7402
  4.083  13.6887
  4.080  13.6681
  4.077  13.6990
  4.074  13.7299
  4.070  13.7196
  4.067  13.6990
  4.064  13.8020
  4.061  13.8226
  4.058  13.8226
  4.055  13.8123
  4.051  13.7711
  4.048  13.7608
  4.045  13.7917
  4.042  13.7196
  4.039  13.6784
  4.036  13.7299
  4.032  13.8020
  4.029  13.8329
  4.026  13.8226
  4.023  13.8226
  4.020  13.8432
  4.017  13.8123
  4.014  13.7402
  4.011  13.7196
  4.008  13.7711
  4.004  13.8020
  4.001  13.7814
  3.998  13.7608
  3.995  13.7505
  3.992  13.7814
  3.989  13.8123
  3.986  13.8329
  3.983  13.8432
  3.980  13.7711
  3.977  13.8020
  3.974  13.8432
  3.971  13.8123
  3.968  13.7917
  3.965  13.8226
  3.962  13.8432
  3.959  13.9050
  3.956  13.9565
  3.953  13.9977
  3.950  13.9565
  3.947  13.9050
  3.944  13.9153
  3.941  13.9359
  3.938  13.9874
  3.935  14.0698
  3.932  14.0080
  3.929  14.0286
  3.926  14.0904
  3.923  14.0904
  3.920  14.0904
  3.917  14.1213
  3.914  14.1316
  3.911  14.0904
  3.908  14.0904
  3.905  14.1007
  3.902  14.0904
  3.899  14.0595
  3.896  14.0389
  3.893  14.1110
  3.890  14.1316
  3.887  14.0904
  3.884  14.0801
  3.882  14.0801
  3.879  14.0492
  3.876  14.0286
  3.873  14.0183
  3.870  14.0389
  3.867  14.0183
  3.864  13.9977
  3.861  13.9668
  3.858  13.9977
  3.856  14.0080
  3.853  14.0492
  3.850  14.0080
  3.847  13.9874
  3.844  13.8741
  3.841  13.8123
  3.838  13.8329
  3.836  13.8638
  3.833  13.9462
  3.830  13.9874
  3.827  13.9256
  3.824  13.9050
  3.822  13.9153
  3.819  13.9668
  3.816  13.9668
  3.813  13.9771
  3.810  13.9359
  3.807  13.9359
  3.805  14.0080
  3.802  13.9977
  3.799  13.9256
  3.796  13.9977
  3.794  14.0286
  3.791  13.9153
  3.788  13.8432
  3.785  13.8535
  3.782  13.8741
  3.780  13.8741
  3.777  13.8741
  3.774  13.8329
  3.771  13.7093
  3.769  13.6887
  3.766  13.6578
  3.763  13.6475
  3.761  13.6681
  3.758  13.7505
  3.755  13.6990
  3.752  13.6372
  3.750  13.5445
  3.747  13.5754
  3.744  13.5754
  3.742  13.4930
  3.739  13.4415
  3.736  13.4930
  3.733  13.4518
  3.731  13.3900
  3.728  13.4930
  3.725  13.5239
  3.723  13.4724
  3.720  13.4724
  3.717  13.4518
  3.715  13.3900
  3.712  13.3282
  3.709  13.3385
  3.707  13.3179
  3.704  13.2870
  3.702  13.2355
  3.699  13.3179
  3.696  13.3179
  3.694  13.2046
  3.691  13.1531
  3.688  13.1943
  3.686  13.1943
  3.683  13.2870
  3.680  13.2046
  3.678  13.1119
  3.675  13.1325
  3.673  13.1943
  3.670  13.2149
  3.667  13.1119
  3.665  12.9986
  3.662  13.0913
  3.660  13.1531
  3.657  13.1119
  3.655  13.0604
  3.652  12.9677
  3.649  12.9162
  3.647  12.8853
  3.644  12.7720
  3.642  12.7823
  3.639  12.8441
  3.637  12.9368
  3.634  12.9574
  3.632  12.8853
  3.629  12.7720
  3.626  12.6896
  3.624  12.6278
  3.621  12.6072
  3.619  12.6175
  3.616  12.6690
  3.614  12.6278
  3.611  12.5660
  3.609  12.4527
  3.606  12.3703
  3.604  12.4012
  3.601  12.4321
  3.599  12.4321
  3.596  12.4218
  3.594  12.3188
  3.591  12.3497
  3.589  12.2879
  3.586  12.2055
  3.584  12.1025
