Name: Basalt
Type: Rock
Class: Igneous
Subclass: Mafic
Particle Size: Whole rock chips
Sample No.: Me13
Owner: Lawrence Rowan, USGS Reston
Wavelength range: 0.40 - 14.05 um
Origin: Abu Matar, Middle East

Description: Basalt bowl base, cut surface





Measurement: Directional Hemispherical Reflectance
First Column: X
Second Column: Y
X Units: Wavelength (micrometers)
Y Units: Reflectance (percent)
First X Value: 14.05105
Last X Value: 0.40000
Number of X Values: 2231
Additional Information: me13ba.txt

 14.051  11.6390
 14.013  11.5566
 13.975  11.8244
 13.938  11.7317
 13.900  11.7111
 13.863  11.7214
 13.826  11.8244
 13.790  11.8965
 13.753  12.0098
 13.717  11.8965
 13.680  11.8244
 13.644  11.7729
 13.609  11.9377
 13.573  11.9274
 13.538  12.0304
 13.502  12.0201
 13.467  12.0098
 13.432  12.0098
 13.398  12.1128
 13.363  12.0510
 13.329  12.0510
 13.295  12.0510
 13.261  12.0613
 13.227  11.9686
 13.193  12.0304
 13.160  12.0098
 13.126  12.0304
 13.093  11.9274
 13.060  12.0304
 13.027  12.0304
 12.995  12.1128
 12.962  12.0922
 12.930  12.0819
 12.898  12.0304
 12.866  12.1437
 12.834  12.1231
 12.802  12.1231
 12.771  12.0510
 12.739  12.1540
 12.708  12.0922
 12.677  12.0819
 12.646  12.0098
 12.616  12.0922
 12.585  12.1540
 12.554  12.1746
 12.524  12.1128
 12.494  12.1231
 12.464  12.1025
 12.434  12.2158
 12.404  12.2158
 12.375  12.3188
 12.345  12.3497
 12.316  12.3703
 12.287  12.3291
 12.258  12.4836
 12.229  12.5969
 12.200  12.6690
 12.171  12.6278
 12.143  12.6999
 12.115  12.7102
 12.086  12.7514
 12.058  12.7205
 12.030  12.9162
 12.002  12.9471
 11.975  12.9265
 11.947  12.8544
 11.920  12.9368
 11.892  13.0192
 11.865  13.1737
 11.838  13.1634
 11.811  13.1737
 11.784  13.1943
 11.757  13.3179
 11.731  13.3591
 11.704  13.4003
 11.678  13.4312
 11.652  13.6475
 11.626  13.6990
 11.600  13.7711
 11.574  13.8020
 11.548  13.8535
 11.522  13.8741
 11.497  13.9565
 11.471  13.8947
 11.446  13.9359
 11.421  14.0080
 11.396  14.1625
 11.371  14.2449
 11.346  14.3273
 11.321  14.3994
 11.297  14.4818
 11.272  14.4921
 11.248  14.5848
 11.223  14.5745
 11.199  14.6260
 11.175  14.6672
 11.151  14.6981
 11.127  14.6260
 11.103  14.7187
 11.079  14.7187
 11.056  14.8320
 11.032  14.9350
 11.009  14.9968
 10.985  14.9556
 10.962  15.0174
 10.939  15.0071
 10.916  15.1101
 10.893  15.1307
 10.870  15.2131
 10.848  15.2234
 10.825  15.1925
 10.802  15.1204
 10.780  15.1616
 10.758  15.1719
 10.735  15.1822
 10.713  15.1204
 10.691  15.1204
 10.669  15.1616
 10.647  15.2955
 10.625  15.2749
 10.604  15.2440
 10.582  15.1513
 10.560  15.1410
 10.539  15.0586
 10.518  15.0380
 10.496  14.9556
 10.475  15.0174
 10.454  15.0483
 10.433  15.0483
 10.412  14.9865
 10.391  15.0174
 10.370  14.9968
 10.350  14.9865
 10.329  14.8938
 10.309  14.9144
 10.288  14.8938
 10.268  14.8732
 10.247  14.8217
 10.227  14.8835
 10.207  14.8526
 10.187  14.8835
 10.167  14.9453
 10.147  14.9968
 10.127  14.8629
 10.108  14.8835
 10.088  14.9247
 10.068  15.0071
 10.049  15.0174
 10.029  15.0277
 10.010  15.0586
  9.991  15.1307
  9.972  15.0998
  9.952  15.2337
  9.933  15.1513
  9.914  15.1719
  9.895  15.2852
  9.877  15.3779
  9.858  15.2955
  9.839  15.2852
  9.821  15.3058
  9.802  15.3058
  9.783  15.2131
  9.765  15.2543
  9.747  15.2955
  9.728  15.3367
  9.710  15.3367
  9.692  15.3367
  9.674  15.3573
  9.656  15.3882
  9.638  15.3264
  9.620  15.4500
  9.602  15.4706
  9.585  15.4397
  9.567  15.4706
  9.549  15.5221
  9.532  15.3058
  9.514  15.2749
  9.497  15.3882
  9.479  15.4706
  9.462  15.3470
  9.445  15.3779
  9.428  15.2955
  9.411  15.2440
  9.394  15.2440
  9.377  15.2337
  9.360  15.1719
  9.343  15.1513
  9.326  15.0586
  9.309  15.0380
  9.293  15.0380
  9.276  15.0071
  9.259  14.9144
  9.243  14.9350
  9.226  14.8423
  9.210  14.8526
  9.194  14.9144
  9.178  15.0071
  9.161  14.9453
  9.145  14.8835
  9.129  14.8423
  9.113  14.9350
  9.097  14.9453
  9.081  15.0071
  9.065  15.0380
  9.049  15.0380
  9.034  15.0174
  9.018  15.0792
  9.002  15.0998
  8.987  15.2440
  8.971  15.1513
  8.956  15.0792
  8.940  15.0689
  8.925  15.1307
  8.909  15.0792
  8.894  15.1719
  8.879  15.1719
  8.864  15.2028
  8.849  15.1616
  8.834  15.1410
  8.819  15.0998
  8.804  15.0277
  8.789  14.9041
  8.774  14.9144
  8.759  14.8938
  8.744  14.8423
  8.730  14.6878
  8.715  14.6569
  8.700  14.7084
  8.686  14.6054
  8.671  14.4818
  8.657  14.5230
  8.642  14.4921
  8.628  14.5230
  8.614  14.5539
  8.599  14.4818
  8.585  14.3994
  8.571  14.4406
  8.557  14.2964
  8.543  14.1934
  8.529  14.2037
  8.515  14.2655
  8.501  14.2140
  8.487  14.2037
  8.473  14.1934
  8.459  14.2861
  8.445  14.2037
  8.431  14.1831
  8.418  14.1625
  8.404  14.1213
  8.391  14.0286
  8.377  14.0492
  8.363  13.9256
  8.350  13.8329
  8.337  13.8329
  8.323  13.7814
  8.310  13.6681
  8.297  13.5239
  8.283  13.3385
  8.270  13.2355
  8.257  13.0604
  8.244  12.9059
  8.231  12.7102
  8.218  12.5557
  8.205  12.3806
  8.192  12.1849
  8.179  12.0098
  8.166  11.9068
  8.153  11.7729
  8.140  11.6493
  8.128  11.5154
  8.115  11.4742
  8.102  11.3815
  8.090  11.2991
  8.077  11.1961
  8.064  11.1858
  8.052  11.1858
  8.039  11.1755
  8.027  11.0931
  8.015  11.0416
  8.002  10.9695
  7.990  10.9386
  7.978  10.8871
  7.965  10.8974
  7.953  10.8562
  7.941  10.8871
  7.929  10.8871
  7.917  10.8562
  7.905  10.8150
  7.893  10.8253
  7.881  10.8047
  7.869  10.8150
  7.857  10.8047
  7.845  10.8768
  7.833  10.8665
  7.821  10.8356
  7.809  10.7944
  7.798  10.7944
  7.786  10.8356
  7.774  10.9180
  7.763  10.8562
  7.751  10.9077
  7.739  10.9180
  7.728  10.8768
  7.716  10.8253
  7.705  10.8253
  7.694  10.7944
  7.682  10.7944
  7.671  10.7944
  7.659  10.8974
  7.648  10.9386
  7.637  10.9592
  7.626  10.9695
  7.614  10.9489
  7.603  10.9386
  7.592  10.9489
  7.581  10.9386
  7.570  10.9798
  7.559  10.9798
  7.548  10.9901
  7.537  11.0004
  7.526  10.9798
  7.515  10.9283
  7.504  10.9283
  7.493  10.8871
  7.483  10.8871
  7.472  10.8871
  7.461  10.9283
  7.450  10.9386
  7.440  11.0004
  7.429  11.0313
  7.418  11.0107
  7.408  11.0107
  7.397  11.0416
  7.387  11.0519
  7.376  11.0519
  7.366  11.0313
  7.355  11.0004
  7.345  10.9695
  7.334  11.0313
  7.324  11.0519
  7.314  11.0210
  7.303  11.0004
  7.293  11.0725
  7.283  11.1240
  7.273  11.0931
  7.263  11.0210
  7.252  11.0210
  7.242  11.0004
  7.232  11.0931
  7.222  11.0725
  7.212  11.0519
  7.202  11.0519
  7.192  11.0828
  7.182  11.1137
  7.172  11.0725
  7.162  10.9901
  7.152  11.0107
  7.143  10.9901
  7.133  11.0622
  7.123  11.1240
  7.113  11.1549
  7.103  11.1858
  7.094  11.2064
  7.084  11.2064
  7.074  11.1961
  7.065  11.1343
  7.055  11.1549
  7.046  11.1446
  7.036  11.1549
  7.026  11.1446
  7.017  11.1446
  7.007  11.1446
  6.998  11.1961
  6.989  11.2270
  6.979  11.2682
  6.970  11.2270
  6.960  11.1652
  6.951  11.1549
  6.942  11.2579
  6.932  11.2682
  6.923  11.2373
  6.914  11.2579
  6.905  11.2682
  6.896  11.2785
  6.886  11.2476
  6.877  11.1858
  6.868  11.1755
  6.859  11.1961
  6.850  11.2373
  6.841  11.2476
  6.832  11.2167
  6.823  11.1858
  6.814  11.2373
  6.805  11.2579
  6.796  11.2991
  6.787  11.2888
  6.778  11.3506
  6.770  11.3403
  6.761  11.3506
  6.752  11.3712
  6.743  11.3815
  6.734  11.3197
  6.726  11.2991
  6.717  11.3506
  6.708  11.4227
  6.700  11.4124
  6.691  11.4536
  6.682  11.4433
  6.674  11.4433
  6.665  11.4639
  6.657  11.4536
  6.648  11.4021
  6.640  11.4124
  6.631  11.4845
  6.623  11.5154
  6.614  11.4536
  6.606  11.4124
  6.597  11.4124
  6.589  11.4433
  6.581  11.4330
  6.572  11.3918
  6.564  11.4330
  6.556  11.5051
  6.547  11.4948
  6.539  11.5154
  6.531  11.4948
  6.523  11.4330
  6.514  11.4433
  6.506  11.4639
  6.498  11.4330
  6.490  11.4845
  6.482  11.4948
  6.474  11.4948
  6.466  11.4845
  6.458  11.5154
  6.450  11.5051
  6.442  11.4948
  6.434  11.4330
  6.426  11.4536
  6.418  11.4330
  6.410  11.4124
  6.402  11.4330
  6.394  11.4536
  6.386  11.4433
  6.378  11.4021
  6.370  11.3712
  6.363  11.4639
  6.355  11.4536
  6.347  11.4021
  6.339  11.4330
  6.332  11.4639
  6.324  11.4021
  6.316  11.3712
  6.308  11.3918
  6.301  11.4433
  6.293  11.4536
  6.286  11.4124
  6.278  11.3815
  6.270  11.4124
  6.263  11.4021
  6.255  11.3918
  6.248  11.4227
  6.240  11.4639
  6.233  11.4433
  6.225  11.4227
  6.218  11.3506
  6.210  11.3094
  6.203  11.2476
  6.195  11.2373
  6.188  11.2682
  6.181  11.3609
  6.173  11.3815
  6.166  11.3197
  6.159  11.2373
  6.151  11.2373
  6.144  11.2064
  6.137  11.2064
  6.130  11.2167
  6.122  11.2167
  6.115  11.2476
  6.108  11.3094
  6.101  11.3094
  6.094  11.2682
  6.086  11.2373
  6.079  11.1961
  6.072  11.2270
  6.065  11.3300
  6.058  11.3300
  6.051  11.2064
  6.044  11.2270
  6.037  11.3197
  6.030  11.3197
  6.023  11.3094
  6.016  11.2785
  6.009  11.2991
  6.002  11.2888
  5.995  11.2579
  5.988  11.2991
  5.981  11.3300
  5.974  11.2991
  5.967  11.2579
  5.960  11.2785
  5.954  11.2476
  5.947  11.2064
  5.940  11.1652
  5.933  11.1137
  5.926  11.1961
  5.920  11.2579
  5.913  11.2682
  5.906  11.2579
  5.899  11.2682
  5.893  11.2888
  5.886  11.2991
  5.879  11.2991
  5.873  11.4639
  5.866  11.4433
  5.859  11.3918
  5.853  11.3815
  5.846  11.4330
  5.840  11.4845
  5.833  11.4845
  5.827  11.4227
  5.820  11.4845
  5.813  11.5875
  5.807  11.5875
  5.800  11.5463
  5.794  11.5978
  5.788  11.5978
  5.781  11.6081
  5.775  11.5978
  5.768  11.5978
  5.762  11.6287
  5.755  11.6596
  5.749  11.6596
  5.743  11.7626
  5.736  11.7729
  5.730  11.7214
  5.724  11.7214
  5.717  11.7317
  5.711  11.7008
  5.705  11.7523
  5.698  11.8141
  5.692  11.8141
  5.686  11.8038
  5.680  11.8244
  5.674  11.8450
  5.667  11.8759
  5.661  11.8450
  5.655  11.8450
  5.649  11.8862
  5.643  11.9171
  5.637  11.9686
  5.630  11.9789
  5.624  11.9686
  5.618  11.9583
  5.612  11.8965
  5.606  11.8759
  5.600  11.9171
  5.594  11.9583
  5.588  11.9892
  5.582  11.9892
  5.576  11.9480
  5.570  11.9995
  5.564  11.9789
  5.558  11.9583
  5.552  12.0407
  5.546  12.0613
  5.540  12.0201
  5.534  12.0201
  5.528  12.0510
  5.523  12.0819
  5.517  12.0613
  5.511  12.0613
  5.505  12.1128
  5.499  12.1437
  5.493  12.1437
  5.487  12.1437
  5.482  12.1231
  5.476  12.1231
  5.470  12.1231
  5.464  12.1746
  5.459  12.1849
  5.453  12.2055
  5.447  12.2055
  5.441  12.1952
  5.436  12.2364
  5.430  12.2879
  5.424  12.2467
  5.419  12.2673
  5.413  12.3188
  5.407  12.2879
  5.402  12.2570
  5.396  12.2673
  5.390  12.2570
  5.385  12.2982
  5.379  12.3291
  5.374  12.3394
  5.368  12.3497
  5.363  12.3497
  5.357  12.3600
  5.352  12.3394
  5.346  12.3703
  5.341  12.4424
  5.335  12.4321
  5.330  12.3909
  5.324  12.4321
  5.319  12.4424
  5.313  12.4939
  5.308  12.5145
  5.302  12.4836
  5.297  12.4836
  5.291  12.4733
  5.286  12.4630
  5.281  12.4527
  5.275  12.5557
  5.270  12.6175
  5.265  12.5969
  5.259  12.5454
  5.254  12.5248
  5.249  12.5660
  5.243  12.6072
  5.238  12.6484
  5.233  12.6381
  5.227  12.6587
  5.222  12.7205
  5.217  12.7308
  5.212  12.7308
  5.206  12.7720
  5.201  12.7617
  5.196  12.7411
  5.191  12.7926
  5.186  12.8132
  5.180  12.7926
  5.175  12.7617
  5.170  12.7720
  5.165  12.8029
  5.160  12.8853
  5.155  12.8853
  5.150  12.8338
  5.145  12.8235
  5.139  12.8235
  5.134  12.8544
  5.129  12.9265
  5.124  12.9265
  5.119  12.9368
  5.114  12.9368
  5.109  12.9162
  5.104  12.9471
  5.099  13.0089
  5.094  13.0604
  5.089  13.0501
  5.084  12.9883
  5.079  12.9780
  5.074  13.0501
  5.069  13.0913
  5.064  13.0913
  5.059  13.1119
  5.054  13.1325
  5.049  13.1428
  5.044  13.1634
  5.040  13.2252
  5.035  13.2252
  5.030  13.2046
  5.025  13.2355
  5.020  13.2252
  5.015  13.1737
  5.010  13.2046
  5.005  13.2870
  5.001  13.3179
  4.996  13.3179
  4.991  13.3591
  4.986  13.3591
  4.981  13.3385
  4.977  13.3488
  4.972  13.3488
  4.967  13.3488
  4.962  13.3900
  4.958  13.4518
  4.953  13.4106
  4.948  13.4621
  4.943  13.5033
  4.939  13.5136
  4.934  13.5342
  4.929  13.5754
  4.925  13.6166
  4.920  13.6269
  4.915  13.6063
  4.911  13.5960
  4.906  13.5960
  4.901  13.6372
  4.897  13.6887
  4.892  13.6784
  4.888  13.6578
  4.883  13.6681
  4.878  13.6887
  4.874  13.6990
  4.869  13.7402
  4.865  13.7711
  4.860  13.7402
  4.856  13.7608
  4.851  13.8638
  4.846  13.8638
  4.842  13.7917
  4.837  13.8226
  4.833  13.8947
  4.828  13.9359
  4.824  13.9153
  4.819  13.9359
  4.815  13.9462
  4.810  13.8947
  4.806  13.8844
  4.802  13.8947
  4.797  13.9359
  4.793  13.9462
  4.788  13.9771
  4.784  13.9874
  4.779  13.9668
  4.775  13.9668
  4.771  13.9874
  4.766  14.0492
  4.762  14.0492
  4.758  14.0080
  4.753  13.9668
  4.749  13.9771
  4.744  13.9874
  4.740  13.9256
  4.736  13.9359
  4.731  13.9771
  4.727  14.0183
  4.723  14.0904
  4.719  14.1316
  4.714  14.1419
  4.710  14.1316
  4.706  14.1522
  4.701  14.1728
  4.697  14.1831
  4.693  14.1625
  4.689  14.2037
  4.684  14.2449
  4.680  14.2758
  4.676  14.2964
  4.672  14.2861
  4.668  14.2964
  4.663  14.3479
  4.659  14.4097
  4.655  14.4509
  4.651  14.4715
  4.647  14.4818
  4.643  14.4509
  4.638  14.4509
  4.634  14.4818
  4.630  14.5333
  4.626  14.5745
  4.622  14.6260
  4.618  14.5951
  4.614  14.5745
  4.610  14.5951
  4.605  14.6775
  4.601  14.6981
  4.597  14.7187
  4.593  14.7599
  4.589  14.7702
  4.585  14.7496
  4.581  14.7290
  4.577  14.7599
  4.573  14.7908
  4.569  14.7393
  4.565  14.7084
  4.561  14.7084
  4.557  14.7084
  4.553  14.7599
  4.549  14.7702
  4.545  14.7702
  4.541  14.8320
  4.537  14.8938
  4.533  14.9247
  4.529  14.8629
  4.525  14.8423
  4.521  14.8629
  4.517  14.9453
  4.513  14.9453
  4.509  14.9556
  4.505  14.9968
  4.502  15.0174
  4.498  15.0277
  4.494  15.1101
  4.490  15.0895
  4.486  15.0586
  4.482  15.1101
  4.478  15.1616
  4.474  15.1101
  4.470  15.1513
  4.467  15.1925
  4.463  15.1719
  4.459  15.2131
  4.455  15.2131
  4.451  15.2234
  4.447  15.2955
  4.444  15.3367
  4.440  15.3676
  4.436  15.3573
  4.432  15.3573
  4.428  15.3882
  4.425  15.4500
  4.421  15.4706
  4.417  15.5221
  4.413  15.5427
  4.410  15.5324
  4.406  15.5633
  4.402  15.5942
  4.398  15.5942
  4.395  15.6354
  4.391  15.6766
  4.387  15.6766
  4.384  15.6972
  4.380  15.7075
  4.376  15.7281
  4.372  15.7487
  4.369  15.8105
  4.365  15.9032
  4.361  15.8620
  4.358  15.8311
  4.354  15.8620
  4.350  15.9547
  4.347  15.8929
  4.343  15.9032
  4.340  16.0268
  4.336  16.0371
  4.332  15.9959
  4.329  16.0268
  4.325  16.0371
  4.321  16.1195
  4.318  16.2225
  4.314  16.2328
  4.311  16.2431
  4.307  16.3049
  4.304  16.3358
  4.300  16.3358
  4.296  16.2843
  4.293  16.3358
  4.289  16.3461
  4.286  16.3770
  4.282  16.4594
  4.279  16.5212
  4.275  16.5212
  4.272  16.4594
  4.268  16.5212
  4.265  16.6036
  4.261  16.6345
  4.258  16.6036
  4.254  16.5624
  4.251  16.5830
  4.247  16.5933
  4.244  16.6036
  4.240  16.6345
  4.237  16.7066
  4.233  16.7684
  4.230  16.8508
  4.226  16.8714
  4.223  16.8714
  4.219  16.9332
  4.216  16.9229
  4.213  16.9332
  4.209  16.9538
  4.206  16.9847
  4.202  17.0465
  4.199  17.1392
  4.196  17.1598
  4.192  17.1083
  4.189  17.1186
  4.185  17.1186
  4.182  17.1804
  4.179  17.1495
  4.175  17.1495
  4.172  17.1701
  4.169  17.2216
  4.165  17.2113
  4.162  17.1907
  4.159  17.1804
  4.155  17.2422
  4.152  17.3246
  4.149  17.3143
  4.145  17.2628
  4.142  17.2422
  4.139  17.2525
  4.135  17.3246
  4.132  17.3555
  4.129  17.4070
  4.126  17.4379
  4.122  17.3967
  4.119  17.2937
  4.116  17.3246
  4.112  17.4173
  4.109  17.4482
  4.106  17.4379
  4.103  17.5409
  4.099  17.5100
  4.096  17.4276
  4.093  17.4276
  4.090  17.4791
  4.086  17.4997
  4.083  17.5203
  4.080  17.5409
  4.077  17.5821
  4.074  17.5821
  4.070  17.5512
  4.067  17.5512
  4.064  17.6439
  4.061  17.7572
  4.058  17.7469
  4.055  17.7366
  4.051  17.7057
  4.048  17.6233
  4.045  17.6645
  4.042  17.7263
  4.039  17.6645
  4.036  17.6645
  4.032  17.7469
  4.029  17.7160
  4.026  17.7263
  4.023  17.6851
  4.020  17.7057
  4.017  17.6954
  4.014  17.6233
  4.011  17.6233
  4.008  17.6954
  4.004  17.6748
  4.001  17.7366
  3.998  17.7572
  3.995  17.7366
  3.992  17.6954
  3.989  17.7469
  3.986  17.7572
  3.983  17.7366
  3.980  17.6954
  3.977  17.6233
  3.974  17.5924
  3.971  17.6027
  3.968  17.6336
  3.965  17.7366
  3.962  17.7057
  3.959  17.6439
  3.956  17.6645
  3.953  17.7057
  3.950  17.7366
  3.947  17.8087
  3.944  17.7675
  3.941  17.7366
  3.938  17.8087
  3.935  17.8808
  3.932  17.8190
  3.929  17.7984
  3.926  17.8087
  3.923  17.9014
  3.920  17.9014
  3.917  17.9117
  3.914  17.9529
  3.911  18.0044
  3.908  17.9735
  3.905  17.8808
  3.902  17.9117
  3.899  18.0353
  3.896  18.0044
  3.893  18.0353
  3.890  17.9632
  3.887  17.9117
  3.884  17.9117
  3.882  17.9632
  3.879  17.9529
  3.876  17.9735
  3.873  18.0456
  3.870  18.0765
  3.867  18.0456
  3.864  18.0456
  3.861  18.0044
  3.858  17.9838
  3.856  18.0044
  3.853  18.0662
  3.850  18.0559
  3.847  17.9529
  3.844  17.9632
  3.841  18.0147
  3.838  17.9941
  3.836  18.0662
  3.833  18.0353
  3.830  18.0662
  3.827  18.0353
  3.824  18.0147
  3.822  18.0147
  3.819  17.9941
  3.816  18.0147
  3.813  18.1074
  3.810  18.1898
  3.807  18.1898
  3.805  18.0559
  3.802  18.0662
  3.799  18.0765
  3.796  18.1280
  3.794  18.1692
  3.791  18.1486
  3.788  18.1486
  3.785  18.1280
  3.782  18.0353
  3.780  18.0250
  3.777  18.1589
  3.774  18.2001
  3.771  18.1074
  3.769  18.1177
  3.766  18.1074
  3.763  18.1177
  3.761  18.1177
  3.758  18.1589
  3.755  18.2104
  3.752  18.1177
  3.750  18.0559
  3.747  18.0662
  3.744  18.1280
  3.742  18.2001
  3.739  18.1589
  3.736  18.1486
  3.733  18.0971
  3.731  18.0559
  3.728  18.1383
  3.725  18.1898
  3.723  18.1692
  3.720  18.1486
  3.717  18.1177
  3.715  18.1589
  3.712  18.1177
  3.709  18.1486
  3.707  18.1589
  3.704  18.1486
  3.702  18.1074
  3.699  18.0765
  3.696  18.1177
  3.694  18.1898
  3.691  18.1383
  3.688  18.0868
  3.686  18.0250
  3.683  18.0044
  3.680  18.0559
  3.678  18.0250
  3.675  17.9735
  3.673  18.0353
  3.670  18.0147
  3.667  17.9838
  3.665  17.9735
  3.662  18.0353
  3.660  18.0147
  3.657  17.9529
  3.655  17.8911
  3.652  17.8911
  3.649  17.9838
  3.647  18.0250
  3.644  17.9838
  3.642  18.0044
  3.639  17.9632
  3.637  17.9323
  3.634  17.9941
  3.632  18.0044
  3.629  17.8911
  3.626  17.9220
  3.624  18.0147
  3.621  17.9735
  3.619  17.8705
  3.616  17.8602
  3.614  17.8499
  3.611  17.8911
  3.609  17.8087
  3.606  17.7881
  3.604  17.8190
  3.601  17.8911
  3.599  17.8396
  3.596  17.7469
  3.594  17.7778
  3.591  17.8499
  3.589  17.7469
  3.586  17.6851
  3.584  17.7263
  3.581  17.7263
  3.579  17.6748
