Name: Alkali Basalt
Type: Rock
Class: Igneous
Subclass: Mafic
Particle Size: Whole rock chips
Sample No.: Mewy366
Owner: Lawrence Rowan, USGS Reston
Wavelength range: 0.40 - 14.05 um
Origin: Tiberias, Middle East

Description: Alkali basalt, fresh surface, early Pliocene





Measurement: Directional Hemispherical Reflectance
First Column: X
Second Column: Y
X Units: Wavelength (micrometers)
Y Units: Reflectance (percent)
First X Value: 14.05105
Last X Value: 0.40000
Number of X Values: 2231
Additional Information: mewy366a.txt

 14.051   2.7295
 14.013   2.7707
 13.975   2.9458
 13.938   2.7604
 13.900   2.8325
 13.863   2.8428
 13.826   3.0488
 13.790   3.0694
 13.753   2.9767
 13.717   2.8943
 13.680   3.0076
 13.644   2.8943
 13.609   2.9458
 13.573   2.9561
 13.538   3.0179
 13.502   2.9767
 13.467   3.0179
 13.432   3.0179
 13.398   3.1621
 13.363   2.9767
 13.329   2.9870
 13.295   3.0694
 13.261   3.1106
 13.227   2.9664
 13.193   2.9355
 13.160   2.9252
 13.126   2.9149
 13.093   2.9252
 13.060   3.0076
 13.027   3.0282
 12.995   3.0900
 12.962   2.9870
 12.930   2.9561
 12.898   2.9458
 12.866   3.1209
 12.834   3.1106
 12.802   3.1621
 12.771   3.1621
 12.739   3.1518
 12.708   3.0694
 12.677   3.1518
 12.646   3.1518
 12.616   3.1930
 12.585   3.1724
 12.554   3.1518
 12.524   3.1518
 12.494   3.3475
 12.464   3.4402
 12.434   3.4917
 12.404   3.4917
 12.375   3.4608
 12.345   3.4505
 12.316   3.7080
 12.287   3.7801
 12.258   3.8625
 12.229   3.9861
 12.200   4.1509
 12.171   4.1921
 12.143   4.2951
 12.115   4.2848
 12.086   4.3775
 12.058   4.4496
 12.030   4.5732
 12.002   4.5835
 11.975   4.6144
 11.947   4.5629
 11.920   4.6144
 11.892   4.6144
 11.865   4.7792
 11.838   4.9028
 11.811   5.0161
 11.784   4.9955
 11.757   5.0367
 11.731   5.0882
 11.704   5.2427
 11.678   5.3457
 11.652   5.5414
 11.626   5.5620
 11.600   5.7577
 11.574   5.9225
 11.548   6.1285
 11.522   6.1079
 11.497   6.1800
 11.471   6.2830
 11.446   6.4169
 11.421   6.4787
 11.396   6.7568
 11.371   6.7980
 11.346   6.7877
 11.321   6.8598
 11.297   7.1173
 11.272   7.2203
 11.248   7.3130
 11.223   7.2615
 11.199   7.2615
 11.175   7.3233
 11.151   7.4881
 11.127   7.5808
 11.103   7.7353
 11.079   7.7559
 11.056   7.8280
 11.032   7.8280
 11.009   7.8589
 10.985   7.9207
 10.962   8.1164
 10.939   8.1679
 10.916   8.2709
 10.893   8.3327
 10.870   8.4563
 10.848   8.4460
 10.825   8.4872
 10.802   8.4254
 10.780   8.4254
 10.758   8.4048
 10.735   8.4357
 10.713   8.3842
 10.691   8.4151
 10.669   8.4048
 10.647   8.3533
 10.625   8.2297
 10.604   8.1370
 10.582   8.0855
 10.560   8.1473
 10.539   8.1473
 10.518   8.1576
 10.496   8.0443
 10.475   8.0546
 10.454   8.1782
 10.433   8.2503
 10.412   8.2812
 10.391   8.3224
 10.370   8.2812
 10.350   8.4048
 10.329   8.4048
 10.309   8.3533
 10.288   8.2709
 10.268   8.3121
 10.247   8.2297
 10.227   8.1988
 10.207   8.1988
 10.187   8.2503
 10.167   8.1885
 10.147   8.2297
 10.127   8.3018
 10.108   8.4563
 10.088   8.4872
 10.068   8.6108
 10.049   8.5490
 10.029   8.4975
 10.010   8.5799
  9.991   8.8065
  9.972   8.8992
  9.952   8.9610
  9.933   8.8889
  9.914   8.8374
  9.895   8.7962
  9.877   8.8786
  9.858   8.9198
  9.839   9.0125
  9.821   8.9404
  9.802   8.9404
  9.783   8.9919
  9.765   8.9919
  9.747   8.8477
  9.728   8.7550
  9.710   8.6417
  9.692   8.6726
  9.674   8.5799
  9.656   8.5593
  9.638   8.5490
  9.620   8.5284
  9.602   8.4357
  9.585   8.4048
  9.567   8.2194
  9.549   8.0649
  9.532   7.9310
  9.514   7.8795
  9.497   7.8280
  9.479   7.8486
  9.462   7.7250
  9.445   7.6117
  9.428   7.4675
  9.411   7.4572
  9.394   7.4160
  9.377   7.3748
  9.360   7.2100
  9.343   7.1482
  9.326   7.0967
  9.309   7.0555
  9.293   6.9731
  9.276   6.9422
  9.259   6.9113
  9.243   6.9628
  9.226   6.9731
  9.210   6.9319
  9.194   6.7774
  9.178   6.9319
  9.161   7.0452
  9.145   7.0658
  9.129   7.0658
  9.113   7.1276
  9.097   7.1379
  9.081   7.1997
  9.065   7.2203
  9.049   7.2512
  9.034   7.2100
  9.018   7.2821
  9.002   7.4263
  8.987   7.5190
  8.971   7.3748
  8.956   7.3130
  8.940   7.3027
  8.925   7.3336
  8.909   7.2203
  8.894   7.1482
  8.879   7.1482
  8.864   7.1379
  8.849   6.9628
  8.834   6.7877
  8.819   6.6950
  8.804   6.7053
  8.789   6.5302
  8.774   6.4581
  8.759   6.3860
  8.744   6.3448
  8.730   6.2933
  8.715   6.3345
  8.700   6.2727
  8.686   6.2315
  8.671   6.1491
  8.657   6.1388
  8.642   6.0564
  8.628   6.0564
  8.614   6.1079
  8.599   6.1697
  8.585   6.1388
  8.571   6.0976
  8.557   5.9946
  8.543   5.9637
  8.529   5.9431
  8.515   5.9534
  8.501   5.8813
  8.487   5.8916
  8.473   5.7989
  8.459   5.7783
  8.445   5.7474
  8.431   5.6650
  8.418   5.6135
  8.404   5.6856
  8.391   5.6547
  8.377   5.5929
  8.363   5.4693
  8.350   5.3766
  8.337   5.2530
  8.323   5.0985
  8.310   4.9028
  8.297   4.8101
  8.283   4.5526
  8.270   4.2848
  8.257   4.0273
  8.244   3.8522
  8.231   3.5741
  8.218   3.3887
  8.205   3.1312
  8.192   2.8634
  8.179   2.6574
  8.166   2.5235
  8.153   2.2763
  8.140   2.1527
  8.128   2.0703
  8.115   1.9570
  8.102   1.9055
  8.090   1.8849
  8.077   1.7613
  8.064   1.6686
  8.052   1.5450
  8.039   1.5347
  8.027   1.5553
  8.015   1.5656
  8.002   1.4523
  7.990   1.4523
  7.978   1.4420
  7.965   1.4626
  7.953   1.4214
  7.941   1.4420
  7.929   1.4523
  7.917   1.4214
  7.905   1.3699
  7.893   1.4214
  7.881   1.3802
  7.869   1.4523
  7.857   1.4935
  7.845   1.4832
  7.833   1.4626
  7.821   1.4832
  7.809   1.4935
  7.798   1.4832
  7.786   1.3905
  7.774   1.3905
  7.763   1.4214
  7.751   1.5450
  7.739   1.5553
  7.728   1.5141
  7.716   1.4935
  7.705   1.5450
  7.694   1.5450
  7.682   1.5759
  7.671   1.5244
  7.659   1.5244
  7.648   1.5656
  7.637   1.6480
  7.626   1.6274
  7.614   1.6274
  7.603   1.5862
  7.592   1.5965
  7.581   1.6480
  7.570   1.7098
  7.559   1.7098
  7.548   1.8025
  7.537   1.7819
  7.526   1.7304
  7.515   1.6892
  7.504   1.7510
  7.493   1.8128
  7.483   1.8849
  7.472   1.8849
  7.461   1.9158
  7.450   1.9158
  7.440   1.8849
  7.429   1.8437
  7.418   1.9055
  7.408   1.9467
  7.397   1.9673
  7.387   1.9570
  7.376   1.9776
  7.366   1.9570
  7.355   1.9467
  7.345   1.9158
  7.334   1.9673
  7.324   1.9776
  7.314   1.9982
  7.303   1.9673
  7.293   2.0291
  7.283   2.0909
  7.273   2.1424
  7.263   2.1115
  7.252   2.1321
  7.242   2.1012
  7.232   2.1321
  7.222   2.1836
  7.212   2.1733
  7.202   2.1630
  7.192   2.2454
  7.182   2.2454
  7.172   2.2248
  7.162   2.2248
  7.152   2.2866
  7.143   2.3175
  7.133   2.3175
  7.123   2.2969
  7.113   2.3484
  7.103   2.3072
  7.094   2.3278
  7.084   2.4411
  7.074   2.5441
  7.065   2.4617
  7.055   2.4411
  7.046   2.4411
  7.036   2.4514
  7.026   2.4617
  7.017   2.4823
  7.007   2.5029
  6.998   2.5441
  6.989   2.5441
  6.979   2.5853
  6.970   2.5956
  6.960   2.5750
  6.951   2.5544
  6.942   2.6162
  6.932   2.6265
  6.923   2.6574
  6.914   2.6883
  6.905   2.7089
  6.896   2.6471
  6.886   2.6059
  6.877   2.6265
  6.868   2.6986
  6.859   2.6883
  6.850   2.6677
  6.841   2.6162
  6.832   2.6677
  6.823   2.7192
  6.814   2.7707
  6.805   2.7810
  6.796   2.8325
  6.787   2.7501
  6.778   2.7913
  6.770   2.8531
  6.761   2.8634
  6.752   2.8428
  6.743   2.8840
  6.734   2.8634
  6.726   2.8325
  6.717   2.8119
  6.708   2.8840
  6.700   2.8737
  6.691   2.8840
  6.682   2.8943
  6.674   2.8943
  6.665   2.8737
  6.657   2.8737
  6.648   2.8634
  6.640   2.8222
  6.631   2.7913
  6.623   2.8737
  6.614   2.9355
  6.606   2.9458
  6.597   2.9664
  6.589   2.9561
  6.581   2.9252
  6.572   2.9252
  6.564   2.9355
  6.556   2.9252
  6.547   2.9252
  6.539   3.0076
  6.531   3.0179
  6.523   2.9458
  6.514   2.8943
  6.506   2.9149
  6.498   2.9046
  6.490   2.9458
  6.482   2.9870
  6.474   3.0179
  6.466   3.0385
  6.458   3.0385
  6.450   2.9767
  6.442   2.9767
  6.434   2.9767
  6.426   3.0076
  6.418   2.9973
  6.410   2.9355
  6.402   2.9355
  6.394   3.0385
  6.386   3.0179
  6.378   3.0282
  6.370   3.0591
  6.363   3.0900
  6.355   3.1106
  6.347   3.0797
  6.339   2.9973
  6.332   3.0385
  6.324   3.0488
  6.316   3.0488
  6.308   3.1003
  6.301   3.1415
  6.293   3.1518
  6.286   3.1106
  6.278   3.0694
  6.270   3.1003
  6.263   3.1209
  6.255   3.1621
  6.248   3.1209
  6.240   3.1209
  6.233   3.0797
  6.225   3.1106
  6.218   3.0900
  6.210   3.0385
  6.203   3.0179
  6.195   3.0385
  6.188   3.0179
  6.181   2.9973
  6.173   3.0179
  6.166   2.9767
  6.159   2.9458
  6.151   2.9870
  6.144   2.9664
  6.137   2.9664
  6.130   2.9664
  6.122   2.9664
  6.115   2.9664
  6.108   2.9046
  6.101   2.8840
  6.094   2.9355
  6.086   2.9870
  6.079   2.9973
  6.072   2.9355
  6.065   2.9355
  6.058   2.9664
  6.051   2.9664
  6.044   2.8943
  6.037   2.9561
  6.030   3.0385
  6.023   3.0797
  6.016   3.1003
  6.009   3.1621
  6.002   3.1827
  5.995   3.1621
  5.988   3.1209
  5.981   3.2342
  5.974   3.2960
  5.967   3.2651
  5.960   3.2136
  5.954   3.2651
  5.947   3.3269
  5.940   3.3372
  5.933   3.2548
  5.926   3.3269
  5.920   3.4093
  5.913   3.4711
  5.906   3.5638
  5.899   3.5638
  5.893   3.5020
  5.886   3.5432
  5.879   3.5741
  5.873   3.5741
  5.866   3.6256
  5.859   3.6668
  5.853   3.7286
  5.846   3.7492
  5.840   3.7492
  5.833   3.7698
  5.827   3.7904
  5.820   3.7801
  5.813   3.8213
  5.807   3.8934
  5.800   3.8934
  5.794   3.9037
  5.788   3.9243
  5.781   3.9964
  5.775   4.0170
  5.768   3.9037
  5.762   3.8419
  5.755   3.9655
  5.749   4.0479
  5.743   4.0479
  5.736   3.9861
  5.730   3.9964
  5.724   4.0685
  5.717   4.0788
  5.711   4.0376
  5.705   4.0273
  5.698   4.0788
  5.692   4.1406
  5.686   4.1406
  5.680   4.1303
  5.674   4.1303
  5.667   4.1921
  5.661   4.2230
  5.655   4.1921
  5.649   4.2024
  5.643   4.2230
  5.637   4.2333
  5.630   4.2539
  5.624   4.2333
  5.618   4.2230
  5.612   4.2539
  5.606   4.3054
  5.600   4.3466
  5.594   4.3260
  5.588   4.3363
  5.582   4.3878
  5.576   4.3672
  5.570   4.3775
  5.564   4.3981
  5.558   4.3981
  5.552   4.4290
  5.546   4.4496
  5.540   4.4805
  5.534   4.4599
  5.528   4.4805
  5.523   4.5114
  5.517   4.5526
  5.511   4.6041
  5.505   4.6144
  5.499   4.6144
  5.493   4.5938
  5.487   4.6350
  5.482   4.6659
  5.476   4.7174
  5.470   4.7071
  5.464   4.6556
  5.459   4.6762
  5.453   4.7895
  5.447   4.8204
  5.441   4.7792
  5.436   4.7689
  5.430   4.8410
  5.424   4.8719
  5.419   4.7689
  5.413   4.7586
  5.407   4.8513
  5.402   4.8822
  5.396   4.8925
  5.390   4.9131
  5.385   4.9028
  5.379   4.9131
  5.374   4.9543
  5.368   4.9852
  5.363   5.0367
  5.357   4.9852
  5.352   4.9749
  5.346   5.0161
  5.341   5.0264
  5.335   5.0676
  5.330   5.1191
  5.324   5.0779
  5.319   5.0779
  5.313   5.1191
  5.308   5.2015
  5.302   5.2427
  5.297   5.2118
  5.291   5.1912
  5.286   5.2015
  5.281   5.2633
  5.275   5.3045
  5.270   5.2839
  5.265   5.3251
  5.259   5.3457
  5.254   5.3663
  5.249   5.3869
  5.243   5.3869
  5.238   5.3663
  5.233   5.3560
  5.227   5.4178
  5.222   5.4487
  5.217   5.4796
  5.212   5.5620
  5.206   5.5826
  5.201   5.6032
  5.196   5.6341
  5.191   5.6856
  5.186   5.7165
  5.180   5.6856
  5.175   5.6650
  5.170   5.7062
  5.165   5.7577
  5.160   5.7989
  5.155   5.7886
  5.150   5.7680
  5.145   5.7886
  5.139   5.8298
  5.134   5.8401
  5.129   5.8916
  5.124   5.9019
  5.119   5.9328
  5.114   5.9431
  5.109   6.0049
  5.104   6.0358
  5.099   6.0358
  5.094   6.0667
  5.089   6.0873
  5.084   6.1388
  5.079   6.2315
  5.074   6.2109
  5.069   6.2315
  5.064   6.2315
  5.059   6.2109
  5.054   6.2521
  5.049   6.2727
  5.044   6.3036
  5.040   6.3963
  5.035   6.4581
  5.030   6.4478
  5.025   6.4375
  5.020   6.4890
  5.015   6.4478
  5.010   6.4684
  5.005   6.5920
  5.001   6.6023
  4.996   6.6332
  4.991   6.7053
  4.986   6.7259
  4.981   6.6744
  4.977   6.6538
  4.972   6.7465
  4.967   6.7877
  4.962   6.7362
  4.958   6.7465
  4.953   6.8907
  4.948   6.9628
  4.943   6.9113
  4.939   6.8907
  4.934   6.9319
  4.929   7.0040
  4.925   7.0452
  4.920   7.0452
  4.915   7.0349
  4.911   7.0761
  4.906   7.1173
  4.901   7.1482
  4.897   7.1894
  4.892   7.2306
  4.888   7.1894
  4.883   7.2203
  4.878   7.2821
  4.874   7.2718
  4.869   7.2821
  4.865   7.2821
  4.860   7.3233
  4.856   7.4057
  4.851   7.4263
  4.846   7.4160
  4.842   7.4160
  4.837   7.4675
  4.833   7.4881
  4.828   7.4675
  4.824   7.5293
  4.819   7.5602
  4.815   7.5808
  4.810   7.5705
  4.806   7.5602
  4.802   7.5705
  4.797   7.6117
  4.793   7.6426
  4.788   7.6838
  4.784   7.7353
  4.779   7.7353
  4.775   7.7147
  4.771   7.6941
  4.766   7.7868
  4.762   7.8383
  4.758   7.8795
  4.753   7.9207
  4.749   7.9310
  4.744   7.9001
  4.740   7.8898
  4.736   7.9928
  4.731   8.0546
  4.727   8.0752
  4.723   8.1267
  4.719   8.1370
  4.714   8.1885
  4.710   8.1782
  4.706   8.1885
  4.701   8.2606
  4.697   8.3224
  4.693   8.3533
  4.689   8.3636
  4.684   8.4048
  4.680   8.4769
  4.676   8.4769
  4.672   8.5078
  4.668   8.5490
  4.663   8.5799
  4.659   8.6520
  4.655   8.6829
  4.651   8.7138
  4.647   8.7344
  4.643   8.7447
  4.638   8.7756
  4.634   8.8168
  4.630   8.8992
  4.626   8.9507
  4.622   8.8889
  4.618   8.8992
  4.614   8.9507
  4.610   9.0640
  4.605   9.0949
  4.601   9.0949
  4.597   9.1464
  4.593   9.1773
  4.589   9.1773
  4.585   9.2082
  4.581   9.2803
  4.577   9.3318
  4.573   9.4142
  4.569   9.4760
  4.565   9.4657
  4.561   9.5069
  4.557   9.5584
  4.553   9.5996
  4.549   9.6717
  4.545   9.6614
  4.541   9.6614
  4.537   9.7129
  4.533   9.7747
  4.529   9.7953
  4.525   9.7644
  4.521   9.8056
  4.517   9.9395
  4.513   9.9807
  4.509   9.9807
  4.505  10.0116
  4.502  10.0425
  4.498  10.1558
  4.494  10.2073
  4.490  10.1867
  4.486  10.1764
  4.482  10.1764
  4.478  10.2073
  4.474  10.3103
  4.470  10.3721
  4.467  10.3412
  4.463  10.3824
  4.459  10.4751
  4.455  10.5884
  4.451  10.5987
  4.447  10.5369
  4.444  10.5472
  4.440  10.6296
  4.436  10.6605
  4.432  10.6914
  4.428  10.7223
  4.425  10.7429
  4.421  10.7841
  4.417  10.8150
  4.413  10.8459
  4.410  10.8974
  4.406  10.9283
  4.402  10.9592
  4.398  10.9592
  4.395  10.9901
  4.391  11.0107
  4.387  11.0210
  4.384  11.0210
  4.380  11.0519
  4.376  11.0725
  4.372  11.0931
  4.369  11.0931
  4.365  11.2064
  4.361  11.2991
  4.358  11.3197
  4.354  11.2991
  4.350  11.3094
  4.347  11.3403
  4.343  11.3609
  4.340  11.3918
  4.336  11.3918
  4.332  11.4021
  4.329  11.4536
  4.325  11.5566
  4.321  11.5463
  4.318  11.5257
  4.314  11.5978
  4.311  11.6081
  4.307  11.5875
  4.304  11.5360
  4.300  11.5051
  4.296  11.5875
  4.293  11.6390
  4.289  11.5875
  4.286  11.6081
  4.282  11.5875
  4.279  11.5463
  4.275  11.5772
  4.272  11.6699
  4.268  11.7317
  4.265  11.7832
  4.261  11.8759
  4.258  11.9583
  4.254  11.9995
  4.251  11.9995
  4.247  11.9583
  4.244  11.8965
  4.240  11.8450
  4.237  11.8347
  4.233  11.8553
  4.230  11.9274
  4.226  11.9377
  4.223  12.0098
  4.219  12.1334
  4.216  12.1849
  4.213  12.3085
  4.209  12.4527
  4.206  12.5454
  4.202  12.5969
  4.199  12.5763
  4.196  12.5454
  4.192  12.5763
  4.189  12.6793
  4.185  12.6587
  4.182  12.6793
  4.179  12.7617
  4.175  12.7514
  4.172  12.7617
  4.169  12.7926
  4.165  12.7205
  4.162  12.7720
  4.159  12.9162
  4.155  13.0192
  4.152  12.9368
  4.149  12.9265
  4.145  12.9986
  4.142  12.9883
  4.139  12.9368
  4.135  12.8544
  4.132  12.9059
  4.129  13.0192
  4.126  13.1222
  4.122  13.2458
  4.119  13.2355
  4.116  13.1943
  4.112  13.1943
  4.109  13.1634
  4.106  13.1222
  4.103  13.1840
  4.099  13.2561
  4.096  13.3282
  4.093  13.3282
  4.090  13.2561
  4.086  13.2664
  4.083  13.2458
  4.080  13.2561
  4.077  13.3900
  4.074  13.3797
  4.070  13.3282
  4.067  13.3076
  4.064  13.3591
  4.061  13.3900
  4.058  13.3900
  4.055  13.3694
  4.051  13.4003
  4.048  13.4930
  4.045  13.5342
  4.042  13.5445
  4.039  13.6166
  4.036  13.5857
  4.032  13.5342
  4.029  13.5857
  4.026  13.5754
  4.023  13.5136
  4.020  13.5754
  4.017  13.5548
  4.014  13.5342
  4.011  13.5445
  4.008  13.6887
  4.004  13.6887
  4.001  13.7608
  3.998  13.8226
  3.995  13.8020
  3.992  13.7505
  3.989  13.7711
  3.986  13.7093
  3.983  13.7093
  3.980  13.7505
  3.977  13.8329
  3.974  13.8432
  3.971  13.8226
  3.968  13.8226
  3.965  13.8123
  3.962  13.8226
  3.959  13.8844
  3.956  13.8844
  3.953  14.0080
  3.950  14.0698
  3.947  13.9462
  3.944  13.8741
  3.941  13.8844
  3.938  13.9462
  3.935  13.9874
  3.932  13.9874
  3.929  14.0286
  3.926  14.0389
  3.923  13.9771
  3.920  14.0183
  3.917  14.0595
  3.914  14.0595
  3.911  14.1007
  3.908  14.1110
  3.905  13.9771
  3.902  13.8741
  3.899  13.9359
  3.896  13.9153
  3.893  13.9668
  3.890  14.0080
  3.887  14.0389
  3.884  14.0595
  3.882  14.1316
  3.879  14.0904
  3.876  14.0389
  3.873  14.0492
  3.870  14.1110
  3.867  14.0698
  3.864  13.9359
  3.861  13.9565
  3.858  14.0904
  3.856  14.1831
  3.853  14.1522
  3.850  14.1625
  3.847  14.2140
  3.844  14.2346
  3.841  14.2346
  3.838  14.1316
  3.836  14.1625
  3.833  14.2346
  3.830  14.2243
  3.827  14.2140
  3.824  14.1831
  3.822  14.1316
  3.819  14.1728
  3.816  14.1110
  3.813  14.1213
  3.810  14.1316
  3.807  14.1213
  3.805  14.1007
  3.802  14.1316
  3.799  14.1625
  3.796  14.1110
  3.794  14.0801
  3.791  14.2346
  3.788  14.2655
  3.785  14.1728
  3.782  14.2243
  3.780  14.2449
  3.777  14.1007
  3.774  14.1110
  3.771  14.1522
  3.769  14.1831
  3.766  14.1522
  3.763  14.1522
  3.761  14.1934
  3.758  14.2449
  3.755  14.2449
  3.752  14.1934
  3.750  14.2037
  3.747  14.2655
  3.744  14.1934
  3.742  14.1522
  3.739  14.1831
  3.736  14.1728
  3.733  14.1419
  3.731  14.1934
  3.728  14.1213
  3.725  14.1110
  3.723  14.1007
  3.720  14.0389
  3.717  14.0080
  3.715  14.0698
  3.712  14.1213
  3.709  14.2037
  3.707  14.2140
  3.704  14.2140
  3.702  14.1934
  3.699  14.2243
  3.696  14.1419
  3.694  14.1110
  3.691  14.0698
  3.688  14.0595
  3.686  14.1110
  3.683  14.1110
  3.680  14.0492
  3.678  14.0595
  3.675  14.0183
  3.673  14.0080
  3.670  13.9771
  3.667  14.0595
  3.665  14.0801
  3.662  14.0080
  3.660  13.9977
  3.657  14.1007
  3.655  14.0801
  3.652  14.1007
  3.649  14.1522
  3.647  14.0286
  3.644  13.8947
  3.642  13.9256
  3.639  13.9050
  3.637  13.9050
  3.634  13.9565
  3.632  13.9977
  3.629  13.9359
  3.626  13.9256
  3.624  13.8432
  3.621  13.8844
  3.619  13.9771
  3.616  14.0389
  3.614  13.9256
  3.611  13.8638
  3.609  13.8535
  3.606  13.8226
  3.604  13.7505
  3.601  13.8226
  3.599  13.8741
  3.596  13.8123
  3.594  13.8329
  3.591  13.8638
  3.589  13.8329
  3.586  13.7814
  3.584  13.7608
