Name: Rhyolite
Type: Rock
Class: Igneous
Subclass: Felsic
Particle Size: Whole Rock Chips
Sample No.: AP-939-214
Owner: United States Geological Survey, L. C. Rowan
Wavelength range: 0.405 - 14.05 um
Origin: Iberian Pyrite Belt, Spain

Description: Rhyolite, red, unaltered





Measurement: Directional Hemispherical Reflectance
First Column: X
Second Column: Y
X Units: Wavelength (micrometers)
Y Units: Reflectance (percent)
First X Value: 14.05105
Last X Value: 0.40500
Number of X Values: 2530
Additional Information: rhy214a.txt

 14.051   4.1097
 14.013   4.2642
 13.975   4.3878
 13.938   4.4908
 13.900   4.7689
 13.863   4.7277
 13.826   4.6762
 13.790   4.6144
 13.753   4.6968
 13.717   4.5732
 13.680   4.5732
 13.644   4.4599
 13.609   4.4187
 13.573   4.2642
 13.538   4.3054
 13.502   4.3363
 13.467   4.3981
 13.432   4.3569
 13.398   4.4290
 13.363   4.3878
 13.329   4.5114
 13.295   4.5938
 13.261   4.7174
 13.227   4.8616
 13.193   4.9646
 13.160   4.9955
 13.126   5.1809
 13.093   5.1809
 13.060   5.2839
 13.027   5.3560
 12.995   5.4281
 12.962   5.5311
 12.930   5.7474
 12.898   5.8298
 12.866   6.0255
 12.834   6.2315
 12.802   6.3963
 12.771   6.4581
 12.739   6.3860
 12.708   5.9534
 12.677   5.5414
 12.646   5.1706
 12.616   4.9440
 12.585   4.9234
 12.554   5.2427
 12.524   5.4796
 12.494   5.6032
 12.464   5.5826
 12.434   5.3560
 12.404   4.7174
 12.375   3.9861
 12.345   3.1518
 12.316   2.6471
 12.287   2.4926
 12.258   2.5338
 12.229   2.5029
 12.200   2.7295
 12.171   2.9046
 12.143   3.1003
 12.115   3.0797
 12.086   3.1209
 12.058   3.2445
 12.030   3.4093
 12.002   3.4608
 11.975   3.5123
 11.947   3.5226
 11.920   3.6668
 11.892   3.7183
 11.865   3.8316
 11.838   3.8728
 11.811   3.9037
 11.784   3.9449
 11.757   4.0788
 11.731   4.1097
 11.704   4.2230
 11.678   4.2436
 11.652   4.3157
 11.626   4.2848
 11.600   4.3775
 11.574   4.4599
 11.548   4.5938
 11.522   4.6041
 11.497   4.6762
 11.471   4.7174
 11.446   4.8410
 11.421   4.8307
 11.396   4.9234
 11.371   4.9028
 11.346   4.9234
 11.321   5.0161
 11.297   5.1397
 11.272   5.0985
 11.248   5.1500
 11.223   5.2427
 11.199   5.3663
 11.175   5.3972
 11.151   5.4487
 11.127   5.4178
 11.103   5.5414
 11.079   5.6341
 11.056   5.7268
 11.032   5.7680
 11.009   5.9534
 10.985   5.9946
 10.962   6.0255
 10.939   6.0564
 10.916   6.1594
 10.893   6.2006
 10.870   6.2418
 10.848   6.3036
 10.825   6.4169
 10.802   6.3860
 10.780   6.4890
 10.758   6.5817
 10.735   6.6950
 10.713   6.7774
 10.691   6.9216
 10.669   7.0555
 10.647   7.1894
 10.625   7.2512
 10.604   7.3542
 10.582   7.4572
 10.560   7.6117
 10.539   7.7559
 10.518   7.8795
 10.496   7.9413
 10.475   8.1782
 10.454   8.3327
 10.433   8.4975
 10.412   8.6211
 10.391   8.8683
 10.370   9.0949
 10.350   9.3524
 10.329   9.6305
 10.309   9.9704
 10.288  10.1249
 10.268  10.4236
 10.247  10.6708
 10.227  10.9798
 10.207  11.3094
 10.187  11.6184
 10.167  11.8656
 10.147  12.1437
 10.127  12.4321
 10.108  12.7411
 10.088  13.0810
 10.068  13.4724
 10.049  13.7711
 10.029  14.0389
 10.010  14.2861
  9.991  14.6157
  9.972  14.9453
  9.952  15.1822
  9.933  15.3676
  9.914  15.6045
  9.895  15.7075
  9.877  15.8620
  9.858  16.0165
  9.839  16.1710
  9.821  16.1710
  9.802  16.2122
  9.783  16.3049
  9.765  16.4800
  9.747  16.5830
  9.728  16.7684
  9.710  17.0259
  9.692  17.3143
  9.674  17.6851
  9.656  18.1177
  9.638  18.2928
  9.620  18.4267
  9.602  18.5915
  9.585  18.6945
  9.567  18.7151
  9.549  18.9005
  9.532  19.0035
  9.514  19.0962
  9.497  19.1786
  9.479  19.3228
  9.462  19.4773
  9.445  19.6936
  9.428  19.8790
  9.411  20.1983
  9.394  20.5794
  9.377  21.0017
  9.360  21.3519
  9.343  21.7330
  9.326  22.0935
  9.309  22.4025
  9.293  22.5261
  9.276  22.6291
  9.259  22.6188
  9.243  22.6394
  9.226  22.6291
  9.210  22.6188
  9.194  22.6188
  9.178  22.6497
  9.161  22.5467
  9.145  22.4437
  9.129  22.3201
  9.113  22.2274
  9.097  22.0729
  9.081  21.9287
  9.065  21.7021
  9.049  21.5167
  9.034  21.2592
  9.018  21.0223
  9.002  20.8266
  8.987  20.6309
  8.971  20.3631
  8.956  20.3425
  8.940  20.3116
  8.925  20.2498
  8.909  20.0953
  8.894  20.1262
  8.879  20.1674
  8.864  20.2601
  8.849  20.2910
  8.834  20.3425
  8.819  20.2807
  8.804  20.3734
  8.789  20.3116
  8.774  20.2395
  8.759  20.2395
  8.744  20.2498
  8.730  20.1777
  8.715  20.1365
  8.700  20.0026
  8.686  19.7760
  8.671  19.3846
  8.657  18.8696
  8.642  18.0971
  8.628  17.2937
  8.614  16.9847
  8.599  17.5512
  8.585  18.4267
  8.571  19.1580
  8.557  19.6112
  8.543  19.8687
  8.529  20.0232
  8.515  20.1365
  8.501  20.1262
  8.487  20.1777
  8.473  20.1365
  8.459  20.0232
  8.445  19.9614
  8.431  19.8687
  8.418  19.6627
  8.404  19.4258
  8.391  19.2095
  8.377  19.0035
  8.363  18.7975
  8.350  18.6842
  8.337  18.4164
  8.323  18.0971
  8.310  17.7366
  8.297  17.4894
  8.283  17.2525
  8.270  17.0877
  8.257  16.8817
  8.244  16.6345
  8.231  16.3564
  8.218  16.0268
  8.205  15.6148
  8.192  15.2234
  8.179  14.6981
  8.166  14.0389
  8.153  13.2355
  8.140  12.3394
  8.128  11.2888
  8.115  10.3000
  8.102   9.4760
  8.090   8.7241
  8.077   7.8898
  8.064   7.2821
  8.052   6.7156
  8.039   6.1182
  8.027   5.6032
  8.015   5.2633
  8.002   4.8719
  7.990   4.5217
  7.978   4.2024
  7.965   3.9243
  7.953   3.5638
  7.941   3.3166
  7.929   3.0694
  7.917   2.8634
  7.905   2.6780
  7.893   2.5441
  7.881   2.3690
  7.869   2.2042
  7.857   2.0188
  7.845   1.9673
  7.833   1.8334
  7.821   1.7201
  7.809   1.6789
  7.798   1.6789
  7.786   1.5862
  7.774   1.5347
  7.763   1.5553
  7.751   1.6068
  7.739   1.5759
  7.728   1.5038
  7.716   1.4420
  7.705   1.3905
  7.694   1.2669
  7.682   1.2463
  7.671   1.2360
  7.659   1.2772
  7.648   1.2257
  7.637   1.1845
  7.626   1.1742
  7.614   1.1433
  7.603   1.1021
  7.592   1.1124
  7.581   1.1330
  7.570   1.1124
  7.559   1.0094
  7.548   1.0094
  7.537   1.0712
  7.526   1.0712
  7.515   0.9785
  7.504   1.0300
  7.493   1.0094
  7.483   0.9888
  7.472   0.9785
  7.461   0.9476
  7.450   0.8858
  7.440   0.9167
  7.429   0.9064
  7.418   0.9167
  7.408   0.9270
  7.397   0.9785
  7.387   0.9373
  7.376   0.8858
  7.366   0.8755
  7.355   0.9476
  7.345   0.9682
  7.334   0.9270
  7.324   0.9064
  7.314   0.8961
  7.303   0.8755
  7.293   0.9064
  7.283   0.9373
  7.273   0.9373
  7.263   0.8961
  7.252   0.8961
  7.242   0.9064
  7.232   0.8858
  7.222   0.8961
  7.212   0.9579
  7.202   0.9991
  7.192   0.9991
  7.182   0.9270
  7.172   0.9476
  7.162   0.9991
  7.152   0.9991
  7.143   1.0094
  7.133   1.0300
  7.123   1.0094
  7.113   1.0197
  7.103   0.9785
  7.094   0.9888
  7.084   0.9785
  7.074   0.9579
  7.065   0.9888
  7.055   1.0197
  7.046   1.0094
  7.036   1.0094
  7.026   0.9888
  7.017   1.0506
  7.007   1.0300
  6.998   1.0403
  6.989   1.0609
  6.979   1.0197
  6.970   0.9785
  6.960   1.0300
  6.951   1.0403
  6.942   1.0506
  6.932   1.0094
  6.923   0.9888
  6.914   0.9991
  6.905   1.0712
  6.896   1.1330
  6.886   1.1536
  6.877   1.0918
  6.868   1.1124
  6.859   1.0609
  6.850   1.0712
  6.841   1.0712
  6.832   1.1021
  6.823   1.1021
  6.814   1.1021
  6.805   1.0403
  6.796   0.9888
  6.787   0.9888
  6.778   1.0506
  6.770   1.0094
  6.761   0.9888
  6.752   1.0403
  6.743   1.1021
  6.734   1.0609
  6.726   1.0815
  6.717   1.1227
  6.708   1.1639
  6.700   1.1536
  6.691   1.1021
  6.682   1.1021
  6.674   1.1536
  6.665   1.1227
  6.657   1.1021
  6.648   1.0918
  6.640   1.1536
  6.631   1.1845
  6.623   1.1433
  6.614   1.1124
  6.606   1.1330
  6.597   1.1639
  6.589   1.1742
  6.581   1.1742
  6.572   1.2051
  6.564   1.2051
  6.556   1.2463
  6.547   1.2463
  6.539   1.2154
  6.531   1.1124
  6.523   1.1227
  6.514   1.1433
  6.506   1.1845
  6.498   1.1948
  6.490   1.2257
  6.482   1.2360
  6.474   1.2566
  6.466   1.2360
  6.458   1.2360
  6.450   1.2463
  6.442   1.2772
  6.434   1.2669
  6.426   1.2566
  6.418   1.2257
  6.410   1.2051
  6.402   1.2360
  6.394   1.2463
  6.386   1.2154
  6.378   1.2360
  6.370   1.2566
  6.363   1.3184
  6.355   1.3081
  6.347   1.2463
  6.339   1.2257
  6.332   1.2875
  6.324   1.2566
  6.316   1.1948
  6.308   1.2154
  6.301   1.2772
  6.293   1.2772
  6.286   1.2669
  6.278   1.2772
  6.270   1.3081
  6.263   1.2772
  6.255   1.2566
  6.248   1.2669
  6.240   1.3081
  6.233   1.2669
  6.225   1.2772
  6.218   1.2669
  6.210   1.2360
  6.203   1.1845
  6.195   1.2257
  6.188   1.2669
  6.181   1.2875
  6.173   1.3184
  6.166   1.3802
  6.159   1.3287
  6.151   1.3287
  6.144   1.3493
  6.137   1.3081
  6.130   1.2772
  6.122   1.2978
  6.115   1.3390
  6.108   1.4317
  6.101   1.4523
  6.094   1.4214
  6.086   1.3699
  6.079   1.3287
  6.072   1.3287
  6.065   1.3493
  6.058   1.3493
  6.051   1.4214
  6.044   1.4214
  6.037   1.3905
  6.030   1.3802
  6.023   1.3905
  6.016   1.3905
  6.009   1.3699
  6.002   1.3390
  5.995   1.3184
  5.988   1.3390
  5.981   1.3905
  5.974   1.3905
  5.967   1.3905
  5.960   1.3802
  5.954   1.3802
  5.947   1.3802
  5.940   1.4008
  5.933   1.4420
  5.926   1.4832
  5.920   1.4729
  5.913   1.4214
  5.906   1.3802
  5.899   1.4214
  5.893   1.4317
  5.886   1.4008
  5.879   1.3699
  5.873   1.4214
  5.866   1.4935
  5.859   1.4729
  5.853   1.4111
  5.846   1.4729
  5.840   1.5038
  5.833   1.5553
  5.827   1.5553
  5.820   1.4832
  5.813   1.4214
  5.807   1.4523
  5.800   1.4729
  5.794   1.4832
  5.788   1.4729
  5.781   1.4832
  5.775   1.4626
  5.768   1.5347
  5.762   1.5450
  5.755   1.4935
  5.749   1.4935
  5.743   1.5450
  5.736   1.5656
  5.730   1.5450
  5.724   1.5347
  5.717   1.5862
  5.711   1.5965
  5.705   1.5244
  5.698   1.4935
  5.692   1.5450
  5.686   1.5553
  5.680   1.5450
  5.674   1.5553
  5.667   1.5862
  5.661   1.5862
  5.655   1.5965
  5.649   1.6274
  5.643   1.5862
  5.637   1.5656
  5.630   1.5965
  5.624   1.5965
  5.618   1.6068
  5.612   1.5759
  5.606   1.5553
  5.600   1.5141
  5.594   1.5450
  5.588   1.5553
  5.582   1.5553
  5.576   1.5656
  5.570   1.5759
  5.564   1.5450
  5.558   1.5244
  5.552   1.5347
  5.546   1.5450
  5.540   1.5759
  5.534   1.5965
  5.528   1.5759
  5.523   1.5862
  5.517   1.6274
  5.511   1.5862
  5.505   1.5553
  5.499   1.6068
  5.493   1.6377
  5.487   1.6480
  5.482   1.6583
  5.476   1.6377
  5.470   1.6583
  5.464   1.6583
  5.459   1.6686
  5.453   1.6995
  5.447   1.6789
  5.441   1.6892
  5.436   1.6892
  5.430   1.6995
  5.424   1.7098
  5.419   1.7304
  5.413   1.7098
  5.407   1.6789
  5.402   1.6892
  5.396   1.7098
  5.390   1.6892
  5.385   1.6583
  5.379   1.6171
  5.374   1.6480
  5.368   1.6686
  5.363   1.6480
  5.357   1.6068
  5.352   1.6068
  5.346   1.6171
  5.341   1.6377
  5.335   1.6583
  5.330   1.6583
  5.324   1.6274
  5.319   1.6171
  5.313   1.5965
  5.308   1.6171
  5.302   1.6583
  5.297   1.6480
  5.291   1.6480
  5.286   1.6892
  5.281   1.7407
  5.275   1.7201
  5.270   1.6686
  5.265   1.6686
  5.259   1.6995
  5.254   1.7098
  5.249   1.6892
  5.243   1.6892
  5.238   1.7407
  5.233   1.8025
  5.227   1.8128
  5.222   1.7613
  5.217   1.7716
  5.212   1.7922
  5.206   1.8025
  5.201   1.8128
  5.196   1.8231
  5.191   1.8128
  5.186   1.7510
  5.180   1.7819
  5.175   1.7819
  5.170   1.8025
  5.165   1.8437
  5.160   1.9158
  5.155   1.8849
  5.150   1.8231
  5.145   1.7819
  5.139   1.7819
  5.134   1.8231
  5.129   1.8540
  5.124   1.8334
  5.119   1.8540
  5.114   1.8849
  5.109   1.8952
  5.104   1.8746
  5.099   1.8643
  5.094   1.8746
  5.089   1.9055
  5.084   1.9261
  5.079   1.8952
  5.074   1.8643
  5.069   1.8540
  5.064   1.8540
  5.059   1.9261
  5.054   1.9570
  5.049   1.8849
  5.044   1.8437
  5.040   1.8849
  5.035   1.9364
  5.030   1.9158
  5.025   1.9261
  5.020   1.9673
  5.015   1.9158
  5.010   1.8952
  5.005   1.8849
  5.001   1.8643
  4.996   1.8746
  4.991   1.9158
  4.986   1.8746
  4.981   1.8952
  4.977   1.9467
  4.972   1.9467
  4.967   1.9261
  4.962   1.9570
  4.958   1.9776
  4.953   2.0085
  4.948   2.0394
  4.943   2.0291
  4.939   1.9776
  4.934   2.0291
  4.929   2.0497
  4.925   2.0806
  4.920   2.1115
  4.915   2.1012
  4.911   2.1012
  4.906   2.1115
  4.901   2.1321
  4.897   2.1939
  4.892   2.2145
  4.888   2.2042
  4.883   2.1939
  4.878   2.2248
  4.874   2.2248
  4.869   2.2454
  4.865   2.3587
  4.860   2.4514
  4.856   2.4617
  4.851   2.4617
  4.846   2.4617
  4.842   2.4308
  4.837   2.4514
  4.833   2.4102
  4.828   2.4308
  4.824   2.5029
  4.819   2.4926
  4.815   2.4720
  4.810   2.4720
  4.806   2.4720
  4.802   2.5132
  4.797   2.5544
  4.793   2.5544
  4.788   2.4926
  4.784   2.4926
  4.779   2.5338
  4.775   2.5647
  4.771   2.5338
  4.766   2.4926
  4.762   2.5338
  4.758   2.5235
  4.753   2.5338
  4.749   2.5235
  4.744   2.5029
  4.740   2.5750
  4.736   2.6368
  4.731   2.6368
  4.727   2.6059
  4.723   2.5647
  4.719   2.6265
  4.714   2.6677
  4.710   2.5853
  4.706   2.5441
  4.701   2.5750
  4.697   2.6368
  4.693   2.6059
  4.689   2.5647
  4.684   2.5544
  4.680   2.5441
  4.676   2.5750
  4.672   2.6162
  4.668   2.6780
  4.663   2.6574
  4.659   2.5750
  4.655   2.5853
  4.651   2.6574
  4.647   2.6986
  4.643   2.6677
  4.638   2.6677
  4.634   2.7295
  4.630   2.7192
  4.626   2.7501
  4.622   2.8119
  4.618   2.8325
  4.614   2.8016
  4.610   2.7501
  4.605   2.7604
  4.601   2.8634
  4.597   2.9458
  4.593   2.9664
  4.589   2.9561
  4.585   2.9664
  4.581   2.9561
  4.577   2.9355
  4.573   2.9046
  4.569   2.9149
  4.565   2.9664
  4.561   3.0076
  4.557   2.9973
  4.553   2.9870
  4.549   3.0076
  4.545   3.0282
  4.541   3.0488
  4.537   2.9767
  4.533   3.0076
  4.529   3.0488
  4.525   3.0797
  4.521   3.1415
  4.517   3.0488
  4.513   2.9973
  4.509   3.0488
  4.505   3.0591
  4.502   3.0488
  4.498   3.0385
  4.494   3.0488
  4.490   3.0179
  4.486   2.9561
  4.482   2.9561
  4.478   3.0282
  4.474   3.0694
  4.470   3.0076
  4.467   2.9664
  4.463   2.9664
  4.459   2.9973
  4.455   3.0591
  4.451   3.0900
  4.447   3.0900
  4.444   3.1003
  4.440   3.0900
  4.436   3.1312
  4.432   3.2342
  4.428   3.2342
  4.425   3.2033
  4.421   3.2342
  4.417   3.2136
  4.413   3.1827
  4.410   3.2445
  4.406   3.3681
  4.402   3.3578
  4.398   3.3372
  4.395   3.3887
  4.391   3.4093
  4.387   3.4093
  4.384   3.4608
  4.380   3.5638
  4.376   3.5638
  4.372   3.5844
  4.369   3.6462
  4.365   3.6565
  4.361   3.6359
  4.358   3.6565
  4.354   3.6565
  4.350   3.6771
  4.347   3.7801
  4.343   3.7904
  4.340   3.7492
  4.336   3.7698
  4.332   3.7801
  4.329   3.8316
  4.325   3.8625
  4.321   3.8419
  4.318   3.8316
  4.314   3.8316
  4.311   3.8007
  4.307   3.8007
  4.304   3.8934
  4.300   3.9346
  4.296   3.9243
  4.293   3.9552
  4.289   3.9758
  4.286   3.9758
  4.282   3.9655
  4.279   4.0582
  4.275   4.0479
  4.272   3.9964
  4.268   3.9758
  4.265   4.0067
  4.261   4.0479
  4.258   4.1097
  4.254   4.1303
  4.251   4.1406
  4.247   4.2127
  4.244   4.1818
  4.240   4.0479
  4.237   4.0788
  4.233   4.1818
  4.230   4.2127
  4.226   4.1509
  4.223   4.1303
  4.219   4.1921
  4.216   4.2024
  4.213   4.2333
  4.209   4.2539
  4.206   4.2024
  4.202   4.2436
  4.199   4.2230
  4.196   4.1818
  4.192   4.1818
  4.189   4.2230
  4.185   4.2539
  4.182   4.2951
  4.179   4.3054
  4.175   4.2951
  4.172   4.3260
  4.169   4.3260
  4.165   4.3054
  4.162   4.3260
  4.159   4.3569
  4.155   4.4084
  4.152   4.4084
  4.149   4.3672
  4.145   4.3981
  4.142   4.4393
  4.139   4.4290
  4.135   4.4496
  4.132   4.4393
  4.129   4.3981
  4.126   4.4290
  4.122   4.5011
  4.119   4.4908
  4.116   4.4290
  4.112   4.4290
  4.109   4.5320
  4.106   4.5835
  4.103   4.5938
  4.099   4.5114
  4.096   4.5320
  4.093   4.5320
  4.090   4.5320
  4.086   4.4805
  4.083   4.4805
  4.080   4.5217
  4.077   4.5938
  4.074   4.6041
  4.070   4.5835
  4.067   4.5732
  4.064   4.5732
  4.061   4.5320
  4.058   4.5320
  4.055   4.5423
  4.051   4.6247
  4.048   4.7586
  4.045   4.7998
  4.042   4.6865
  4.039   4.6865
  4.036   4.6659
  4.032   4.6041
  4.029   4.5320
  4.026   4.4599
  4.023   4.4702
  4.020   4.6350
  4.017   4.7071
  4.014   4.7071
  4.011   4.6762
  4.008   4.6865
  4.004   4.6453
  4.001   4.6453
  3.998   4.7277
  3.995   4.7277
  3.992   4.6762
  3.989   4.6865
  3.986   4.6453
  3.983   4.5629
  3.980   4.5629
  3.977   4.6041
  3.974   4.6453
  3.971   4.6762
  3.968   4.6453
  3.965   4.7277
  3.962   4.7071
  3.959   4.6659
  3.956   4.6968
  3.953   4.7689
  3.950   4.7895
  3.947   4.7895
  3.944   4.8101
  3.941   4.7998
  3.938   4.6968
  3.935   4.7071
  3.932   4.8204
  3.929   4.8925
  3.926   4.8719
  3.923   4.8307
  3.920   4.8307
  3.917   4.7998
  3.914   4.7998
  3.911   4.7998
  3.908   4.8307
  3.905   4.8616
  3.902   4.8925
  3.899   4.9234
  3.896   4.9131
  3.893   4.9028
  3.890   4.8307
  3.887   4.8101
  3.884   4.7586
  3.882   4.7483
  3.879   4.8616
  3.876   4.9028
  3.873   4.8719
  3.870   4.8822
  3.867   4.8307
  3.864   4.7586
  3.861   4.7792
  3.858   4.8410
  3.856   4.7895
  3.853   4.7792
  3.850   4.8719
  3.847   4.9852
  3.844   4.9543
  3.841   4.9028
  3.838   4.8719
  3.836   4.9028
  3.833   4.8410
  3.830   4.7895
  3.827   4.8822
  3.824   4.9131
  3.822   4.7895
  3.819   4.8616
  3.816   4.9440
  3.813   4.9646
  3.810   4.9337
  3.807   4.8719
  3.805   4.8101
  3.802   4.8925
  3.799   4.9234
  3.796   4.9131
  3.794   4.8513
  3.791   4.8719
  3.788   4.8822
  3.785   4.8822
  3.782   4.8719
  3.780   4.8925
  3.777   4.8410
  3.774   4.8410
  3.771   4.8101
  3.769   4.8719
  3.766   4.9337
  3.763   4.9234
  3.761   4.8101
  3.758   4.7998
  3.755   4.8616
  3.752   4.8719
  3.750   4.9028
  3.747   4.8925
  3.744   4.8204
  3.742   4.7792
  3.739   4.7689
  3.736   4.8719
  3.733   4.8719
  3.731   4.7998
  3.728   4.7483
  3.725   4.7689
  3.723   4.7689
  3.720   4.7895
  3.717   4.7071
  3.715   4.6968
  3.712   4.7071
  3.709   4.7998
  3.707   4.8925
  3.704   4.9028
  3.702   4.8719
  3.699   4.7895
  3.696   4.7071
  3.694   4.8101
  3.691   4.8822
  3.688   4.8307
  3.686   4.7689
  3.683   4.7792
  3.680   4.7792
  3.678   4.7998
  3.675   4.7277
  3.673   4.7071
  3.670   4.7174
  3.667   4.7998
  3.665   4.8204
  3.662   4.8410
  3.660   4.8719
  3.657   4.8204
  3.655   4.7380
  3.652   4.7277
  3.649   4.7586
  3.647   4.7586
  3.644   4.7380
  3.642   4.8513
  3.639   4.9543
  3.637   4.8513
  3.634   4.7895
  3.632   4.7792
  3.629   4.6041
  3.626   4.6144
  3.624   4.7071
  3.621   4.7380
  3.619   4.6556
  3.616   4.6659
  3.614   4.7380
  3.611   4.6762
  3.609   4.5526
  3.606   4.5835
  3.604   4.6247
  3.601   4.6144
  3.599   4.5629
  3.596   4.6247
  3.594   4.7174
  3.591   4.7071
  3.589   4.6144
  3.586   4.5938
  3.584   4.5938
