Name: Basalt
Type: Rock
Class: Igneous
Subclass: Mafic
Particle Size: Whole rock chips
Sample No.: Me11a
Owner: Lawrence Rowan, USGS Reston
Wavelength range: 0.40 - 14.05 um
Origin: Jebel, Jordan

Description: Basalt, fresh surface





Measurement: Directional Hemispherical Reflectance
First Column: X
Second Column: Y
X Units: Wavelength (micrometers)
Y Units: Reflectance (percent)
First X Value: 14.05105
Last X Value: 0.40000
Number of X Values: 2231
Additional Information: me11aa.txt

 14.051   3.8728
 14.013   3.8522
 13.975   3.8728
 13.938   3.7389
 13.900   3.6874
 13.863   3.6771
 13.826   3.7286
 13.790   3.5844
 13.753   3.5432
 13.717   3.5432
 13.680   3.5741
 13.644   3.5226
 13.609   3.5844
 13.573   3.6153
 13.538   3.5844
 13.502   3.5329
 13.467   3.6565
 13.432   3.7080
 13.398   3.8110
 13.363   3.8934
 13.329   3.8831
 13.295   3.8316
 13.261   3.7801
 13.227   3.7698
 13.193   3.9449
 13.160   3.9552
 13.126   3.9346
 13.093   3.9552
 13.060   3.9964
 13.027   3.9449
 12.995   3.9655
 12.962   3.9964
 12.930   4.0067
 12.898   3.9346
 12.866   3.9140
 12.834   3.9861
 12.802   4.0479
 12.771   4.1406
 12.739   4.2333
 12.708   4.1406
 12.677   4.2024
 12.646   4.2848
 12.616   4.3981
 12.585   4.3981
 12.554   4.5011
 12.524   4.5835
 12.494   4.5732
 12.464   4.5320
 12.434   4.7174
 12.404   4.8513
 12.375   4.9234
 12.345   4.9852
 12.316   5.0058
 12.287   5.0470
 12.258   5.2015
 12.229   5.2942
 12.200   5.4178
 12.171   5.4899
 12.143   5.6650
 12.115   5.7577
 12.086   5.8813
 12.058   6.0255
 12.030   6.1491
 12.002   6.2212
 11.975   6.3551
 11.947   6.4272
 11.920   6.4684
 11.892   6.4478
 11.865   6.5405
 11.838   6.6538
 11.811   6.9113
 11.784   7.0967
 11.757   7.2924
 11.731   7.4572
 11.704   7.6323
 11.678   7.8383
 11.652   8.0649
 11.626   8.2194
 11.600   8.3636
 11.574   8.5387
 11.548   8.7550
 11.522   8.9404
 11.497   9.2597
 11.471   9.5996
 11.446   9.8468
 11.421   9.8880
 11.396  10.0631
 11.371  10.3309
 11.346  10.4957
 11.321  10.5163
 11.297  10.6914
 11.272  10.8974
 11.248  11.0004
 11.223  10.9901
 11.199  10.8974
 11.175  10.8562
 11.151  10.9798
 11.127  11.0725
 11.103  11.1858
 11.079  11.2270
 11.056  11.3712
 11.032  11.5051
 11.009  11.6390
 10.985  11.7523
 10.962  11.8244
 10.939  11.9377
 10.916  11.9892
 10.893  11.8450
 10.870  11.8965
 10.848  11.9995
 10.825  12.1746
 10.802  12.2467
 10.780  12.2158
 10.758  12.1540
 10.735  12.1952
 10.713  12.2570
 10.691  12.3188
 10.669  12.3394
 10.647  12.3703
 10.625  12.4012
 10.604  12.4218
 10.582  12.3497
 10.560  12.2982
 10.539  12.2467
 10.518  12.1643
 10.496  12.1128
 10.475  12.2055
 10.454  12.3497
 10.433  12.6175
 10.412  12.8544
 10.391  13.1222
 10.370  13.3694
 10.350  13.6269
 10.329  13.7814
 10.309  13.8844
 10.288  13.9668
 10.268  14.0904
 10.247  14.1419
 10.227  14.1831
 10.207  14.1934
 10.187  14.2346
 10.167  14.2243
 10.147  14.1419
 10.127  14.0698
 10.108  14.1419
 10.088  14.2140
 10.068  14.3067
 10.049  14.4303
 10.029  14.6672
 10.010  14.8423
  9.991  14.9762
  9.972  15.0689
  9.952  15.2440
  9.933  15.3779
  9.914  15.4088
  9.895  15.5118
  9.877  15.6251
  9.858  15.6972
  9.839  15.8002
  9.821  15.8414
  9.802  15.9238
  9.783  15.8723
  9.765  15.9547
  9.747  15.9959
  9.728  16.0680
  9.710  16.1710
  9.692  16.2328
  9.674  16.2122
  9.656  16.2122
  9.638  16.1710
  9.620  16.2431
  9.602  16.2637
  9.585  16.1916
  9.567  16.1401
  9.549  15.9856
  9.532  15.7899
  9.514  15.6869
  9.497  15.4706
  9.479  15.1616
  9.462  14.8629
  9.445  14.6260
  9.428  14.3994
  9.411  14.0904
  9.394  13.6990
  9.377  13.3179
  9.360  12.9368
  9.343  12.6278
  9.326  12.3703
  9.309  12.1952
  9.293  12.0407
  9.276  11.8553
  9.259  11.6699
  9.243  11.5978
  9.226  11.5463
  9.210  11.5566
  9.194  11.5154
  9.178  11.5257
  9.161  11.6287
  9.145  11.8347
  9.129  11.8965
  9.113  11.8141
  9.097  11.7008
  9.081  11.6699
  9.065  11.5669
  9.049  11.4536
  9.034  11.3094
  9.018  11.1446
  9.002  10.9592
  8.987  10.7120
  8.971  10.3824
  8.956  10.0837
  8.940   9.7438
  8.925   9.5481
  8.909   9.2700
  8.894   8.9507
  8.879   8.5593
  8.864   8.1988
  8.849   7.8280
  8.834   7.6426
  8.819   7.3954
  8.804   7.0761
  8.789   6.8701
  8.774   6.6950
  8.759   6.4787
  8.744   6.2933
  8.730   6.0564
  8.715   5.9328
  8.700   5.7783
  8.686   5.6959
  8.671   5.5826
  8.657   5.5002
  8.642   5.3251
  8.628   5.2118
  8.614   5.1603
  8.599   5.0161
  8.585   4.8616
  8.571   4.8204
  8.557   4.7174
  8.543   4.5938
  8.529   4.5011
  8.515   4.4290
  8.501   4.3878
  8.487   4.3775
  8.473   4.3363
  8.459   4.3466
  8.445   4.3157
  8.431   4.2745
  8.418   4.1509
  8.404   4.1406
  8.391   4.1097
  8.377   4.0685
  8.363   3.9449
  8.350   3.8728
  8.337   3.7595
  8.323   3.6977
  8.310   3.6565
  8.297   3.6462
  8.283   3.6565
  8.270   3.5123
  8.257   3.2857
  8.244   3.1827
  8.231   3.1518
  8.218   3.0900
  8.205   2.9664
  8.192   2.9355
  8.179   2.8737
  8.166   2.7707
  8.153   2.6677
  8.140   2.6574
  8.128   2.6574
  8.115   2.5956
  8.102   2.5029
  8.090   2.4926
  8.077   2.4102
  8.064   2.3484
  8.052   2.3587
  8.039   2.3999
  8.027   2.3896
  8.015   2.3381
  8.002   2.2763
  7.990   2.3175
  7.978   2.2660
  7.965   2.3175
  7.953   2.3484
  7.941   2.3072
  7.929   2.2454
  7.917   2.3072
  7.905   2.3484
  7.893   2.3587
  7.881   2.2866
  7.869   2.2660
  7.857   2.3072
  7.845   2.3381
  7.833   2.2969
  7.821   2.2969
  7.809   2.2866
  7.798   2.2969
  7.786   2.2557
  7.774   2.2454
  7.763   2.2557
  7.751   2.2969
  7.739   2.3278
  7.728   2.3278
  7.716   2.3072
  7.705   2.3999
  7.694   2.4102
  7.682   2.3793
  7.671   2.3999
  7.659   2.4720
  7.648   2.4720
  7.637   2.4411
  7.626   2.3999
  7.614   2.4205
  7.603   2.3999
  7.592   2.3896
  7.581   2.4205
  7.570   2.4823
  7.559   2.5338
  7.548   2.5029
  7.537   2.4823
  7.526   2.5338
  7.515   2.4926
  7.504   2.5029
  7.493   2.5235
  7.483   2.5132
  7.472   2.5029
  7.461   2.5338
  7.450   2.5750
  7.440   2.5544
  7.429   2.5029
  7.418   2.5338
  7.408   2.5441
  7.397   2.5853
  7.387   2.6162
  7.376   2.6883
  7.366   2.6883
  7.355   2.6883
  7.345   2.6368
  7.334   2.6471
  7.324   2.6883
  7.314   2.6883
  7.303   2.6883
  7.293   2.7295
  7.283   2.7501
  7.273   2.7295
  7.263   2.6986
  7.252   2.7604
  7.242   2.8531
  7.232   2.8840
  7.222   2.7501
  7.212   2.6883
  7.202   2.7810
  7.192   2.9046
  7.182   2.9046
  7.172   2.8943
  7.162   2.8634
  7.152   2.9458
  7.143   2.9767
  7.133   2.9046
  7.123   2.9355
  7.113   3.0076
  7.103   2.9973
  7.094   3.0076
  7.084   2.9973
  7.074   3.0385
  7.065   3.0591
  7.055   3.0385
  7.046   3.0900
  7.036   3.2651
  7.026   3.2548
  7.017   3.1415
  7.007   3.1003
  6.998   3.1518
  6.989   3.1209
  6.979   3.1003
  6.970   3.1518
  6.960   3.2857
  6.951   3.2548
  6.942   3.1518
  6.932   3.1003
  6.923   3.1106
  6.914   3.1209
  6.905   3.1827
  6.896   3.2754
  6.886   3.2960
  6.877   3.2239
  6.868   3.3269
  6.859   3.4299
  6.850   3.3372
  6.841   3.2960
  6.832   3.2960
  6.823   3.2857
  6.814   3.2651
  6.805   3.2548
  6.796   3.3372
  6.787   3.3578
  6.778   3.4402
  6.770   3.3990
  6.761   3.3269
  6.752   3.3372
  6.743   3.3269
  6.734   3.2445
  6.726   3.2548
  6.717   3.3578
  6.708   3.4196
  6.700   3.3887
  6.691   3.3887
  6.682   3.3990
  6.674   3.3887
  6.665   3.3887
  6.657   3.4093
  6.648   3.4917
  6.640   3.5947
  6.631   3.6462
  6.623   3.5329
  6.614   3.4093
  6.606   3.3990
  6.597   3.4299
  6.589   3.4608
  6.581   3.4505
  6.572   3.5844
  6.564   3.6256
  6.556   3.5638
  6.547   3.5329
  6.539   3.5432
  6.531   3.4814
  6.523   3.4917
  6.514   3.5432
  6.506   3.5226
  6.498   3.4402
  6.490   3.4505
  6.482   3.4917
  6.474   3.4814
  6.466   3.5020
  6.458   3.5535
  6.450   3.5020
  6.442   3.4917
  6.434   3.5020
  6.426   3.4608
  6.418   3.3990
  6.410   3.5329
  6.402   3.4917
  6.394   3.3269
  6.386   3.2445
  6.378   3.2548
  6.370   3.2651
  6.363   3.3063
  6.355   3.1827
  6.347   3.1415
  6.339   3.2239
  6.332   3.2342
  6.324   3.1415
  6.316   3.1106
  6.308   3.0591
  6.301   3.0797
  6.293   3.0900
  6.286   3.1003
  6.278   3.0694
  6.270   3.0694
  6.263   3.1312
  6.255   3.1930
  6.248   3.1106
  6.240   3.0282
  6.233   3.0694
  6.225   3.1106
  6.218   3.0694
  6.210   3.0385
  6.203   3.0282
  6.195   3.0076
  6.188   2.9561
  6.181   2.9973
  6.173   2.9870
  6.166   2.9561
  6.159   2.9664
  6.151   2.9458
  6.144   2.8737
  6.137   2.8634
  6.130   2.8531
  6.122   2.8840
  6.115   2.9458
  6.108   2.9767
  6.101   2.8737
  6.094   2.8531
  6.086   2.8737
  6.079   2.8737
  6.072   2.8737
  6.065   2.9561
  6.058   2.9767
  6.051   3.0591
  6.044   3.0694
  6.037   2.9870
  6.030   2.9252
  6.023   2.9355
  6.016   2.9664
  6.009   3.0385
  6.002   2.9973
  5.995   2.9252
  5.988   2.9973
  5.981   3.0900
  5.974   3.0694
  5.967   3.0900
  5.960   3.0900
  5.954   3.0797
  5.947   3.1209
  5.940   3.1415
  5.933   3.2136
  5.926   3.2136
  5.920   3.1518
  5.913   3.1827
  5.906   3.2239
  5.899   3.2754
  5.893   3.3269
  5.886   3.3578
  5.879   3.3990
  5.873   3.3475
  5.866   3.3269
  5.859   3.3784
  5.853   3.3372
  5.846   3.3475
  5.840   3.4093
  5.833   3.4505
  5.827   3.4711
  5.820   3.5638
  5.813   3.5638
  5.807   3.4917
  5.800   3.5020
  5.794   3.5020
  5.788   3.4711
  5.781   3.4917
  5.775   3.5329
  5.768   3.6565
  5.762   3.7801
  5.755   3.7080
  5.749   3.6050
  5.743   3.6050
  5.736   3.5638
  5.730   3.5947
  5.724   3.6462
  5.717   3.6565
  5.711   3.6977
  5.705   3.7183
  5.698   3.6256
  5.692   3.6668
  5.686   3.6977
  5.680   3.7183
  5.674   3.7286
  5.667   3.7183
  5.661   3.6874
  5.655   3.7286
  5.649   3.6668
  5.643   3.6874
  5.637   3.8110
  5.630   3.8419
  5.624   3.7698
  5.618   3.7492
  5.612   3.7183
  5.606   3.7389
  5.600   3.7904
  5.594   3.8419
  5.588   3.8213
  5.582   3.8213
  5.576   3.8419
  5.570   3.8316
  5.564   3.8213
  5.558   3.7801
  5.552   3.7389
  5.546   3.7801
  5.540   3.8110
  5.534   3.8110
  5.528   3.8728
  5.523   3.9449
  5.517   3.9037
  5.511   3.8316
  5.505   3.8110
  5.499   3.8728
  5.493   3.8728
  5.487   3.8831
  5.482   3.9037
  5.476   3.9552
  5.470   3.9449
  5.464   3.9758
  5.459   4.0170
  5.453   4.0170
  5.447   3.9346
  5.441   3.9449
  5.436   3.9655
  5.430   4.0376
  5.424   4.0479
  5.419   4.0273
  5.413   4.0067
  5.407   4.0170
  5.402   4.0067
  5.396   4.0376
  5.390   4.0376
  5.385   4.0582
  5.379   4.0067
  5.374   4.0170
  5.368   4.0376
  5.363   4.0479
  5.357   4.0685
  5.352   4.0891
  5.346   4.0788
  5.341   4.0685
  5.335   4.0788
  5.330   4.0994
  5.324   4.0170
  5.319   3.9964
  5.313   4.0788
  5.308   4.1303
  5.302   4.1200
  5.297   4.1509
  5.291   4.1406
  5.286   4.1097
  5.281   4.0891
  5.275   4.1509
  5.270   4.1097
  5.265   4.0994
  5.259   4.0994
  5.254   4.0994
  5.249   4.0994
  5.243   4.1097
  5.238   4.1303
  5.233   4.1509
  5.227   4.1303
  5.222   4.1303
  5.217   4.1612
  5.212   4.2024
  5.206   4.1921
  5.201   4.1715
  5.196   4.1406
  5.191   4.1509
  5.186   4.1715
  5.180   4.1509
  5.175   4.1406
  5.170   4.2127
  5.165   4.2024
  5.160   4.1612
  5.155   4.2230
  5.150   4.2642
  5.145   4.2127
  5.139   4.1509
  5.134   4.1406
  5.129   4.1406
  5.124   4.1612
  5.119   4.1715
  5.114   4.1509
  5.109   4.1612
  5.104   4.1406
  5.099   4.1509
  5.094   4.1715
  5.089   4.1921
  5.084   4.1509
  5.079   4.1097
  5.074   4.1612
  5.069   4.1921
  5.064   4.1921
  5.059   4.2539
  5.054   4.2333
  5.049   4.2230
  5.044   4.2436
  5.040   4.2436
  5.035   4.2436
  5.030   4.2127
  5.025   4.1921
  5.020   4.2436
  5.015   4.3157
  5.010   4.2848
  5.005   4.2127
  5.001   4.2436
  4.996   4.2951
  4.991   4.2642
  4.986   4.2539
  4.981   4.3466
  4.977   4.3466
  4.972   4.3260
  4.967   4.3157
  4.962   4.2848
  4.958   4.2951
  4.953   4.3672
  4.948   4.3878
  4.943   4.3672
  4.939   4.3466
  4.934   4.3569
  4.929   4.3260
  4.925   4.3260
  4.920   4.3672
  4.915   4.3878
  4.911   4.3878
  4.906   4.4908
  4.901   4.5114
  4.897   4.5011
  4.892   4.4496
  4.888   4.3878
  4.883   4.3878
  4.878   4.4187
  4.874   4.4187
  4.869   4.4290
  4.865   4.3775
  4.860   4.4599
  4.856   4.5011
  4.851   4.4599
  4.846   4.4599
  4.842   4.5320
  4.837   4.5526
  4.833   4.5526
  4.828   4.5526
  4.824   4.5423
  4.819   4.5114
  4.815   4.5835
  4.810   4.6350
  4.806   4.5835
  4.802   4.5526
  4.797   4.6350
  4.793   4.6762
  4.788   4.6247
  4.784   4.5114
  4.779   4.5011
  4.775   4.6041
  4.771   4.6041
  4.766   4.5526
  4.762   4.6247
  4.758   4.6453
  4.753   4.6350
  4.749   4.6350
  4.744   4.6968
  4.740   4.7483
  4.736   4.7277
  4.731   4.6762
  4.727   4.7277
  4.723   4.6968
  4.719   4.6968
  4.714   4.7071
  4.710   4.7586
  4.706   4.7277
  4.701   4.6968
  4.697   4.6865
  4.693   4.7380
  4.689   4.8307
  4.684   4.8719
  4.680   4.8204
  4.676   4.7689
  4.672   4.7174
  4.668   4.7792
  4.663   4.8307
  4.659   4.8307
  4.655   4.7895
  4.651   4.7998
  4.647   4.9131
  4.643   4.9749
  4.638   4.9440
  4.634   4.9646
  4.630   4.9646
  4.626   4.9234
  4.622   4.9440
  4.618   4.9955
  4.614   4.9955
  4.610   4.9234
  4.605   4.8822
  4.601   4.9337
  4.597   4.9749
  4.593   5.0367
  4.589   4.9337
  4.585   4.9440
  4.581   5.0058
  4.577   5.0264
  4.573   5.0161
  4.569   5.0367
  4.565   5.0779
  4.561   5.0573
  4.557   5.0161
  4.553   4.9852
  4.549   4.9749
  4.545   5.0058
  4.541   5.0264
  4.537   5.0676
  4.533   5.0779
  4.529   5.0367
  4.525   5.0882
  4.521   5.1603
  4.517   5.1088
  4.513   5.0985
  4.509   5.0882
  4.505   5.1397
  4.502   5.1809
  4.498   5.2118
  4.494   5.2015
  4.490   5.2118
  4.486   5.2221
  4.482   5.1912
  4.478   5.1397
  4.474   5.1294
  4.470   5.1706
  4.467   5.2221
  4.463   5.2015
  4.459   5.2736
  4.455   5.2736
  4.451   5.2736
  4.447   5.3457
  4.444   5.3045
  4.440   5.2324
  4.436   5.2427
  4.432   5.2427
  4.428   5.2839
  4.425   5.3354
  4.421   5.3148
  4.417   5.2839
  4.413   5.3354
  4.410   5.3045
  4.406   5.2942
  4.402   5.3251
  4.398   5.4075
  4.395   5.4384
  4.391   5.3251
  4.387   5.2736
  4.384   5.3148
  4.380   5.3354
  4.376   5.3560
  4.372   5.3354
  4.369   5.3560
  4.365   5.3251
  4.361   5.3869
  4.358   5.4590
  4.354   5.3972
  4.350   5.3148
  4.347   5.3972
  4.343   5.3766
  4.340   5.3869
  4.336   5.3972
  4.332   5.3560
  4.329   5.3045
  4.325   5.3663
  4.321   5.3251
  4.318   5.3045
  4.314   5.3663
  4.311   5.4178
  4.307   5.3972
  4.304   5.4590
  4.300   5.5208
  4.296   5.5105
  4.293   5.5208
  4.289   5.5311
  4.286   5.4796
  4.282   5.5517
  4.279   5.5723
  4.275   5.5929
  4.272   5.5929
  4.268   5.5105
  4.265   5.5002
  4.261   5.4796
  4.258   5.4178
  4.254   5.4487
  4.251   5.4384
  4.247   5.4487
  4.244   5.5208
  4.240   5.6238
  4.237   5.5208
  4.233   5.4590
  4.230   5.5620
  4.226   5.6547
  4.223   5.5517
  4.219   5.5414
  4.216   5.5620
  4.213   5.4693
  4.209   5.4796
  4.206   5.5620
  4.202   5.5002
  4.199   5.5002
  4.196   5.5929
  4.192   5.5929
  4.189   5.5723
  4.185   5.5517
  4.182   5.4899
  4.179   5.5002
  4.175   5.4899
  4.172   5.4796
  4.169   5.4693
  4.165   5.5517
  4.162   5.5517
  4.159   5.4693
  4.155   5.4281
  4.152   5.5208
  4.149   5.5311
  4.145   5.5208
  4.142   5.4384
  4.139   5.5311
  4.135   5.5929
  4.132   5.5620
  4.129   5.4590
  4.126   5.5002
  4.122   5.6032
  4.119   5.5929
  4.116   5.5723
  4.112   5.5929
  4.109   5.5620
  4.106   5.4899
  4.103   5.5208
  4.099   5.5208
  4.096   5.4384
  4.093   5.4590
  4.090   5.5208
  4.086   5.5517
  4.083   5.5826
  4.080   5.6650
  4.077   5.6444
  4.074   5.5723
  4.070   5.5208
  4.067   5.5620
  4.064   5.6238
  4.061   5.5826
  4.058   5.4899
  4.055   5.6444
  4.051   5.6959
  4.048   5.6650
  4.045   5.6341
  4.042   5.6135
  4.039   5.5826
  4.036   5.5208
  4.032   5.5311
  4.029   5.6135
  4.026   5.6650
  4.023   5.6753
  4.020   5.5105
  4.017   5.3869
  4.014   5.3972
  4.011   5.4590
  4.008   5.5208
  4.004   5.5929
  4.001   5.5517
  3.998   5.4899
  3.995   5.5105
  3.992   5.6753
  3.989   5.6032
  3.986   5.4796
  3.983   5.5311
  3.980   5.5929
  3.977   5.5517
  3.974   5.4178
  3.971   5.4693
  3.968   5.6032
  3.965   5.6650
  3.962   5.6238
  3.959   5.6444
  3.956   5.5929
  3.953   5.5002
  3.950   5.5311
  3.947   5.5723
  3.944   5.6547
  3.941   5.6547
  3.938   5.6341
  3.935   5.5414
  3.932   5.4693
  3.929   5.4487
  3.926   5.5826
  3.923   5.6959
  3.920   5.6547
  3.917   5.6238
  3.914   5.6341
  3.911   5.5723
  3.908   5.6238
  3.905   5.5929
  3.902   5.4796
  3.899   5.4899
  3.896   5.6032
  3.893   5.5002
  3.890   5.4899
  3.887   5.6444
  3.884   5.6753
  3.882   5.5620
  3.879   5.5826
  3.876   5.5517
  3.873   5.5002
  3.870   5.5414
  3.867   5.5517
  3.864   5.5208
  3.861   5.5105
  3.858   5.5311
  3.856   5.5414
  3.853   5.5311
  3.850   5.6135
  3.847   5.6135
  3.844   5.5517
  3.841   5.5002
  3.838   5.5414
  3.836   5.6032
  3.833   5.6238
  3.830   5.5208
  3.827   5.5208
  3.824   5.5929
  3.822   5.5929
  3.819   5.5311
  3.816   5.6032
  3.813   5.6959
  3.810   5.7165
  3.807   5.6341
  3.805   5.5517
  3.802   5.5414
  3.799   5.6238
  3.796   5.5929
  3.794   5.6650
  3.791   5.6444
  3.788   5.6135
  3.785   5.6444
  3.782   5.4899
  3.780   5.4178
  3.777   5.5620
  3.774   5.6444
  3.771   5.5826
  3.769   5.5105
  3.766   5.5723
  3.763   5.5620
  3.761   5.5620
  3.758   5.5517
  3.755   5.5414
  3.752   5.4590
  3.750   5.4693
  3.747   5.5620
  3.744   5.6238
  3.742   5.5723
  3.739   5.4796
  3.736   5.3972
  3.733   5.4075
  3.731   5.4384
  3.728   5.5105
  3.725   5.5826
  3.723   5.5414
  3.720   5.5311
  3.717   5.6341
  3.715   5.6032
  3.712   5.5517
  3.709   5.5414
  3.707   5.5414
  3.704   5.4899
  3.702   5.4693
  3.699   5.4693
  3.696   5.4899
  3.694   5.4384
  3.691   5.4075
  3.688   5.4281
  3.686   5.5414
  3.683   5.6753
  3.680   5.6238
  3.678   5.3869
  3.675   5.2736
  3.673   5.4178
  3.670   5.4487
  3.667   5.3663
  3.665   5.4384
  3.662   5.5723
  3.660   5.5311
  3.657   5.4281
  3.655   5.4693
  3.652   5.5105
  3.649   5.4487
  3.647   5.3663
  3.644   5.4693
  3.642   5.4796
  3.639   5.4178
  3.637   5.5105
  3.634   5.5002
  3.632   5.4281
  3.629   5.4384
  3.626   5.4899
  3.624   5.5517
  3.621   5.6032
  3.619   5.6032
  3.616   5.6135
  3.614   5.5311
  3.611   5.4178
  3.609   5.4796
  3.606   5.4590
  3.604   5.4796
  3.601   5.4899
  3.599   5.5620
  3.596   5.5826
  3.594   5.4075
  3.591   5.2839
  3.589   5.3457
  3.586   5.3560
  3.584   5.3766
  3.581   5.3972
  3.579   5.3869
  3.576   5.2530
