Name: Alkali Basalt
Type: Rock
Class: Igneous
Subclass: Mafic
Particle Size: Whole rock chips
Sample No.: Mewy410a
Owner: Lawrence Rowan, USGS Reston
Wavelength range: 0.40 - 14.05 um
Origin: South Golan, Middle East

Description: Alkali basalt, cut surface, early Pliocene





Measurement: Directional Hemispherical Reflectance
First Column: X
Second Column: Y
X Units: Wavelength (micrometers)
Y Units: Reflectance (percent)
First X Value: 14.05105
Last X Value: 0.40000
Number of X Values: 2231
Additional Information: mewy410aa.txt

 14.051   3.3887
 14.013   3.2342
 13.975   3.3887
 13.938   3.3681
 13.900   3.3887
 13.863   3.2548
 13.826   3.3166
 13.790   3.1827
 13.753   3.3063
 13.717   3.4093
 13.680   3.5123
 13.644   3.4608
 13.609   3.5020
 13.573   3.4402
 13.538   3.4196
 13.502   3.3475
 13.467   3.4711
 13.432   3.4299
 13.398   3.4917
 13.363   3.4505
 13.329   3.4505
 13.295   3.4196
 13.261   3.5432
 13.227   3.5226
 13.193   3.4917
 13.160   3.4608
 13.126   3.5226
 13.093   3.4814
 13.060   3.5432
 13.027   3.4814
 12.995   3.5638
 12.962   3.5535
 12.930   3.5741
 12.898   3.5535
 12.866   3.6565
 12.834   3.6153
 12.802   3.6359
 12.771   3.6256
 12.739   3.7698
 12.708   3.7595
 12.677   3.7801
 12.646   3.7492
 12.616   3.8625
 12.585   3.8007
 12.554   3.7492
 12.524   3.8110
 12.494   3.9243
 12.464   3.9243
 12.434   4.0479
 12.404   4.0994
 12.375   4.1509
 12.345   4.2127
 12.316   4.3878
 12.287   4.4084
 12.258   4.5629
 12.229   4.6144
 12.200   4.6350
 12.171   4.7483
 12.143   4.9440
 12.115   5.0676
 12.086   5.2221
 12.058   5.2633
 12.030   5.3457
 12.002   5.4178
 11.975   5.5105
 11.947   5.5414
 11.920   5.6238
 11.892   5.5929
 11.865   5.6959
 11.838   5.7680
 11.811   5.8813
 11.784   5.9431
 11.757   6.1800
 11.731   6.3242
 11.704   6.4478
 11.678   6.4581
 11.652   6.6538
 11.626   6.7568
 11.600   6.9422
 11.574   7.1173
 11.548   7.3645
 11.522   7.5602
 11.497   7.7765
 11.471   7.9310
 11.446   8.1679
 11.421   8.3430
 11.396   8.5387
 11.371   8.6726
 11.346   8.8374
 11.321   8.8786
 11.297   9.0331
 11.272   9.1155
 11.248   9.2082
 11.223   9.2597
 11.199   9.4245
 11.175   9.5378
 11.151   9.6305
 11.127   9.6820
 11.103   9.7747
 11.079   9.8056
 11.056   9.9086
 11.032   9.9704
 11.009  10.1455
 10.985  10.2073
 10.962  10.3000
 10.939  10.2897
 10.916  10.3206
 10.893  10.3721
 10.870  10.4957
 10.848  10.5678
 10.825  10.6605
 10.802  10.6399
 10.780  10.6914
 10.758  10.6605
 10.735  10.5781
 10.713  10.5369
 10.691  10.6296
 10.669  10.5575
 10.647  10.5575
 10.625  10.6811
 10.604  10.7841
 10.582  10.6605
 10.560  10.5575
 10.539  10.5163
 10.518  10.5575
 10.496  10.4545
 10.475  10.3412
 10.454  10.1970
 10.433  10.2073
 10.412  10.2279
 10.391  10.3103
 10.370  10.4339
 10.350  10.5781
 10.329  10.5884
 10.309  10.6811
 10.288  10.7841
 10.268  10.8459
 10.247  10.8047
 10.227  10.8150
 10.207  10.8253
 10.187  10.8665
 10.167  10.8253
 10.147  10.7841
 10.127  10.6090
 10.108  10.5472
 10.088  10.5163
 10.068  10.5987
 10.049  10.5884
 10.029  10.5781
 10.010  10.5987
  9.991  10.6605
  9.972  10.7120
  9.952  10.7120
  9.933  10.7738
  9.914  10.9077
  9.895  10.9489
  9.877  11.0107
  9.858  10.9489
  9.839  10.9489
  9.821  11.0004
  9.802  11.1034
  9.783  11.0828
  9.765  11.1137
  9.747  11.1240
  9.728  11.1549
  9.710  11.1137
  9.692  11.1549
  9.674  11.2064
  9.656  11.2785
  9.638  11.2785
  9.620  11.3094
  9.602  11.2785
  9.585  11.2888
  9.567  11.2064
  9.549  11.1034
  9.532  11.0107
  9.514  11.0210
  9.497  10.8974
  9.479  10.8356
  9.462  10.7429
  9.445  10.6914
  9.428  10.6296
  9.411  10.5369
  9.394  10.2588
  9.377  10.0528
  9.360   9.8468
  9.343   9.7129
  9.326   9.5069
  9.309   9.3421
  9.293   9.1876
  9.276   9.0228
  9.259   8.8374
  9.243   8.7962
  9.226   8.6726
  9.210   8.6211
  9.194   8.6211
  9.178   8.7138
  9.161   8.6829
  9.145   8.6623
  9.129   8.6932
  9.113   8.7447
  9.097   8.7241
  9.081   8.8477
  9.065   8.8271
  9.049   8.8168
  9.034   8.8065
  9.018   8.8374
  9.002   8.8271
  8.987   8.7756
  8.971   8.5902
  8.956   8.4048
  8.940   8.2297
  8.925   8.1370
  8.909   7.8383
  8.894   7.6838
  8.879   7.5911
  8.864   7.4778
  8.849   7.1894
  8.834   6.9834
  8.819   6.7877
  8.804   6.6950
  8.789   6.5817
  8.774   6.3654
  8.759   6.2006
  8.744   6.1182
  8.730   6.0358
  8.715   6.0255
  8.700   5.8813
  8.686   5.8195
  8.671   5.7680
  8.657   5.6444
  8.642   5.5620
  8.628   5.4899
  8.614   5.3251
  8.599   5.2015
  8.585   5.1294
  8.571   5.0985
  8.557   4.9646
  8.543   4.8307
  8.529   4.6556
  8.515   4.6556
  8.501   4.6556
  8.487   4.6453
  8.473   4.4702
  8.459   4.3466
  8.445   4.2848
  8.431   4.2745
  8.418   4.2127
  8.404   4.1715
  8.391   4.0582
  8.377   4.0067
  8.363   3.9346
  8.350   3.8934
  8.337   3.8110
  8.323   3.7595
  8.310   3.6359
  8.297   3.4814
  8.283   3.3269
  8.270   3.2342
  8.257   3.1209
  8.244   3.0591
  8.231   2.9252
  8.218   2.8428
  8.205   2.7604
  8.192   2.6574
  8.179   2.5338
  8.166   2.5132
  8.153   2.4308
  8.140   2.3793
  8.128   2.2866
  8.115   2.2763
  8.102   2.2660
  8.090   2.2660
  8.077   2.1836
  8.064   2.1012
  8.052   2.0806
  8.039   2.1527
  8.027   2.1527
  8.015   2.1527
  8.002   2.0909
  7.990   2.1012
  7.978   2.0497
  7.965   2.0394
  7.953   2.0291
  7.941   2.0600
  7.929   2.0600
  7.917   2.0600
  7.905   2.0188
  7.893   1.9982
  7.881   1.9776
  7.869   1.9982
  7.857   1.9982
  7.845   2.0497
  7.833   2.0703
  7.821   2.0909
  7.809   2.0806
  7.798   2.0703
  7.786   2.0291
  7.774   2.0085
  7.763   1.9570
  7.751   2.0291
  7.739   2.0085
  7.728   1.9879
  7.716   1.9673
  7.705   2.0291
  7.694   2.0600
  7.682   2.0703
  7.671   2.0497
  7.659   2.0600
  7.648   2.0291
  7.637   2.0909
  7.626   2.1115
  7.614   2.1527
  7.603   2.1424
  7.592   2.1115
  7.581   2.0394
  7.570   2.0909
  7.559   2.0703
  7.548   2.0703
  7.537   2.0703
  7.526   2.1321
  7.515   2.1939
  7.504   2.1939
  7.493   2.1527
  7.483   2.1424
  7.472   2.1630
  7.461   2.1939
  7.450   2.1321
  7.440   2.1218
  7.429   2.1115
  7.418   2.1939
  7.408   2.2145
  7.397   2.2042
  7.387   2.1836
  7.376   2.2763
  7.366   2.3278
  7.355   2.2969
  7.345   2.2145
  7.334   2.2351
  7.324   2.2248
  7.314   2.2763
  7.303   2.2763
  7.293   2.2660
  7.283   2.2248
  7.273   2.2351
  7.263   2.2660
  7.252   2.2866
  7.242   2.2763
  7.232   2.3175
  7.222   2.3381
  7.212   2.3484
  7.202   2.3175
  7.192   2.3690
  7.182   2.3793
  7.172   2.3896
  7.162   2.3587
  7.152   2.3896
  7.143   2.3793
  7.133   2.3793
  7.123   2.4205
  7.113   2.4823
  7.103   2.4308
  7.094   2.4720
  7.084   2.4926
  7.074   2.4823
  7.065   2.4720
  7.055   2.4926
  7.046   2.4617
  7.036   2.5029
  7.026   2.5338
  7.017   2.5235
  7.007   2.5029
  6.998   2.5132
  6.989   2.4411
  6.979   2.4617
  6.970   2.5441
  6.960   2.5544
  6.951   2.5029
  6.942   2.5441
  6.932   2.5956
  6.923   2.6368
  6.914   2.6059
  6.905   2.5441
  6.896   2.5132
  6.886   2.5544
  6.877   2.5441
  6.868   2.5132
  6.859   2.4823
  6.850   2.5750
  6.841   2.6059
  6.832   2.5647
  6.823   2.5544
  6.814   2.5441
  6.805   2.5544
  6.796   2.6162
  6.787   2.6059
  6.778   2.6265
  6.770   2.6265
  6.761   2.6265
  6.752   2.6574
  6.743   2.6677
  6.734   2.6471
  6.726   2.6471
  6.717   2.6162
  6.708   2.6265
  6.700   2.6574
  6.691   2.7192
  6.682   2.6883
  6.674   2.6368
  6.665   2.6574
  6.657   2.6883
  6.648   2.6677
  6.640   2.7089
  6.631   2.6883
  6.623   2.6986
  6.614   2.7295
  6.606   2.7810
  6.597   2.7398
  6.589   2.7192
  6.581   2.6883
  6.572   2.6883
  6.564   2.7398
  6.556   2.7707
  6.547   2.7295
  6.539   2.6883
  6.531   2.6368
  6.523   2.7192
  6.514   2.7707
  6.506   2.7604
  6.498   2.7604
  6.490   2.7913
  6.482   2.8222
  6.474   2.8428
  6.466   2.8016
  6.458   2.8016
  6.450   2.7295
  6.442   2.7089
  6.434   2.7398
  6.426   2.7707
  6.418   2.6574
  6.410   2.6162
  6.402   2.6368
  6.394   2.6986
  6.386   2.7604
  6.378   2.7604
  6.370   2.7089
  6.363   2.6883
  6.355   2.6883
  6.347   2.7192
  6.339   2.7089
  6.332   2.6677
  6.324   2.6368
  6.316   2.6471
  6.308   2.6883
  6.301   2.7398
  6.293   2.7398
  6.286   2.7089
  6.278   2.6368
  6.270   2.6883
  6.263   2.7295
  6.255   2.7398
  6.248   2.6574
  6.240   2.6677
  6.233   2.7089
  6.225   2.7192
  6.218   2.7089
  6.210   2.7398
  6.203   2.7295
  6.195   2.7192
  6.188   2.6986
  6.181   2.6574
  6.173   2.6059
  6.166   2.6162
  6.159   2.6574
  6.151   2.6780
  6.144   2.6574
  6.137   2.6574
  6.130   2.6471
  6.122   2.6574
  6.115   2.5853
  6.108   2.5956
  6.101   2.6368
  6.094   2.6574
  6.086   2.6162
  6.079   2.6162
  6.072   2.6368
  6.065   2.6780
  6.058   2.6986
  6.051   2.7295
  6.044   2.6986
  6.037   2.6677
  6.030   2.6471
  6.023   2.7295
  6.016   2.7604
  6.009   2.6986
  6.002   2.6574
  5.995   2.7192
  5.988   2.7604
  5.981   2.8016
  5.974   2.7604
  5.967   2.7604
  5.960   2.7604
  5.954   2.7295
  5.947   2.7295
  5.940   2.7501
  5.933   2.7501
  5.926   2.8222
  5.920   2.8325
  5.913   2.8325
  5.906   2.8840
  5.899   2.8943
  5.893   2.8634
  5.886   2.8531
  5.879   2.8325
  5.873   2.8325
  5.866   2.8428
  5.859   2.8531
  5.853   2.8531
  5.846   2.8737
  5.840   2.8943
  5.833   2.9355
  5.827   2.9458
  5.820   2.9046
  5.813   2.9252
  5.807   2.9767
  5.800   2.9664
  5.794   2.9355
  5.788   2.9664
  5.781   3.0282
  5.775   3.0282
  5.768   3.0179
  5.762   3.0076
  5.755   3.0282
  5.749   3.0488
  5.743   3.0076
  5.736   2.9870
  5.730   3.0076
  5.724   2.9767
  5.717   2.9767
  5.711   3.0282
  5.705   3.0591
  5.698   3.0385
  5.692   3.0076
  5.686   2.9870
  5.680   3.0385
  5.674   3.0591
  5.667   3.0076
  5.661   2.9973
  5.655   3.0385
  5.649   3.0385
  5.643   3.0282
  5.637   3.0591
  5.630   3.0385
  5.624   3.0488
  5.618   3.0591
  5.612   3.0591
  5.606   3.0694
  5.600   3.0694
  5.594   3.0797
  5.588   3.0591
  5.582   3.1003
  5.576   3.1003
  5.570   3.0488
  5.564   3.0488
  5.558   3.0694
  5.552   3.1209
  5.546   3.1209
  5.540   3.0900
  5.534   3.1415
  5.528   3.1312
  5.523   3.0694
  5.517   3.0900
  5.511   3.1415
  5.505   3.1827
  5.499   3.2033
  5.493   3.1827
  5.487   3.1518
  5.482   3.1621
  5.476   3.1518
  5.470   3.1003
  5.464   3.1106
  5.459   3.1518
  5.453   3.2136
  5.447   3.2033
  5.441   3.2136
  5.436   3.1827
  5.430   3.1930
  5.424   3.2239
  5.419   3.2342
  5.413   3.2239
  5.407   3.2033
  5.402   3.1930
  5.396   3.2136
  5.390   3.2239
  5.385   3.2857
  5.379   3.2754
  5.374   3.2136
  5.368   3.2136
  5.363   3.2548
  5.357   3.2754
  5.352   3.3063
  5.346   3.2960
  5.341   3.2445
  5.335   3.2651
  5.330   3.3063
  5.324   3.3063
  5.319   3.3269
  5.313   3.3166
  5.308   3.3063
  5.302   3.2960
  5.297   3.3269
  5.291   3.2754
  5.286   3.2342
  5.281   3.2548
  5.275   3.3166
  5.270   3.3475
  5.265   3.3784
  5.259   3.3475
  5.254   3.3269
  5.249   3.2960
  5.243   3.3063
  5.238   3.3681
  5.233   3.4093
  5.227   3.3887
  5.222   3.3372
  5.217   3.3578
  5.212   3.3681
  5.206   3.3578
  5.201   3.3372
  5.196   3.3578
  5.191   3.4093
  5.186   3.4402
  5.180   3.3990
  5.175   3.4093
  5.170   3.3990
  5.165   3.3990
  5.160   3.3990
  5.155   3.4299
  5.150   3.4093
  5.145   3.3784
  5.139   3.3784
  5.134   3.3887
  5.129   3.4093
  5.124   3.4196
  5.119   3.4608
  5.114   3.4505
  5.109   3.4299
  5.104   3.4505
  5.099   3.4608
  5.094   3.4299
  5.089   3.4608
  5.084   3.4402
  5.079   3.4402
  5.074   3.5123
  5.069   3.5329
  5.064   3.4608
  5.059   3.4196
  5.054   3.4402
  5.049   3.4608
  5.044   3.4917
  5.040   3.5020
  5.035   3.4917
  5.030   3.5020
  5.025   3.5226
  5.020   3.5329
  5.015   3.5432
  5.010   3.5535
  5.005   3.5226
  5.001   3.5226
  4.996   3.5432
  4.991   3.5226
  4.986   3.5123
  4.981   3.4814
  4.977   3.5020
  4.972   3.5535
  4.967   3.5638
  4.962   3.5535
  4.958   3.5741
  4.953   3.5947
  4.948   3.5329
  4.943   3.5123
  4.939   3.5741
  4.934   3.5947
  4.929   3.5638
  4.925   3.5638
  4.920   3.5947
  4.915   3.6256
  4.911   3.6153
  4.906   3.6050
  4.901   3.6462
  4.897   3.6668
  4.892   3.6668
  4.888   3.6462
  4.883   3.6359
  4.878   3.6359
  4.874   3.6565
  4.869   3.6668
  4.865   3.6359
  4.860   3.6359
  4.856   3.6256
  4.851   3.6771
  4.846   3.6977
  4.842   3.6874
  4.837   3.6977
  4.833   3.7286
  4.828   3.7492
  4.824   3.7492
  4.819   3.7286
  4.815   3.6771
  4.810   3.6668
  4.806   3.7080
  4.802   3.7183
  4.797   3.7389
  4.793   3.6977
  4.788   3.6668
  4.784   3.6668
  4.779   3.7286
  4.775   3.7595
  4.771   3.7389
  4.766   3.7389
  4.762   3.7595
  4.758   3.7595
  4.753   3.8007
  4.749   3.7801
  4.744   3.7492
  4.740   3.7801
  4.736   3.8007
  4.731   3.7698
  4.727   3.7492
  4.723   3.7389
  4.719   3.7492
  4.714   3.7698
  4.710   3.7698
  4.706   3.7801
  4.701   3.7801
  4.697   3.7904
  4.693   3.8316
  4.689   3.8522
  4.684   3.8213
  4.680   3.8522
  4.676   3.8831
  4.672   3.8625
  4.668   3.8213
  4.663   3.8110
  4.659   3.8110
  4.655   3.8625
  4.651   3.8831
  4.647   3.9037
  4.643   3.8831
  4.638   3.8934
  4.634   3.9346
  4.630   3.9037
  4.626   3.8625
  4.622   3.9243
  4.618   3.9346
  4.614   3.9861
  4.610   3.9346
  4.605   3.8728
  4.601   3.9037
  4.597   3.9346
  4.593   3.9140
  4.589   3.8831
  4.585   3.8934
  4.581   3.9552
  4.577   3.9552
  4.573   3.8831
  4.569   3.9140
  4.565   3.9758
  4.561   3.9964
  4.557   3.9758
  4.553   3.9449
  4.549   3.9243
  4.545   3.9552
  4.541   4.0067
  4.537   4.0273
  4.533   4.0479
  4.529   4.0582
  4.525   4.0582
  4.521   4.0479
  4.517   4.0067
  4.513   3.9449
  4.509   3.9861
  4.505   4.0685
  4.502   4.0685
  4.498   4.1200
  4.494   4.1200
  4.490   3.9861
  4.486   3.9655
  4.482   4.0067
  4.478   4.0685
  4.474   4.0891
  4.470   4.0479
  4.467   4.0067
  4.463   4.0479
  4.459   4.1509
  4.455   4.1097
  4.451   4.0788
  4.447   4.1200
  4.444   4.1200
  4.440   4.0582
  4.436   4.0273
  4.432   4.0582
  4.428   4.0891
  4.425   4.1509
  4.421   4.1818
  4.417   4.1406
  4.413   4.1715
  4.410   4.1921
  4.406   4.1406
  4.402   4.1509
  4.398   4.1715
  4.395   4.1097
  4.391   4.1303
  4.387   4.2127
  4.384   4.2333
  4.380   4.1818
  4.376   4.1921
  4.372   4.2333
  4.369   4.2333
  4.365   4.1818
  4.361   4.1097
  4.358   4.1509
  4.354   4.1715
  4.350   4.1200
  4.347   4.1921
  4.343   4.2642
  4.340   4.1818
  4.336   4.1200
  4.332   4.1921
  4.329   4.2333
  4.325   4.1715
  4.321   4.1715
  4.318   4.1715
  4.314   4.2642
  4.311   4.3157
  4.307   4.2745
  4.304   4.2539
  4.300   4.3054
  4.296   4.3569
  4.293   4.3981
  4.289   4.3775
  4.286   4.3672
  4.282   4.3775
  4.279   4.3260
  4.275   4.2848
  4.272   4.2745
  4.268   4.2951
  4.265   4.3054
  4.261   4.3054
  4.258   4.2951
  4.254   4.2642
  4.251   4.3363
  4.247   4.4496
  4.244   4.4599
  4.240   4.4805
  4.237   4.4496
  4.233   4.3157
  4.230   4.3157
  4.226   4.4187
  4.223   4.4702
  4.219   4.4393
  4.216   4.4290
  4.213   4.3672
  4.209   4.3775
  4.206   4.4393
  4.202   4.4084
  4.199   4.3363
  4.196   4.3260
  4.192   4.3157
  4.189   4.3054
  4.185   4.3157
  4.182   4.3260
  4.179   4.3260
  4.175   4.3569
  4.172   4.2642
  4.169   4.2642
  4.165   4.2951
  4.162   4.3363
  4.159   4.3878
  4.155   4.3775
  4.152   4.3569
  4.149   4.4496
  4.145   4.4702
  4.142   4.3981
  4.139   4.3260
  4.135   4.3672
  4.132   4.3672
  4.129   4.3878
  4.126   4.3981
  4.122   4.4187
  4.119   4.3981
  4.116   4.3569
  4.112   4.3260
  4.109   4.3157
  4.106   4.3363
  4.103   4.4084
  4.099   4.4187
  4.096   4.4496
  4.093   4.4702
  4.090   4.4805
  4.086   4.4496
  4.083   4.4496
  4.080   4.4599
  4.077   4.4805
  4.074   4.4599
  4.070   4.4702
  4.067   4.4084
  4.064   4.3981
  4.061   4.4393
  4.058   4.5217
  4.055   4.5114
  4.051   4.5217
  4.048   4.4908
  4.045   4.4599
  4.042   4.4805
  4.039   4.5114
  4.036   4.4084
  4.032   4.4084
  4.029   4.4702
  4.026   4.5011
  4.023   4.5011
  4.020   4.5217
  4.017   4.5114
  4.014   4.4496
  4.011   4.5114
  4.008   4.5217
  4.004   4.4084
  4.001   4.3981
  3.998   4.4084
  3.995   4.4393
  3.992   4.4908
  3.989   4.4805
  3.986   4.4599
  3.983   4.4908
  3.980   4.4702
  3.977   4.5114
  3.974   4.5114
  3.971   4.4702
  3.968   4.4496
  3.965   4.4599
  3.962   4.4084
  3.959   4.4393
  3.956   4.4702
  3.953   4.4908
  3.950   4.5423
  3.947   4.5320
  3.944   4.4496
  3.941   4.4702
  3.938   4.5320
  3.935   4.5526
  3.932   4.5217
  3.929   4.5320
  3.926   4.6144
  3.923   4.6659
  3.920   4.6041
  3.917   4.4702
  3.914   4.4805
  3.911   4.5629
  3.908   4.5526
  3.905   4.5320
  3.902   4.5938
  3.899   4.6041
  3.896   4.5732
  3.893   4.6041
  3.890   4.5114
  3.887   4.5217
  3.884   4.5835
  3.882   4.5938
  3.879   4.5011
  3.876   4.5217
  3.873   4.5423
  3.870   4.4908
  3.867   4.5629
  3.864   4.6968
  3.861   4.6350
  3.858   4.6350
  3.856   4.6247
  3.853   4.5629
  3.850   4.5320
  3.847   4.5526
  3.844   4.5423
  3.841   4.6144
  3.838   4.6865
  3.836   4.7174
  3.833   4.6762
  3.830   4.6350
  3.827   4.6041
  3.824   4.6041
  3.822   4.5732
  3.819   4.5526
  3.816   4.5835
  3.813   4.6556
  3.810   4.6556
  3.807   4.6350
  3.805   4.6144
  3.802   4.6659
  3.799   4.6350
  3.796   4.6762
  3.794   4.6762
  3.791   4.6865
  3.788   4.6556
  3.785   4.6659
  3.782   4.6247
  3.780   4.6865
  3.777   4.7483
  3.774   4.7792
  3.771   4.7380
  3.769   4.6762
  3.766   4.6556
  3.763   4.6144
  3.761   4.6453
  3.758   4.6865
  3.755   4.6659
  3.752   4.6968
  3.750   4.7689
  3.747   4.7483
  3.744   4.6350
  3.742   4.6556
  3.739   4.6659
  3.736   4.6247
  3.733   4.6556
  3.731   4.7071
  3.728   4.7380
  3.725   4.7586
  3.723   4.7174
  3.720   4.7586
  3.717   4.7998
  3.715   4.7380
  3.712   4.6762
  3.709   4.6659
  3.707   4.6041
  3.704   4.5732
  3.702   4.4908
  3.699   4.5423
  3.696   4.7071
  3.694   4.7998
  3.691   4.7998
  3.688   4.7895
  3.686   4.7277
  3.683   4.7071
  3.680   4.6865
  3.678   4.6453
  3.675   4.6556
  3.673   4.7483
  3.670   4.7483
  3.667   4.7689
  3.665   4.8307
  3.662   4.7792
  3.660   4.7174
  3.657   4.7483
  3.655   4.7792
  3.652   4.7689
  3.649   4.7586
  3.647   4.7380
  3.644   4.7895
  3.642   4.8513
  3.639   4.7792
  3.637   4.7071
  3.634   4.6762
  3.632   4.6968
  3.629   4.7071
  3.626   4.8101
  3.624   4.8204
  3.621   4.7586
  3.619   4.6968
  3.616   4.7071
  3.614   4.7071
  3.611   4.7586
  3.609   4.7792
  3.606   4.8101
  3.604   4.7998
  3.601   4.8204
  3.599   4.7792
  3.596   4.7689
  3.594   4.7792
  3.591   4.7483
  3.589   4.8204
  3.586   4.9028
  3.584   4.7998
