Name: Rhyolite
Type: Rock
Class: Igneous
Subclass: Felsic
Particle Size: Whole Rock Chips
Sample No.: AP-981-176
Owner: United States Geological Survey, L. C. Rowan
Wavelength range: 0.405 - 14.05 um
Origin: Iberian Pyrite Belt, Spain

Description: Rhyolite, tan, paragonitic





Measurement: Directional Hemispherical Reflectance
First Column: X
Second Column: Y
X Units: Wavelength (micrometers)
Y Units: Reflectance (percent)
First X Value: 14.05105
Last X Value: 0.40500
Number of X Values: 2530
Additional Information: rhy176a.txt

 14.051   2.7604
 14.013   2.7604
 13.975   2.8840
 13.938   2.9973
 13.900   3.1106
 13.863   2.9252
 13.826   2.9767
 13.790   2.8325
 13.753   2.7604
 13.717   2.7192
 13.680   3.0694
 13.644   3.0385
 13.609   2.9458
 13.573   2.8634
 13.538   3.0076
 13.502   3.0900
 13.467   3.1415
 13.432   3.0591
 13.398   3.0797
 13.363   3.0076
 13.329   3.1209
 13.295   3.0900
 13.261   3.2033
 13.227   3.1724
 13.193   3.2239
 13.160   3.3578
 13.126   3.4299
 13.093   3.2857
 13.060   3.3166
 13.027   3.2857
 12.995   3.2960
 12.962   3.2960
 12.930   3.4093
 12.898   3.3887
 12.866   3.4917
 12.834   3.6050
 12.802   3.8213
 12.771   3.8522
 12.739   3.7595
 12.708   3.4917
 12.677   3.2651
 12.646   3.0385
 12.616   3.0282
 12.585   2.9870
 12.554   3.0900
 12.524   3.1621
 12.494   3.2342
 12.464   3.2548
 12.434   3.2033
 12.404   2.9046
 12.375   2.6574
 12.345   2.3896
 12.316   2.2763
 12.287   2.1012
 12.258   2.0497
 12.229   2.1115
 12.200   2.3278
 12.171   2.4308
 12.143   2.5441
 12.115   2.5750
 12.086   2.7707
 12.058   2.8531
 12.030   2.9561
 12.002   2.9870
 11.975   3.1518
 11.947   3.1930
 11.920   3.2960
 11.892   3.3578
 11.865   3.5123
 11.838   3.5535
 11.811   3.6977
 11.784   3.7801
 11.757   3.8831
 11.731   3.8419
 11.704   3.9243
 11.678   3.9861
 11.652   4.1509
 11.626   4.2333
 11.600   4.3157
 11.574   4.2230
 11.548   4.3363
 11.522   4.4187
 11.497   4.5217
 11.471   4.5320
 11.446   4.5629
 11.421   4.5011
 11.396   4.5114
 11.371   4.4908
 11.346   4.5629
 11.321   4.5526
 11.297   4.6865
 11.272   4.6968
 11.248   4.7277
 11.223   4.7174
 11.199   4.7689
 11.175   4.7586
 11.151   4.8513
 11.127   4.9234
 11.103   5.0470
 11.079   4.9440
 11.056   4.8719
 11.032   4.9440
 11.009   5.0676
 10.985   5.0161
 10.962   4.9955
 10.939   5.0058
 10.916   5.0779
 10.893   5.0058
 10.870   5.0367
 10.848   5.0264
 10.825   4.9543
 10.802   4.8925
 10.780   4.9337
 10.758   4.8822
 10.735   4.8410
 10.713   4.7895
 10.691   4.9234
 10.669   4.9646
 10.647   4.9955
 10.625   4.9543
 10.604   4.9337
 10.582   4.8822
 10.560   4.9131
 10.539   4.8616
 10.518   4.8719
 10.496   4.9234
 10.475   5.0779
 10.454   5.0367
 10.433   5.0573
 10.412   5.0264
 10.391   5.0573
 10.370   5.0573
 10.350   5.0985
 10.329   5.0985
 10.309   5.2118
 10.288   5.2427
 10.268   5.3354
 10.247   5.3663
 10.227   5.4693
 10.207   5.4693
 10.187   5.5414
 10.167   5.6444
 10.147   5.8298
 10.127   5.8195
 10.108   5.8401
 10.088   5.9019
 10.068   6.0255
 10.049   6.0461
 10.029   6.2109
 10.010   6.2933
  9.991   6.3551
  9.972   6.3860
  9.952   6.5508
  9.933   6.6435
  9.914   6.7259
  9.895   6.7465
  9.877   6.7980
  9.858   6.8289
  9.839   6.8495
  9.821   6.7362
  9.802   6.6744
  9.783   6.6229
  9.765   6.6847
  9.747   6.8289
  9.728   7.1791
  9.710   7.4675
  9.692   7.7250
  9.674   7.9516
  9.656   8.1988
  9.638   8.3327
  9.620   8.4254
  9.602   8.4048
  9.585   8.4872
  9.567   8.5387
  9.549   8.6108
  9.532   8.5799
  9.514   8.5799
  9.497   8.5078
  9.479   8.5387
  9.462   8.5593
  9.445   8.7035
  9.428   8.8168
  9.411   8.9919
  9.394   9.2597
  9.377   9.6511
  9.360   9.9807
  9.343  10.3515
  9.326  10.6708
  9.309  11.0004
  9.293  11.1446
  9.276  11.1343
  9.259  11.0107
  9.243  10.9798
  9.226  10.9386
  9.210  11.0210
  9.194  10.9386
  9.178  10.8768
  9.161  10.7429
  9.145  10.5472
  9.129  10.3927
  9.113  10.2176
  9.097   9.9704
  9.081   9.8262
  9.065   9.5893
  9.049   9.4142
  9.034   9.2288
  9.018   9.1876
  9.002   9.1464
  8.987   9.1979
  8.971   9.1876
  8.956   9.3421
  8.940   9.5275
  8.925   9.6305
  8.909   9.6614
  8.894   9.6820
  8.879   9.6202
  8.864   9.7232
  8.849   9.8159
  8.834   9.8365
  8.819   9.7026
  8.804   9.5687
  8.789   9.4142
  8.774   9.3112
  8.759   9.2700
  8.744   9.2803
  8.730   9.1670
  8.715   9.1052
  8.700   9.0022
  8.686   8.8683
  8.671   8.6108
  8.657   8.3739
  8.642   8.0031
  8.628   7.6735
  8.614   7.4366
  8.599   7.6632
  8.585   8.0958
  8.571   8.5696
  8.557   8.8683
  8.543   9.0743
  8.529   9.1876
  8.515   9.3833
  8.501   9.4760
  8.487   9.4863
  8.473   9.4245
  8.459   9.4348
  8.445   9.4657
  8.431   9.6099
  8.418   9.6820
  8.404   9.8571
  8.391   9.9601
  8.377  10.0013
  8.363   9.9807
  8.350  10.0322
  8.337  10.1455
  8.323  10.2382
  8.310  10.2588
  8.297  10.3824
  8.283  10.4545
  8.270  10.5472
  8.257  10.6502
  8.244  10.8562
  8.231  11.0107
  8.218  11.1343
  8.205  11.2373
  8.192  11.3300
  8.179  11.3094
  8.166  11.1961
  8.153  10.9283
  8.140  10.6296
  8.128  10.1661
  8.115   9.7438
  8.102   9.2185
  8.090   8.6623
  8.077   8.1164
  8.064   7.6838
  8.052   7.2100
  8.039   6.8083
  8.027   6.3654
  8.015   6.0152
  8.002   5.6959
  7.990   5.3663
  7.978   4.9852
  7.965   4.6968
  7.953   4.4805
  7.941   4.2230
  7.929   3.8728
  7.917   3.6256
  7.905   3.3784
  7.893   3.1930
  7.881   2.9767
  7.869   2.8634
  7.857   2.6677
  7.845   2.5235
  7.833   2.3793
  7.821   2.2660
  7.809   2.1527
  7.798   2.1527
  7.786   2.0806
  7.774   2.0394
  7.763   2.0085
  7.751   1.9879
  7.739   1.9261
  7.728   1.9879
  7.716   1.9570
  7.705   1.8746
  7.694   1.8025
  7.682   1.7201
  7.671   1.5965
  7.659   1.5862
  7.648   1.5656
  7.637   1.5965
  7.626   1.5141
  7.614   1.4729
  7.603   1.4214
  7.592   1.3699
  7.581   1.3184
  7.570   1.3493
  7.559   1.3596
  7.548   1.3287
  7.537   1.2978
  7.526   1.3699
  7.515   1.3493
  7.504   1.3596
  7.493   1.3081
  7.483   1.2154
  7.472   1.1536
  7.461   1.2360
  7.450   1.2566
  7.440   1.2360
  7.429   1.1948
  7.418   1.2772
  7.408   1.2772
  7.397   1.3184
  7.387   1.2978
  7.376   1.1742
  7.366   1.0815
  7.355   1.1536
  7.345   1.2154
  7.334   1.2257
  7.324   1.2566
  7.314   1.2978
  7.303   1.2875
  7.293   1.2566
  7.283   1.2154
  7.273   1.2360
  7.263   1.1948
  7.252   1.2154
  7.242   1.2772
  7.232   1.3184
  7.222   1.3081
  7.212   1.3699
  7.202   1.3699
  7.192   1.3905
  7.182   1.3493
  7.172   1.3390
  7.162   1.2875
  7.152   1.3184
  7.143   1.3390
  7.133   1.3699
  7.123   1.3596
  7.113   1.4008
  7.103   1.4008
  7.094   1.4111
  7.084   1.3596
  7.074   1.3596
  7.065   1.3596
  7.055   1.3699
  7.046   1.3493
  7.036   1.3596
  7.026   1.3905
  7.017   1.4935
  7.007   1.4935
  6.998   1.4523
  6.989   1.4420
  6.979   1.4626
  6.970   1.4523
  6.960   1.4729
  6.951   1.4935
  6.942   1.5656
  6.932   1.5553
  6.923   1.5759
  6.914   1.5862
  6.905   1.5862
  6.896   1.5759
  6.886   1.6377
  6.877   1.6480
  6.868   1.6171
  6.859   1.5965
  6.850   1.5862
  6.841   1.6068
  6.832   1.6789
  6.823   1.6686
  6.814   1.6789
  6.805   1.6789
  6.796   1.7304
  6.787   1.7716
  6.778   1.7716
  6.770   1.7098
  6.761   1.7407
  6.752   1.7304
  6.743   1.7922
  6.734   1.8128
  6.726   1.7819
  6.717   1.7613
  6.708   1.7819
  6.700   1.8025
  6.691   1.8437
  6.682   1.8437
  6.674   1.8437
  6.665   1.8643
  6.657   1.9364
  6.648   1.9158
  6.640   1.8746
  6.631   1.8849
  6.623   1.9261
  6.614   1.9364
  6.606   1.9879
  6.597   1.9982
  6.589   2.0188
  6.581   2.0085
  6.572   2.0394
  6.564   2.0188
  6.556   2.0600
  6.547   2.0394
  6.539   2.0394
  6.531   2.0806
  6.523   2.0909
  6.514   2.0909
  6.506   2.1012
  6.498   2.1527
  6.490   2.1527
  6.482   2.1733
  6.474   2.2866
  6.466   2.3278
  6.458   2.3381
  6.450   2.3587
  6.442   2.3896
  6.434   2.4102
  6.426   2.4308
  6.418   2.4205
  6.410   2.4411
  6.402   2.4514
  6.394   2.4308
  6.386   2.4514
  6.378   2.4514
  6.370   2.4102
  6.363   2.3896
  6.355   2.3278
  6.347   2.3175
  6.339   2.3175
  6.332   2.3278
  6.324   2.3072
  6.316   2.2969
  6.308   2.2866
  6.301   2.2557
  6.293   2.2042
  6.286   2.2454
  6.278   2.2454
  6.270   2.2145
  6.263   2.1424
  6.255   2.1321
  6.248   2.1321
  6.240   2.1321
  6.233   2.0497
  6.225   2.0291
  6.218   2.0806
  6.210   2.1424
  6.203   2.1630
  6.195   2.1836
  6.188   2.1424
  6.181   2.1218
  6.173   2.0909
  6.166   2.1321
  6.159   2.1939
  6.151   2.2145
  6.144   2.2145
  6.137   2.2763
  6.130   2.3072
  6.122   2.3690
  6.115   2.3690
  6.108   2.3072
  6.101   2.3587
  6.094   2.4514
  6.086   2.4617
  6.079   2.5235
  6.072   2.5338
  6.065   2.5338
  6.058   2.5441
  6.051   2.5750
  6.044   2.5441
  6.037   2.5338
  6.030   2.5441
  6.023   2.5544
  6.016   2.5750
  6.009   2.5956
  6.002   2.5956
  5.995   2.5956
  5.988   2.5956
  5.981   2.6471
  5.974   2.6677
  5.967   2.6059
  5.960   2.5750
  5.954   2.5750
  5.947   2.5441
  5.940   2.5441
  5.933   2.5647
  5.926   2.6059
  5.920   2.6471
  5.913   2.6677
  5.906   2.6677
  5.899   2.6883
  5.893   2.7089
  5.886   2.7604
  5.879   2.8119
  5.873   2.8634
  5.866   2.8634
  5.859   2.9046
  5.853   2.9458
  5.846   3.0179
  5.840   3.0591
  5.833   3.1003
  5.827   3.1209
  5.820   3.1415
  5.813   3.1621
  5.807   3.2239
  5.800   3.2136
  5.794   3.2136
  5.788   3.2548
  5.781   3.2960
  5.775   3.3578
  5.768   3.4299
  5.762   3.3578
  5.755   3.3166
  5.749   3.3784
  5.743   3.3887
  5.736   3.4093
  5.730   3.4814
  5.724   3.5329
  5.717   3.5123
  5.711   3.4196
  5.705   3.3990
  5.698   3.4299
  5.692   3.4917
  5.686   3.5020
  5.680   3.4711
  5.674   3.4711
  5.667   3.4608
  5.661   3.4299
  5.655   3.4093
  5.649   3.3681
  5.643   3.3578
  5.637   3.3681
  5.630   3.3681
  5.624   3.3063
  5.618   3.2857
  5.612   3.2445
  5.606   3.2033
  5.600   3.2239
  5.594   3.2754
  5.588   3.2651
  5.582   3.2445
  5.576   3.2239
  5.570   3.2136
  5.564   3.1930
  5.558   3.2136
  5.552   3.2445
  5.546   3.3063
  5.540   3.3372
  5.534   3.3372
  5.528   3.3681
  5.523   3.4093
  5.517   3.4505
  5.511   3.4814
  5.505   3.4917
  5.499   3.5535
  5.493   3.6153
  5.487   3.6771
  5.482   3.7080
  5.476   3.7389
  5.470   3.8007
  5.464   3.8213
  5.459   3.8316
  5.453   3.8728
  5.447   3.8934
  5.441   3.9243
  5.436   3.9552
  5.430   3.9449
  5.424   3.9140
  5.419   3.8728
  5.413   3.8419
  5.407   3.8007
  5.402   3.7286
  5.396   3.6771
  5.390   3.6565
  5.385   3.6050
  5.379   3.5226
  5.374   3.4505
  5.368   3.4402
  5.363   3.4505
  5.357   3.4093
  5.352   3.3784
  5.346   3.3475
  5.341   3.2857
  5.335   3.3372
  5.330   3.3990
  5.324   3.4196
  5.319   3.4505
  5.313   3.4814
  5.308   3.5123
  5.302   3.4917
  5.297   3.5226
  5.291   3.5329
  5.286   3.5329
  5.281   3.5844
  5.275   3.6359
  5.270   3.6977
  5.265   3.7492
  5.259   3.7595
  5.254   3.8213
  5.249   3.8728
  5.243   3.9964
  5.238   4.1200
  5.233   4.1818
  5.227   4.2024
  5.222   4.2539
  5.217   4.3260
  5.212   4.4187
  5.206   4.4702
  5.201   4.5217
  5.196   4.5629
  5.191   4.5732
  5.186   4.6041
  5.180   4.6659
  5.175   4.6247
  5.170   4.5938
  5.165   4.6247
  5.160   4.6865
  5.155   4.7174
  5.150   4.7071
  5.145   4.6968
  5.139   4.7277
  5.134   4.7586
  5.129   4.7380
  5.124   4.6968
  5.119   4.7174
  5.114   4.7483
  5.109   4.7998
  5.104   4.8101
  5.099   4.8307
  5.094   4.8513
  5.089   4.8513
  5.084   4.7998
  5.079   4.7483
  5.074   4.7586
  5.069   4.8101
  5.064   4.8307
  5.059   4.8204
  5.054   4.7895
  5.049   4.7895
  5.044   4.8101
  5.040   4.8101
  5.035   4.7998
  5.030   4.8101
  5.025   4.8204
  5.020   4.8307
  5.015   4.8307
  5.010   4.8101
  5.005   4.8513
  5.001   4.8925
  4.996   4.9028
  4.991   4.8719
  4.986   4.8925
  4.981   5.0161
  4.977   5.1088
  4.972   5.1603
  4.967   5.2839
  4.962   5.3972
  4.958   5.5002
  4.953   5.6238
  4.948   5.7165
  4.943   5.7783
  4.939   5.8195
  4.934   5.9019
  4.929   5.9431
  4.925   5.9225
  4.920   5.9637
  4.915   6.0667
  4.911   6.1697
  4.906   6.2830
  4.901   6.4272
  4.897   6.5714
  4.892   6.7156
  4.888   6.9010
  4.883   7.0967
  4.878   7.2615
  4.874   7.4469
  4.869   7.5911
  4.865   7.6735
  4.860   7.7353
  4.856   7.8177
  4.851   7.9207
  4.846   8.0031
  4.842   8.1164
  4.837   8.2091
  4.833   8.3018
  4.828   8.3636
  4.824   8.3739
  4.819   8.4357
  4.815   8.5078
  4.810   8.5696
  4.806   8.6417
  4.802   8.6314
  4.797   8.5902
  4.793   8.6005
  4.788   8.5902
  4.784   8.6211
  4.779   8.6314
  4.775   8.6726
  4.771   8.7035
  4.766   8.7138
  4.762   8.7447
  4.758   8.8168
  4.753   8.9198
  4.749   9.0125
  4.744   9.0949
  4.740   9.1464
  4.736   9.1979
  4.731   9.2700
  4.727   9.2803
  4.723   9.2700
  4.719   9.3524
  4.714   9.4039
  4.710   9.3833
  4.706   9.3421
  4.701   9.3730
  4.697   9.4348
  4.693   9.4451
  4.689   9.3936
  4.684   9.3833
  4.680   9.3627
  4.676   9.4245
  4.672   9.5275
  4.668   9.5996
  4.663   9.6820
  4.659   9.7541
  4.655   9.7850
  4.651   9.8571
  4.647   9.9292
  4.643  10.0528
  4.638  10.2176
  4.634  10.2794
  4.630  10.3515
  4.626  10.4751
  4.622  10.5781
  4.618  10.6399
  4.614  10.7429
  4.610  10.8665
  4.605  10.9283
  4.601  10.9901
  4.597  11.0107
  4.593  11.0931
  4.589  11.2064
  4.585  11.2167
  4.581  11.2476
  4.577  11.2888
  4.573  11.3609
  4.569  11.4124
  4.565  11.4742
  4.561  11.5257
  4.557  11.5463
  4.553  11.5360
  4.549  11.5669
  4.545  11.5669
  4.541  11.5566
  4.537  11.5566
  4.533  11.5257
  4.529  11.5051
  4.525  11.4742
  4.521  11.3815
  4.517  11.2682
  4.513  11.2064
  4.509  11.1858
  4.505  11.1549
  4.502  11.1034
  4.498  11.0004
  4.494  11.0004
  4.490  11.0004
  4.486  10.9695
  4.482  10.9901
  4.478  10.9901
  4.474  10.9592
  4.470  10.9489
  4.467  10.9077
  4.463  10.9695
  4.459  11.0416
  4.455  11.1446
  4.451  11.2888
  4.447  11.4227
  4.444  11.4536
  4.440  11.5154
  4.436  11.5566
  4.432  11.5669
  4.428  11.6184
  4.425  11.7523
  4.421  11.8656
  4.417  11.9686
  4.413  12.0613
  4.410  12.1128
  4.406  12.1540
  4.402  12.2570
  4.398  12.3909
  4.395  12.4939
  4.391  12.5866
  4.387  12.6381
  4.384  12.6793
  4.380  12.8647
  4.376  13.0707
  4.372  13.1840
  4.369  13.2252
  4.365  13.3282
  4.361  13.3900
  4.358  13.4930
  4.354  13.5651
  4.350  13.6887
  4.347  13.8226
  4.343  13.9050
  4.340  13.9359
  4.336  13.9771
  4.332  13.9977
  4.329  14.1213
  4.325  14.2037
  4.321  14.1625
  4.318  14.1007
  4.314  14.1625
  4.311  14.2655
  4.307  14.2861
  4.304  14.2758
  4.300  14.2861
  4.296  14.2758
  4.293  14.2346
  4.289  14.2964
  4.286  14.3273
  4.282  14.3376
  4.279  14.3273
  4.275  14.3479
  4.272  14.3788
  4.268  14.3685
  4.265  14.3994
  4.261  14.4612
  4.258  14.6363
  4.254  14.7908
  4.251  14.7908
  4.247  14.8217
  4.244  14.9247
  4.240  14.9247
  4.237  14.8423
  4.233  14.7908
  4.230  14.7908
  4.226  14.8938
  4.223  14.9968
  4.219  15.0174
  4.216  15.0483
  4.213  15.1101
  4.209  15.1513
  4.206  15.1822
  4.202  15.2852
  4.199  15.3058
  4.196  15.3470
  4.192  15.3470
  4.189  15.2955
  4.185  15.2955
  4.182  15.3676
  4.179  15.4294
  4.175  15.4500
  4.172  15.4706
  4.169  15.5942
  4.165  15.6045
  4.162  15.6766
  4.159  15.7590
  4.155  15.7075
  4.152  15.6457
  4.149  15.7281
  4.145  15.7590
  4.142  15.8311
  4.139  15.8620
  4.135  15.8414
  4.132  15.8723
  4.129  16.0062
  4.126  16.0268
  4.122  16.0165
  4.119  16.0680
  4.116  16.1092
  4.112  16.0680
  4.109  16.2328
  4.106  16.3564
  4.103  16.3049
  4.099  16.3667
  4.096  16.4079
  4.093  16.3976
  4.090  16.4491
  4.086  16.4388
  4.083  16.4903
  4.080  16.4594
  4.077  16.4182
  4.074  16.5006
  4.070  16.6036
  4.067  16.6551
  4.064  16.6345
  4.061  16.5727
  4.058  16.5624
  4.055  16.6036
  4.051  16.6860
  4.048  16.6757
  4.045  16.6654
  4.042  16.7272
  4.039  16.6654
  4.036  16.5418
  4.032  16.5830
  4.029  16.7066
  4.026  16.7581
  4.023  16.7375
  4.020  16.7375
  4.017  16.6654
  4.014  16.5727
  4.011  16.5315
  4.008  16.5830
  4.004  16.6757
  4.001  16.7478
  3.998  16.7066
  3.995  16.7169
  3.992  16.7684
  3.989  16.7684
  3.986  16.7478
  3.983  16.8817
  3.980  16.9126
  3.977  16.9023
  3.974  16.8920
  3.971  16.8405
  3.968  16.7890
  3.965  16.8199
  3.962  16.8817
  3.959  16.9744
  3.956  17.0774
  3.953  17.1804
  3.950  17.1907
  3.947  17.1083
  3.944  17.0053
  3.941  17.0671
  3.938  17.1083
  3.935  17.1289
  3.932  17.0774
  3.929  17.1392
  3.926  17.1289
  3.923  17.1804
  3.920  17.2113
  3.917  17.2010
  3.914  17.2113
  3.911  17.2319
  3.908  17.2422
  3.905  17.3143
  3.902  17.3452
  3.899  17.3555
  3.896  17.2422
  3.893  17.2113
  3.890  17.2525
  3.887  17.3143
  3.884  17.2422
  3.882  17.1907
  3.879  17.1495
  3.876  17.1701
  3.873  17.2113
  3.870  17.1186
  3.867  17.0465
  3.864  17.1907
  3.861  17.2113
  3.858  17.1804
  3.856  17.1083
  3.853  17.1289
  3.850  17.2010
  3.847  17.1907
  3.844  17.0671
  3.841  17.0568
  3.838  17.1083
  3.836  17.0877
  3.833  17.1083
  3.830  17.2834
  3.827  17.3040
  3.824  17.2113
  3.822  17.1289
  3.819  17.1289
  3.816  17.1495
  3.813  17.1598
  3.810  17.0980
  3.807  17.1598
  3.805  17.1804
  3.802  17.1701
  3.799  17.0774
  3.796  17.0259
  3.794  17.0362
  3.791  17.0568
  3.788  17.0465
  3.785  17.0671
  3.782  17.0259
  3.780  17.0465
  3.777  17.0465
  3.774  17.0877
  3.771  17.0053
  3.769  16.8405
  3.766  16.7684
  3.763  16.7890
  3.761  16.7787
  3.758  16.7684
  3.755  16.7993
  3.752  16.7581
  3.750  16.6654
  3.747  16.6860
  3.744  16.6139
  3.742  16.5624
  3.739  16.6345
  3.736  16.6757
  3.733  16.6448
  3.731  16.6551
  3.728  16.5933
  3.725  16.4903
  3.723  16.3873
  3.720  16.3770
  3.717  16.4182
  3.715  16.4800
  3.712  16.5006
  3.709  16.4903
  3.707  16.4697
  3.704  16.4594
  3.702  16.3667
  3.699  16.3358
  3.696  16.3770
  3.694  16.4697
  3.691  16.4697
  3.688  16.3976
  3.686  16.2431
  3.683  16.2122
  3.680  16.2843
  3.678  16.3564
  3.675  16.2946
  3.673  16.2740
  3.670  16.2843
  3.667  16.2843
  3.665  16.1916
  3.662  16.3049
  3.660  16.2843
  3.657  16.1607
  3.655  16.0474
  3.652  16.0268
  3.649  15.9650
  3.647  15.8929
  3.644  15.8723
  3.642  15.9032
  3.639  15.8929
  3.637  15.8826
  3.634  15.8002
  3.632  15.7590
  3.629  15.7075
  3.626  15.7075
  3.624  15.7075
  3.621  15.6663
  3.619  15.5633
  3.616  15.5015
  3.614  15.5015
  3.611  15.4809
  3.609  15.4294
  3.606  15.4088
  3.604  15.3573
  3.601  15.2543
  3.599  15.1616
  3.596  15.2028
  3.594  15.2028
  3.591  15.2234
  3.589  15.1204
  3.586  14.9453
  3.584  14.8732
