Name: Basalt
Type: Rock
Class: Igneous
Subclass: Mafic
Particle Size: Whole rock chips
Sample No.: ME10B
Owner: Lawrence Rowan, USGS Reston
Wavelength range: 0.40 - 14.05 um
Origin: Wadi Hasa, South Jordan

Description: Basalt, fresh surface





Measurement: Directional Hemispherical Reflectance
First Column: X
Second Column: Y
X Units: Wavelength (micrometers)
Y Units: Reflectance (percent)
First X Value: 14.05105
Last X Value: 0.40000
Number of X Values: 2231
Additional Information: me10Ba.txt

 14.051   3.6256
 14.013   3.2136
 13.975   3.3990
 13.938   3.6050
 13.900   3.5123
 13.863   3.2136
 13.826   3.0488
 13.790   2.9870
 13.753   3.0076
 13.717   2.9561
 13.680   3.1003
 13.644   3.0694
 13.609   3.0797
 13.573   2.9767
 13.538   2.8634
 13.502   2.7707
 13.467   2.9561
 13.432   3.0385
 13.398   3.0797
 13.363   3.0488
 13.329   3.1415
 13.295   3.0179
 13.261   3.0282
 13.227   3.1209
 13.193   3.1621
 13.160   3.0797
 13.126   3.1209
 13.093   3.1827
 13.060   3.2754
 13.027   3.1621
 12.995   3.1827
 12.962   3.1518
 12.930   3.0694
 12.898   3.0694
 12.866   3.2342
 12.834   3.2342
 12.802   3.2754
 12.771   3.2857
 12.739   3.3269
 12.708   3.3990
 12.677   3.4814
 12.646   3.5123
 12.616   3.5638
 12.585   3.5226
 12.554   3.6153
 12.524   3.7801
 12.494   3.9140
 12.464   3.8419
 12.434   3.8728
 12.404   3.9449
 12.375   3.9861
 12.345   3.9243
 12.316   3.9655
 12.287   3.9964
 12.258   4.1818
 12.229   4.3260
 12.200   4.4599
 12.171   4.4599
 12.143   4.5320
 12.115   4.4702
 12.086   4.4908
 12.058   4.6041
 12.030   4.6659
 12.002   4.7277
 11.975   4.9440
 11.947   4.9543
 11.920   4.9749
 11.892   5.0470
 11.865   5.2221
 11.838   5.2633
 11.811   5.4384
 11.784   5.5929
 11.757   5.6650
 11.731   5.6650
 11.704   5.8401
 11.678   5.9328
 11.652   5.9843
 11.626   6.0667
 11.600   6.3036
 11.574   6.4581
 11.548   6.5611
 11.522   6.5508
 11.497   6.6332
 11.471   6.6641
 11.446   6.7568
 11.421   6.8804
 11.396   7.0246
 11.371   7.0246
 11.346   7.0452
 11.321   6.9731
 11.297   7.0349
 11.272   7.1482
 11.248   7.3851
 11.223   7.4057
 11.199   7.3748
 11.175   7.3645
 11.151   7.3851
 11.127   7.4366
 11.103   7.6323
 11.079   7.6323
 11.056   7.6632
 11.032   7.6735
 11.009   7.7147
 10.985   7.7868
 10.962   7.9207
 10.939   7.9825
 10.916   8.0752
 10.893   8.2091
 10.870   8.3224
 10.848   8.2091
 10.825   8.2915
 10.802   8.3224
 10.780   8.2606
 10.758   8.1885
 10.735   8.2400
 10.713   8.3636
 10.691   8.5490
 10.669   8.6211
 10.647   8.7344
 10.625   8.8065
 10.604   9.0331
 10.582   9.1361
 10.560   9.3318
 10.539   9.4657
 10.518   9.6408
 10.496   9.9292
 10.475  10.1043
 10.454  10.2691
 10.433  10.6193
 10.412  10.7738
 10.391  10.9592
 10.370  11.2064
 10.350  11.5051
 10.329  11.6184
 10.309  11.6802
 10.288  11.7317
 10.268  11.8656
 10.247  11.9171
 10.227  12.0304
 10.207  12.1540
 10.187  12.2570
 10.167  12.2673
 10.147  12.2776
 10.127  12.4115
 10.108  12.5351
 10.088  12.5866
 10.068  12.7205
 10.049  12.8853
 10.029  13.1325
 10.010  13.3076
  9.991  13.5239
  9.972  13.7093
  9.952  13.8329
  9.933  13.9359
  9.914  14.1625
  9.895  14.3273
  9.877  14.4818
  9.858  14.4715
  9.839  14.5436
  9.821  14.6569
  9.802  14.7290
  9.783  14.7702
  9.765  14.8526
  9.747  14.8320
  9.728  14.7702
  9.710  14.8217
  9.692  15.0174
  9.674  15.0586
  9.656  15.1204
  9.638  15.2440
  9.620  15.3779
  9.602  15.3676
  9.585  15.4294
  9.567  15.3676
  9.549  15.2646
  9.532  15.1513
  9.514  15.0380
  9.497  14.8423
  9.479  14.6569
  9.462  14.3273
  9.445  14.0183
  9.428  13.6475
  9.411  13.3385
  9.394  13.0707
  9.377  12.8750
  9.360  12.5866
  9.343  12.3188
  9.326  12.0098
  9.309  11.8141
  9.293  11.6699
  9.276  11.6802
  9.259  11.6184
  9.243  11.6081
  9.226  11.5669
  9.210  11.5360
  9.194  11.4845
  9.178  11.4742
  9.161  11.4639
  9.145  11.6081
  9.129  11.6802
  9.113  11.7111
  9.097  11.7008
  9.081  11.6596
  9.065  11.5669
  9.049  11.4330
  9.034  11.2167
  9.018  11.0931
  9.002  10.8459
  8.987  10.5884
  8.971  10.2485
  8.956   9.9807
  8.940   9.7541
  8.925   9.5172
  8.909   9.1773
  8.894   8.8580
  8.879   8.4151
  8.864   7.9928
  8.849   7.6632
  8.834   7.4366
  8.819   7.1894
  8.804   6.8289
  8.789   6.4169
  8.774   6.1697
  8.759   5.9431
  8.744   5.8195
  8.730   5.6341
  8.715   5.3766
  8.700   5.1294
  8.686   4.9543
  8.671   4.7380
  8.657   4.6041
  8.642   4.5114
  8.628   4.4908
  8.614   4.3363
  8.599   4.1715
  8.585   4.0994
  8.571   4.1097
  8.557   4.0067
  8.543   3.9346
  8.529   3.8728
  8.515   3.8110
  8.501   3.6874
  8.487   3.6256
  8.473   3.5329
  8.459   3.4814
  8.445   3.3784
  8.431   3.3578
  8.418   3.3681
  8.404   3.4608
  8.391   3.4196
  8.377   3.3063
  8.363   3.2651
  8.350   3.2651
  8.337   3.1209
  8.323   3.1209
  8.310   3.1312
  8.297   3.1724
  8.283   3.0694
  8.270   3.0179
  8.257   2.9561
  8.244   2.9561
  8.231   2.8840
  8.218   2.8634
  8.205   2.8325
  8.192   2.8016
  8.179   2.7810
  8.166   2.7295
  8.153   2.6986
  8.140   2.7089
  8.128   2.6265
  8.115   2.6471
  8.102   2.6574
  8.090   2.6265
  8.077   2.5544
  8.064   2.4823
  8.052   2.4514
  8.039   2.6162
  8.027   2.6162
  8.015   2.5647
  8.002   2.5029
  7.990   2.5647
  7.978   2.5956
  7.965   2.5647
  7.953   2.5029
  7.941   2.5750
  7.929   2.5441
  7.917   2.6059
  7.905   2.5750
  7.893   2.5544
  7.881   2.5647
  7.869   2.6162
  7.857   2.5647
  7.845   2.4823
  7.833   2.4823
  7.821   2.6265
  7.809   2.6780
  7.798   2.6471
  7.786   2.5647
  7.774   2.6059
  7.763   2.6162
  7.751   2.6368
  7.739   2.5956
  7.728   2.6059
  7.716   2.6883
  7.705   2.7192
  7.694   2.7089
  7.682   2.7501
  7.671   2.7089
  7.659   2.6471
  7.648   2.6780
  7.637   2.7810
  7.626   2.7604
  7.614   2.7810
  7.603   2.7604
  7.592   2.7501
  7.581   2.7913
  7.570   2.8531
  7.559   2.8325
  7.548   2.8737
  7.537   2.8943
  7.526   2.9046
  7.515   2.8325
  7.504   2.7913
  7.493   2.8531
  7.483   2.8840
  7.472   2.8222
  7.461   2.8943
  7.450   2.9252
  7.440   2.8737
  7.429   2.8531
  7.418   2.8840
  7.408   2.8531
  7.397   2.8840
  7.387   2.8943
  7.376   2.9149
  7.366   2.9252
  7.355   2.9252
  7.345   2.9252
  7.334   2.9458
  7.324   2.9458
  7.314   2.9870
  7.303   2.9664
  7.293   2.9355
  7.283   2.9870
  7.273   2.9870
  7.263   2.9458
  7.252   2.9561
  7.242   2.9458
  7.232   3.0282
  7.222   3.0385
  7.212   3.0694
  7.202   3.0385
  7.192   2.9973
  7.182   3.0385
  7.172   3.0797
  7.162   3.0385
  7.152   3.1003
  7.143   3.0797
  7.133   3.0797
  7.123   3.0591
  7.113   3.0694
  7.103   3.0694
  7.094   3.0591
  7.084   3.0591
  7.074   3.1209
  7.065   3.1724
  7.055   3.1621
  7.046   3.1724
  7.036   3.2239
  7.026   3.1621
  7.017   3.1827
  7.007   3.1724
  6.998   3.1827
  6.989   3.2239
  6.979   3.2548
  6.970   3.2239
  6.960   3.2239
  6.951   3.2136
  6.942   3.2033
  6.932   3.2342
  6.923   3.2445
  6.914   3.2445
  6.905   3.2960
  6.896   3.3063
  6.886   3.2651
  6.877   3.2857
  6.868   3.2857
  6.859   3.2960
  6.850   3.3269
  6.841   3.2857
  6.832   3.3269
  6.823   3.3063
  6.814   3.2445
  6.805   3.2651
  6.796   3.2754
  6.787   3.2857
  6.778   3.2754
  6.770   3.2548
  6.761   3.3166
  6.752   3.2651
  6.743   3.2342
  6.734   3.2239
  6.726   3.2960
  6.717   3.2857
  6.708   3.2960
  6.700   3.2754
  6.691   3.2548
  6.682   3.2857
  6.674   3.3784
  6.665   3.3166
  6.657   3.2342
  6.648   3.2239
  6.640   3.3269
  6.631   3.3990
  6.623   3.3578
  6.614   3.2548
  6.606   3.2857
  6.597   3.3475
  6.589   3.3887
  6.581   3.3269
  6.572   3.3887
  6.564   3.4814
  6.556   3.4402
  6.547   3.3887
  6.539   3.4711
  6.531   3.4196
  6.523   3.3475
  6.514   3.3475
  6.506   3.3784
  6.498   3.3990
  6.490   3.5226
  6.482   3.5226
  6.474   3.5432
  6.466   3.5329
  6.458   3.5020
  6.450   3.4505
  6.442   3.3887
  6.434   3.3784
  6.426   3.4299
  6.418   3.4608
  6.410   3.5947
  6.402   3.6359
  6.394   3.5535
  6.386   3.4196
  6.378   3.3681
  6.370   3.3990
  6.363   3.4917
  6.355   3.4814
  6.347   3.4402
  6.339   3.4196
  6.332   3.3990
  6.324   3.4093
  6.316   3.4196
  6.308   3.3784
  6.301   3.4093
  6.293   3.4299
  6.286   3.4196
  6.278   3.4093
  6.270   3.4505
  6.263   3.3681
  6.255   3.3166
  6.248   3.3372
  6.240   3.3063
  6.233   3.2651
  6.225   3.2651
  6.218   3.2754
  6.210   3.3475
  6.203   3.2857
  6.195   3.1930
  6.188   3.1827
  6.181   3.2754
  6.173   3.2754
  6.166   3.1827
  6.159   3.1930
  6.151   3.2136
  6.144   3.1518
  6.137   3.1209
  6.130   3.1106
  6.122   3.0694
  6.115   3.1003
  6.108   3.1930
  6.101   3.1827
  6.094   3.1724
  6.086   3.1518
  6.079   3.1518
  6.072   3.1724
  6.065   3.2136
  6.058   3.2033
  6.051   3.2548
  6.044   3.3475
  6.037   3.2445
  6.030   3.1518
  6.023   3.2136
  6.016   3.2239
  6.009   3.2445
  6.002   3.2651
  5.995   3.2754
  5.988   3.3166
  5.981   3.3681
  5.974   3.3578
  5.967   3.3269
  5.960   3.2857
  5.954   3.2960
  5.947   3.3784
  5.940   3.5020
  5.933   3.5741
  5.926   3.5329
  5.920   3.4196
  5.913   3.3990
  5.906   3.4299
  5.899   3.5226
  5.893   3.6462
  5.886   3.6256
  5.879   3.6462
  5.873   3.6565
  5.866   3.5844
  5.859   3.6565
  5.853   3.7183
  5.846   3.6874
  5.840   3.6565
  5.833   3.7080
  5.827   3.7286
  5.820   3.7286
  5.813   3.7286
  5.807   3.6977
  5.800   3.7183
  5.794   3.7286
  5.788   3.6977
  5.781   3.7595
  5.775   3.7904
  5.768   3.8316
  5.762   3.9655
  5.755   3.9346
  5.749   3.8419
  5.743   3.9037
  5.736   3.8934
  5.730   3.8728
  5.724   3.8728
  5.717   3.8625
  5.711   3.8522
  5.705   3.8934
  5.698   3.9243
  5.692   3.9552
  5.686   3.9552
  5.680   3.9449
  5.674   3.9655
  5.667   3.9861
  5.661   3.9861
  5.655   4.0170
  5.649   4.0273
  5.643   4.0582
  5.637   4.0891
  5.630   4.0067
  5.624   3.9449
  5.618   3.9758
  5.612   4.0067
  5.606   4.0067
  5.600   4.0170
  5.594   4.0582
  5.588   4.0067
  5.582   3.9758
  5.576   4.0376
  5.570   4.1303
  5.564   4.1097
  5.558   4.0273
  5.552   4.0067
  5.546   4.0891
  5.540   4.1097
  5.534   4.1097
  5.528   4.0994
  5.523   4.0479
  5.517   4.0685
  5.511   4.1200
  5.505   4.1303
  5.499   4.1509
  5.493   4.1509
  5.487   4.1406
  5.482   4.1818
  5.476   4.2024
  5.470   4.1612
  5.464   4.1818
  5.459   4.1921
  5.453   4.1509
  5.447   4.1200
  5.441   4.1200
  5.436   4.1406
  5.430   4.1818
  5.424   4.2230
  5.419   4.2642
  5.413   4.2333
  5.407   4.2230
  5.402   4.2333
  5.396   4.2230
  5.390   4.2333
  5.385   4.2539
  5.379   4.2333
  5.374   4.2539
  5.368   4.2848
  5.363   4.2539
  5.357   4.2230
  5.352   4.2127
  5.346   4.2024
  5.341   4.2333
  5.335   4.2848
  5.330   4.3157
  5.324   4.2951
  5.319   4.2539
  5.313   4.2230
  5.308   4.2848
  5.302   4.3054
  5.297   4.2539
  5.291   4.2024
  5.286   4.2024
  5.281   4.2539
  5.275   4.2848
  5.270   4.2642
  5.265   4.2745
  5.259   4.3157
  5.254   4.3466
  5.249   4.3260
  5.243   4.3260
  5.238   4.3569
  5.233   4.3672
  5.227   4.3260
  5.222   4.2951
  5.217   4.3569
  5.212   4.3569
  5.206   4.3569
  5.201   4.4084
  5.196   4.3363
  5.191   4.3466
  5.186   4.3672
  5.180   4.3054
  5.175   4.2539
  5.170   4.2848
  5.165   4.3363
  5.160   4.3054
  5.155   4.2951
  5.150   4.2848
  5.145   4.2642
  5.139   4.2951
  5.134   4.3157
  5.129   4.3054
  5.124   4.3054
  5.119   4.3054
  5.114   4.3157
  5.109   4.3260
  5.104   4.3260
  5.099   4.3363
  5.094   4.3260
  5.089   4.3157
  5.084   4.3363
  5.079   4.3569
  5.074   4.3878
  5.069   4.4187
  5.064   4.4496
  5.059   4.4187
  5.054   4.3363
  5.049   4.3363
  5.044   4.3466
  5.040   4.3363
  5.035   4.3672
  5.030   4.3672
  5.025   4.3363
  5.020   4.3363
  5.015   4.4290
  5.010   4.4805
  5.005   4.4702
  5.001   4.4187
  4.996   4.4290
  4.991   4.4599
  4.986   4.4805
  4.981   4.4393
  4.977   4.3981
  4.972   4.4084
  4.967   4.4393
  4.962   4.4496
  4.958   4.4393
  4.953   4.4393
  4.948   4.4496
  4.943   4.4393
  4.939   4.4599
  4.934   4.4908
  4.929   4.4702
  4.925   4.4805
  4.920   4.5423
  4.915   4.5629
  4.911   4.5320
  4.906   4.5629
  4.901   4.5217
  4.897   4.4805
  4.892   4.4702
  4.888   4.4805
  4.883   4.5217
  4.878   4.5320
  4.874   4.5217
  4.869   4.5320
  4.865   4.5217
  4.860   4.4805
  4.856   4.5320
  4.851   4.5938
  4.846   4.5938
  4.842   4.5526
  4.837   4.5732
  4.833   4.6041
  4.828   4.5629
  4.824   4.6041
  4.819   4.6556
  4.815   4.6762
  4.810   4.6350
  4.806   4.6247
  4.802   4.6350
  4.797   4.6041
  4.793   4.5629
  4.788   4.5629
  4.784   4.5938
  4.779   4.6247
  4.775   4.6144
  4.771   4.6041
  4.766   4.6144
  4.762   4.6968
  4.758   4.7792
  4.753   4.6865
  4.749   4.6350
  4.744   4.6762
  4.740   4.7174
  4.736   4.7174
  4.731   4.7380
  4.727   4.7689
  4.723   4.6865
  4.719   4.6556
  4.714   4.6556
  4.710   4.6865
  4.706   4.7483
  4.701   4.7483
  4.697   4.7689
  4.693   4.7689
  4.689   4.7483
  4.684   4.7380
  4.680   4.7483
  4.676   4.7277
  4.672   4.7689
  4.668   4.7689
  4.663   4.7689
  4.659   4.8101
  4.655   4.8101
  4.651   4.8513
  4.647   4.7998
  4.643   4.7380
  4.638   4.7689
  4.634   4.8101
  4.630   4.8513
  4.626   4.8307
  4.622   4.8101
  4.618   4.7895
  4.614   4.8204
  4.610   4.8204
  4.605   4.8513
  4.601   4.9337
  4.597   4.9440
  4.593   4.8822
  4.589   4.8822
  4.585   4.8513
  4.581   4.8101
  4.577   4.8616
  4.573   4.9337
  4.569   4.9749
  4.565   4.9955
  4.561   4.9646
  4.557   4.8513
  4.553   4.8410
  4.549   4.8925
  4.545   4.8822
  4.541   4.9337
  4.537   4.9543
  4.533   4.9749
  4.529   4.9440
  4.525   4.8822
  4.521   4.8822
  4.517   4.9749
  4.513   4.9749
  4.509   4.9749
  4.505   5.0161
  4.502   5.0058
  4.498   4.9852
  4.494   4.9955
  4.490   5.0470
  4.486   5.0161
  4.482   4.9852
  4.478   5.0264
  4.474   5.0367
  4.470   5.0573
  4.467   5.0058
  4.463   5.0161
  4.459   5.0470
  4.455   5.0470
  4.451   5.0470
  4.447   5.1397
  4.444   5.1294
  4.440   5.0470
  4.436   5.0264
  4.432   5.0367
  4.428   5.0676
  4.425   5.0676
  4.421   5.0676
  4.417   5.0882
  4.413   5.1088
  4.410   5.0676
  4.406   5.0573
  4.402   5.0573
  4.398   4.9852
  4.395   5.0058
  4.391   5.0882
  4.387   5.1191
  4.384   5.1191
  4.380   5.0882
  4.376   5.0367
  4.372   5.0985
  4.369   5.1294
  4.365   5.1706
  4.361   5.0882
  4.358   5.0573
  4.354   5.0676
  4.350   5.2015
  4.347   5.1809
  4.343   5.1088
  4.340   5.1500
  4.336   5.1500
  4.332   5.1088
  4.329   5.0573
  4.325   5.0058
  4.321   4.9955
  4.318   5.0573
  4.314   5.0676
  4.311   5.1191
  4.307   5.1500
  4.304   5.0985
  4.300   5.0573
  4.296   5.1397
  4.293   5.1603
  4.289   5.1603
  4.286   5.1809
  4.282   5.1809
  4.279   5.1912
  4.275   5.1912
  4.272   5.1809
  4.268   5.2015
  4.265   5.1809
  4.261   5.0882
  4.258   5.1603
  4.254   5.2221
  4.251   5.1706
  4.247   5.2015
  4.244   5.2839
  4.240   5.3045
  4.237   5.3251
  4.233   5.3045
  4.230   5.2942
  4.226   5.2736
  4.223   5.2839
  4.219   5.2839
  4.216   5.2839
  4.213   5.1809
  4.209   5.0676
  4.206   5.1912
  4.202   5.3972
  4.199   5.3045
  4.196   5.2427
  4.192   5.1809
  4.189   5.1603
  4.185   5.1706
  4.182   5.1809
  4.179   5.2839
  4.175   5.3457
  4.172   5.3045
  4.169   5.3045
  4.165   5.2324
  4.162   5.1912
  4.159   5.1603
  4.155   5.2118
  4.152   5.3354
  4.149   5.3354
  4.145   5.2530
  4.142   5.2118
  4.139   5.2427
  4.135   5.2942
  4.132   5.2221
  4.129   5.2221
  4.126   5.2118
  4.122   5.2324
  4.119   5.2324
  4.116   5.3457
  4.112   5.4590
  4.109   5.4281
  4.106   5.3148
  4.103   5.2118
  4.099   5.2118
  4.096   5.1912
  4.093   5.2427
  4.090   5.3354
  4.086   5.3045
  4.083   5.2530
  4.080   5.2633
  4.077   5.2839
  4.074   5.3663
  4.070   5.3663
  4.067   5.2736
  4.064   5.3148
  4.061   5.3457
  4.058   5.4178
  4.055   5.4075
  4.051   5.3251
  4.048   5.3354
  4.045   5.3457
  4.042   5.2530
  4.039   5.2427
  4.036   5.2633
  4.032   5.3148
  4.029   5.2839
  4.026   5.2839
  4.023   5.3251
  4.020   5.3972
  4.017   5.2736
  4.014   5.2427
  4.011   5.3045
  4.008   5.3045
  4.004   5.3457
  4.001   5.3560
  3.998   5.2324
  3.995   5.3045
  3.992   5.4178
  3.989   5.3251
  3.986   5.2118
  3.983   5.2530
  3.980   5.2427
  3.977   5.1603
  3.974   5.2118
  3.971   5.3663
  3.968   5.3869
  3.965   5.4075
  3.962   5.4178
  3.959   5.4075
  3.956   5.3766
  3.953   5.3354
  3.950   5.3560
  3.947   5.3251
  3.944   5.2736
  3.941   5.3663
  3.938   5.4075
  3.935   5.3148
  3.932   5.2839
  3.929   5.3148
  3.926   5.3148
  3.923   5.2530
  3.920   5.2221
  3.917   5.3148
  3.914   5.3354
  3.911   5.4178
  3.908   5.3869
  3.905   5.2530
  3.902   5.2633
  3.899   5.3663
  3.896   5.3354
  3.893   5.3045
  3.890   5.3560
  3.887   5.3560
  3.884   5.3457
  3.882   5.4281
  3.879   5.4693
  3.876   5.4796
  3.873   5.3354
  3.870   5.3148
  3.867   5.4281
  3.864   5.4384
  3.861   5.3766
  3.858   5.3663
  3.856   5.3457
  3.853   5.3766
  3.850   5.3972
  3.847   5.3972
  3.844   5.3045
  3.841   5.3972
  3.838   5.4899
  3.836   5.4487
  3.833   5.3457
  3.830   5.3972
  3.827   5.4487
  3.824   5.3869
  3.822   5.3045
  3.819   5.3663
  3.816   5.4281
  3.813   5.3869
  3.810   5.3560
  3.807   5.3560
  3.805   5.3251
  3.802   5.4178
  3.799   5.4075
  3.796   5.3251
  3.794   5.2839
  3.791   5.3869
  3.788   5.3663
  3.785   5.3766
  3.782   5.4693
  3.780   5.4384
  3.777   5.4384
  3.774   5.4178
  3.771   5.2942
  3.769   5.3148
  3.766   5.3251
  3.763   5.2530
  3.761   5.2942
  3.758   5.3560
  3.755   5.2839
  3.752   5.2736
  3.750   5.3766
  3.747   5.3972
  3.744   5.3148
  3.742   5.3972
  3.739   5.4178
  3.736   5.4487
  3.733   5.3972
  3.731   5.3354
  3.728   5.3766
  3.725   5.3869
  3.723   5.2839
  3.720   5.2839
  3.717   5.2633
  3.715   5.2427
  3.712   5.2839
  3.709   5.3045
  3.707   5.3251
  3.704   5.4487
  3.702   5.4590
  3.699   5.4075
  3.696   5.3354
  3.694   5.2839
  3.691   5.3457
  3.688   5.3972
  3.686   5.2942
  3.683   5.2324
  3.680   5.3560
  3.678   5.4693
  3.675   5.3766
  3.673   5.2530
  3.670   5.1912
  3.667   5.2221
  3.665   5.2530
  3.662   5.3251
  3.660   5.2324
  3.657   5.1706
  3.655   5.2530
  3.652   5.4281
  3.649   5.3972
  3.647   5.2530
  3.644   5.2736
  3.642   5.3457
  3.639   5.3045
  3.637   5.3560
  3.634   5.4178
  3.632   5.4075
  3.629   5.2633
  3.626   5.2118
  3.624   5.3663
  3.621   5.4384
  3.619   5.3457
  3.616   5.2633
  3.614   5.2736
  3.611   5.2633
  3.609   5.2633
  3.606   5.2118
  3.604   5.1397
  3.601   5.2324
  3.599   5.2530
  3.596   5.3045
  3.594   5.2015
  3.591   5.1706
  3.589   5.3663
  3.586   5.3560
  3.584   5.2633
  3.581   5.2839
  3.579   5.2427
