Name: Basalt
Type: Rock
Class: Igneous
Subclass: Mafic
Particle Size: Whole rock chips
Sample No.: me15a
Owner: Lawrence Rowan, USGS Reston
Wavelength range: 0.40 - 14.05 um
Origin: North Irbrd, Jordan

Description: Basalt, fresh surface





Measurement: Directional Hemispherical Reflectance
First Column: X
Second Column: Y
X Units: Wavelength (micrometers)
Y Units: Reflectance (percent)
First X Value: 14.05105
Last X Value: 0.40000
Number of X Values: 2231
Additional Information: me15aa.txt

 14.051   2.8840
 14.013   2.6265
 13.975   2.7810
 13.938   2.8531
 13.900   2.9561
 13.863   2.8943
 13.826   2.8428
 13.790   2.9149
 13.753   3.0282
 13.717   2.8428
 13.680   2.8325
 13.644   2.7707
 13.609   2.8428
 13.573   2.8634
 13.538   2.9767
 13.502   3.0385
 13.467   3.1003
 13.432   3.0179
 13.398   3.0900
 13.363   3.1209
 13.329   3.1621
 13.295   3.1621
 13.261   3.2342
 13.227   3.0694
 13.193   2.9973
 13.160   2.9870
 13.126   3.1106
 13.093   3.1209
 13.060   3.1312
 13.027   3.1724
 12.995   3.2548
 12.962   3.1827
 12.930   3.1930
 12.898   3.2445
 12.866   3.3166
 12.834   3.1827
 12.802   3.2239
 12.771   3.1518
 12.739   3.0694
 12.708   3.1106
 12.677   3.3475
 12.646   3.3578
 12.616   3.3784
 12.585   3.3990
 12.554   3.4505
 12.524   3.4196
 12.494   3.4608
 12.464   3.5020
 12.434   3.6462
 12.404   3.6359
 12.375   3.7595
 12.345   3.7595
 12.316   3.7904
 12.287   3.9346
 12.258   4.0994
 12.229   4.1303
 12.200   4.2436
 12.171   4.2848
 12.143   4.2745
 12.115   4.2848
 12.086   4.5320
 12.058   4.6247
 12.030   4.6968
 12.002   4.7689
 11.975   4.7998
 11.947   4.7586
 11.920   4.8719
 11.892   4.8410
 11.865   4.8513
 11.838   4.9646
 11.811   5.1706
 11.784   5.2942
 11.757   5.3251
 11.731   5.2839
 11.704   5.4899
 11.678   5.6032
 11.652   5.7268
 11.626   5.7886
 11.600   5.9122
 11.574   5.9946
 11.548   6.1903
 11.522   6.3345
 11.497   6.4787
 11.471   6.6332
 11.446   6.8701
 11.421   7.0452
 11.396   7.2821
 11.371   7.4057
 11.346   7.6323
 11.321   7.8280
 11.297   8.0546
 11.272   8.0649
 11.248   7.9928
 11.223   7.8074
 11.199   7.6323
 11.175   7.5808
 11.151   7.6426
 11.127   7.6838
 11.103   7.7353
 11.079   7.7456
 11.056   7.8177
 11.032   7.7662
 11.009   7.8486
 10.985   8.0134
 10.962   8.1782
 10.939   8.1782
 10.916   8.1988
 10.893   8.2400
 10.870   8.2812
 10.848   8.2194
 10.825   8.2606
 10.802   8.2812
 10.780   8.3224
 10.758   8.3018
 10.735   8.2503
 10.713   8.1576
 10.691   8.1473
 10.669   8.0958
 10.647   8.1164
 10.625   8.0855
 10.604   8.1061
 10.582   8.1370
 10.560   8.1885
 10.539   8.1164
 10.518   8.0855
 10.496   8.0752
 10.475   8.1679
 10.454   8.2400
 10.433   8.3430
 10.412   8.3533
 10.391   8.3945
 10.370   8.3533
 10.350   8.3430
 10.329   8.2709
 10.309   8.2297
 10.288   8.1885
 10.268   8.2297
 10.247   8.1679
 10.227   8.1473
 10.207   8.1164
 10.187   8.1267
 10.167   8.0546
 10.147   8.0340
 10.127   8.0752
 10.108   8.1782
 10.088   8.1885
 10.068   8.2400
 10.049   8.2194
 10.029   8.3121
 10.010   8.4048
  9.991   8.5078
  9.972   8.4872
  9.952   8.5387
  9.933   8.6005
  9.914   8.7035
  9.895   8.6005
  9.877   8.5902
  9.858   8.7035
  9.839   8.7138
  9.821   8.7138
  9.802   8.7447
  9.783   8.6417
  9.765   8.6520
  9.747   8.7138
  9.728   8.6829
  9.710   8.6829
  9.692   8.7653
  9.674   8.7344
  9.656   8.7035
  9.638   8.6932
  9.620   8.7241
  9.602   8.5902
  9.585   8.6520
  9.567   8.7138
  9.549   8.7241
  9.532   8.6726
  9.514   8.7138
  9.497   8.6726
  9.479   8.6417
  9.462   8.5799
  9.445   8.6005
  9.428   8.5387
  9.411   8.4769
  9.394   8.3018
  9.377   8.2606
  9.360   8.2503
  9.343   8.1576
  9.326   7.9310
  9.309   7.8589
  9.293   7.7456
  9.276   7.7044
  9.259   7.5911
  9.243   7.5602
  9.226   7.5602
  9.210   7.4160
  9.194   7.2718
  9.178   7.2306
  9.161   7.1791
  9.145   7.2306
  9.129   7.2615
  9.113   7.3645
  9.097   7.3439
  9.081   7.3645
  9.065   7.3851
  9.049   7.3748
  9.034   7.2203
  9.018   7.2512
  9.002   7.2821
  8.987   7.2924
  8.971   7.2512
  8.956   7.2100
  8.940   7.0967
  8.925   7.1173
  8.909   7.1070
  8.894   7.0761
  8.879   6.8701
  8.864   6.8289
  8.849   6.7465
  8.834   6.6847
  8.819   6.6023
  8.804   6.5096
  8.789   6.3448
  8.774   6.2521
  8.759   6.2109
  8.744   6.2624
  8.730   6.1594
  8.715   6.0255
  8.700   5.9225
  8.686   5.8813
  8.671   5.7886
  8.657   5.7165
  8.642   5.5826
  8.628   5.5517
  8.614   5.5414
  8.599   5.5208
  8.585   5.3972
  8.571   5.3766
  8.557   5.3251
  8.543   5.1809
  8.529   5.0676
  8.515   5.0470
  8.501   4.9337
  8.487   4.9131
  8.473   4.8822
  8.459   4.8307
  8.445   4.6762
  8.431   4.6762
  8.418   4.7174
  8.404   4.7174
  8.391   4.6453
  8.377   4.5526
  8.363   4.3981
  8.350   4.3466
  8.337   4.2127
  8.323   4.1097
  8.310   3.9964
  8.297   3.8419
  8.283   3.6359
  8.270   3.5020
  8.257   3.3166
  8.244   3.1415
  8.231   2.9355
  8.218   2.7398
  8.205   2.5544
  8.192   2.5029
  8.179   2.4411
  8.166   2.3587
  8.153   2.2042
  8.140   2.1115
  8.128   2.0188
  8.115   1.9261
  8.102   1.8540
  8.090   1.8746
  8.077   1.8437
  8.064   1.8952
  8.052   1.8746
  8.039   1.8231
  8.027   1.7304
  8.015   1.7407
  8.002   1.7510
  7.990   1.8025
  7.978   1.7716
  7.965   1.7201
  7.953   1.6686
  7.941   1.7510
  7.929   1.8025
  7.917   1.7819
  7.905   1.6892
  7.893   1.7098
  7.881   1.6995
  7.869   1.7304
  7.857   1.7613
  7.845   1.7716
  7.833   1.6995
  7.821   1.7613
  7.809   1.8231
  7.798   1.8231
  7.786   1.7922
  7.774   1.8025
  7.763   1.7819
  7.751   1.8540
  7.739   1.8643
  7.728   1.8437
  7.716   1.7922
  7.705   1.8025
  7.694   1.8231
  7.682   1.8746
  7.671   1.8540
  7.659   1.9261
  7.648   1.9158
  7.637   1.9055
  7.626   1.9261
  7.614   1.9570
  7.603   1.9261
  7.592   1.9467
  7.581   1.9776
  7.570   1.9673
  7.559   1.9364
  7.548   1.9570
  7.537   1.9776
  7.526   2.1012
  7.515   2.1424
  7.504   2.1218
  7.493   2.0497
  7.483   2.0600
  7.472   2.0909
  7.461   2.1321
  7.450   2.1527
  7.440   2.1939
  7.429   2.1630
  7.418   2.1939
  7.408   2.2351
  7.397   2.2454
  7.387   2.2042
  7.376   2.2660
  7.366   2.3278
  7.355   2.4102
  7.345   2.3896
  7.334   2.3381
  7.324   2.3381
  7.314   2.3484
  7.303   2.3587
  7.293   2.4514
  7.283   2.4102
  7.273   2.3896
  7.263   2.4102
  7.252   2.4823
  7.242   2.4926
  7.232   2.5441
  7.222   2.5956
  7.212   2.6059
  7.202   2.5956
  7.192   2.6265
  7.182   2.6471
  7.172   2.7089
  7.162   2.7604
  7.152   2.8325
  7.143   2.8737
  7.133   2.9046
  7.123   2.9458
  7.113   3.0282
  7.103   3.0900
  7.094   3.1518
  7.084   3.1930
  7.074   3.2754
  7.065   3.2754
  7.055   3.2857
  7.046   3.3372
  7.036   3.3990
  7.026   3.3578
  7.017   3.3681
  7.007   3.3784
  6.998   3.3475
  6.989   3.3372
  6.979   3.4093
  6.970   3.4196
  6.960   3.4093
  6.951   3.3887
  6.942   3.4196
  6.932   3.4196
  6.923   3.3990
  6.914   3.4402
  6.905   3.5020
  6.896   3.4711
  6.886   3.5020
  6.877   3.5432
  6.868   3.5432
  6.859   3.5226
  6.850   3.5741
  6.841   3.5947
  6.832   3.6050
  6.823   3.5741
  6.814   3.5947
  6.805   3.6565
  6.796   3.7183
  6.787   3.6668
  6.778   3.6668
  6.770   3.6565
  6.761   3.7183
  6.752   3.7904
  6.743   3.8213
  6.734   3.8419
  6.726   3.8831
  6.717   3.8728
  6.708   3.9037
  6.700   3.9861
  6.691   3.9552
  6.682   3.9552
  6.674   4.0067
  6.665   4.0376
  6.657   4.0788
  6.648   4.0582
  6.640   4.0685
  6.631   4.0582
  6.623   4.0685
  6.614   4.1097
  6.606   4.1818
  6.597   4.1818
  6.589   4.1715
  6.581   4.2127
  6.572   4.2951
  6.564   4.2745
  6.556   4.2539
  6.547   4.2745
  6.539   4.3260
  6.531   4.3157
  6.523   4.3363
  6.514   4.3054
  6.506   4.2848
  6.498   4.2127
  6.490   4.1406
  6.482   4.1818
  6.474   4.2127
  6.466   4.1715
  6.458   4.1406
  6.450   4.0376
  6.442   3.9243
  6.434   3.7595
  6.426   3.6050
  6.418   3.5226
  6.410   3.4093
  6.402   3.2857
  6.394   3.2033
  6.386   3.1415
  6.378   3.1003
  6.370   3.0488
  6.363   2.9664
  6.355   2.8531
  6.347   2.8119
  6.339   2.7089
  6.332   2.6883
  6.324   2.6677
  6.316   2.6265
  6.308   2.5853
  6.301   2.5235
  6.293   2.5338
  6.286   2.5956
  6.278   2.5544
  6.270   2.5338
  6.263   2.5029
  6.255   2.4617
  6.248   2.4308
  6.240   2.4617
  6.233   2.4411
  6.225   2.4308
  6.218   2.4411
  6.210   2.3999
  6.203   2.3381
  6.195   2.3484
  6.188   2.3587
  6.181   2.3896
  6.173   2.3381
  6.166   2.3278
  6.159   2.3072
  6.151   2.3175
  6.144   2.3175
  6.137   2.3175
  6.130   2.3072
  6.122   2.2969
  6.115   2.3072
  6.108   2.3381
  6.101   2.2969
  6.094   2.2969
  6.086   2.2969
  6.079   2.3072
  6.072   2.3175
  6.065   2.3072
  6.058   2.2866
  6.051   2.2763
  6.044   2.2866
  6.037   2.3381
  6.030   2.3072
  6.023   2.3175
  6.016   2.3484
  6.009   2.3690
  6.002   2.4308
  5.995   2.4514
  5.988   2.4308
  5.981   2.4102
  5.974   2.3484
  5.967   2.4205
  5.960   2.4617
  5.954   2.4617
  5.947   2.4926
  5.940   2.5338
  5.933   2.5235
  5.926   2.5544
  5.920   2.6162
  5.913   2.6162
  5.906   2.5544
  5.899   2.6162
  5.893   2.6986
  5.886   2.6883
  5.879   2.6471
  5.873   2.6471
  5.866   2.6677
  5.859   2.7501
  5.853   2.7810
  5.846   2.8016
  5.840   2.8222
  5.833   2.8016
  5.827   2.7707
  5.820   2.7913
  5.813   2.8325
  5.807   2.8531
  5.800   2.8531
  5.794   2.8840
  5.788   2.9149
  5.781   2.9355
  5.775   2.9355
  5.768   2.9149
  5.762   2.9252
  5.755   2.9458
  5.749   2.9458
  5.743   2.9458
  5.736   2.9458
  5.730   2.9870
  5.724   3.0488
  5.717   3.0488
  5.711   3.0282
  5.705   2.9870
  5.698   2.9664
  5.692   2.9973
  5.686   3.0076
  5.680   2.9973
  5.674   3.0282
  5.667   3.0591
  5.661   3.0797
  5.655   3.1003
  5.649   3.1209
  5.643   3.1415
  5.637   3.1106
  5.630   3.1209
  5.624   3.1724
  5.618   3.1518
  5.612   3.1518
  5.606   3.1827
  5.600   3.1827
  5.594   3.1930
  5.588   3.2136
  5.582   3.1724
  5.576   3.0797
  5.570   3.0900
  5.564   3.1312
  5.558   3.1621
  5.552   3.1106
  5.546   3.1518
  5.540   3.2445
  5.534   3.3166
  5.528   3.3269
  5.523   3.3578
  5.517   3.3166
  5.511   3.3166
  5.505   3.3578
  5.499   3.3578
  5.493   3.3372
  5.487   3.3475
  5.482   3.3269
  5.476   3.3372
  5.470   3.3887
  5.464   3.4505
  5.459   3.4505
  5.453   3.4402
  5.447   3.4711
  5.441   3.4608
  5.436   3.4299
  5.430   3.4814
  5.424   3.5020
  5.419   3.5020
  5.413   3.5432
  5.407   3.5638
  5.402   3.5329
  5.396   3.5329
  5.390   3.5638
  5.385   3.5947
  5.379   3.5844
  5.374   3.6256
  5.368   3.6565
  5.363   3.6462
  5.357   3.6565
  5.352   3.6565
  5.346   3.6050
  5.341   3.6050
  5.335   3.6771
  5.330   3.7183
  5.324   3.6977
  5.319   3.7080
  5.313   3.7389
  5.308   3.7801
  5.302   3.7904
  5.297   3.7595
  5.291   3.7389
  5.286   3.7801
  5.281   3.8316
  5.275   3.8419
  5.270   3.8110
  5.265   3.7801
  5.259   3.7698
  5.254   3.7904
  5.249   3.8522
  5.243   3.9037
  5.238   3.9243
  5.233   3.9037
  5.227   3.9037
  5.222   3.9346
  5.217   3.9655
  5.212   3.9346
  5.206   3.9140
  5.201   3.9346
  5.196   3.9346
  5.191   3.9449
  5.186   3.9758
  5.180   3.9861
  5.175   4.0067
  5.170   4.0376
  5.165   4.0170
  5.160   3.9964
  5.155   3.9655
  5.150   3.9861
  5.145   4.0479
  5.139   4.0685
  5.134   4.0788
  5.129   4.1097
  5.124   4.1097
  5.119   4.0994
  5.114   4.0582
  5.109   4.0685
  5.104   4.0994
  5.099   4.0891
  5.094   4.0685
  5.089   4.0994
  5.084   4.1818
  5.079   4.2024
  5.074   4.1509
  5.069   4.1303
  5.064   4.2127
  5.059   4.2642
  5.054   4.2436
  5.049   4.2127
  5.044   4.2230
  5.040   4.2333
  5.035   4.2848
  5.030   4.3260
  5.025   4.3054
  5.020   4.2642
  5.015   4.2436
  5.010   4.2539
  5.005   4.3363
  5.001   4.3981
  4.996   4.3672
  4.991   4.3569
  4.986   4.3878
  4.981   4.3775
  4.977   4.3672
  4.972   4.3672
  4.967   4.4187
  4.962   4.4805
  4.958   4.5114
  4.953   4.5011
  4.948   4.4599
  4.943   4.4496
  4.939   4.4496
  4.934   4.4908
  4.929   4.4805
  4.925   4.4702
  4.920   4.4702
  4.915   4.5629
  4.911   4.6247
  4.906   4.6041
  4.901   4.5629
  4.897   4.5114
  4.892   4.5320
  4.888   4.5526
  4.883   4.5835
  4.878   4.6144
  4.874   4.5835
  4.869   4.6041
  4.865   4.6659
  4.860   4.6968
  4.856   4.6762
  4.851   4.6865
  4.846   4.7483
  4.842   4.7483
  4.837   4.7483
  4.833   4.7483
  4.828   4.7174
  4.824   4.6968
  4.819   4.7277
  4.815   4.8204
  4.810   4.8513
  4.806   4.8822
  4.802   4.8307
  4.797   4.7792
  4.793   4.7998
  4.788   4.8513
  4.784   4.7998
  4.779   4.8307
  4.775   4.8822
  4.771   4.9131
  4.766   4.9234
  4.762   4.9234
  4.758   4.8822
  4.753   4.9028
  4.749   4.9337
  4.744   4.9440
  4.740   4.9543
  4.736   4.9543
  4.731   4.9955
  4.727   5.0676
  4.723   5.0676
  4.719   4.9955
  4.714   4.9955
  4.710   5.0573
  4.706   5.0470
  4.701   5.0058
  4.697   5.0161
  4.693   5.0470
  4.689   5.0985
  4.684   5.0985
  4.680   5.0367
  4.676   5.0264
  4.672   5.0470
  4.668   5.0882
  4.663   5.1706
  4.659   5.1809
  4.655   5.1500
  4.651   5.1500
  4.647   5.2015
  4.643   5.2324
  4.638   5.2427
  4.634   5.2427
  4.630   5.2530
  4.626   5.2633
  4.622   5.2633
  4.618   5.3251
  4.614   5.3766
  4.610   5.3869
  4.605   5.4178
  4.601   5.4281
  4.597   5.4075
  4.593   5.4075
  4.589   5.4796
  4.585   5.5311
  4.581   5.5414
  4.577   5.5208
  4.573   5.4796
  4.569   5.5414
  4.565   5.5620
  4.561   5.5517
  4.557   5.5826
  4.553   5.5826
  4.549   5.6238
  4.545   5.6547
  4.541   5.6238
  4.537   5.6238
  4.533   5.6959
  4.529   5.7577
  4.525   5.7268
  4.521   5.6959
  4.517   5.6959
  4.513   5.6753
  4.509   5.6959
  4.505   5.7474
  4.502   5.7886
  4.498   5.7989
  4.494   5.7989
  4.490   5.8401
  4.486   5.8092
  4.482   5.8298
  4.478   5.8813
  4.474   5.8195
  4.470   5.9122
  4.467   5.9843
  4.463   5.9431
  4.459   5.9534
  4.455   5.9946
  4.451   6.0152
  4.447   5.9946
  4.444   5.9637
  4.440   5.9946
  4.436   5.9740
  4.432   5.9946
  4.428   5.9843
  4.425   6.0049
  4.421   6.0049
  4.417   6.0667
  4.413   6.1491
  4.410   6.1800
  4.406   6.1285
  4.402   6.0770
  4.398   6.0976
  4.395   6.1079
  4.391   6.0770
  4.387   6.0461
  4.384   6.0976
  4.380   6.1491
  4.376   6.1388
  4.372   6.1491
  4.369   6.2109
  4.365   6.2521
  4.361   6.2933
  4.358   6.2830
  4.354   6.2624
  4.350   6.2727
  4.347   6.2727
  4.343   6.2521
  4.340   6.2315
  4.336   6.3036
  4.332   6.3551
  4.329   6.3448
  4.325   6.2830
  4.321   6.2521
  4.318   6.3036
  4.314   6.3654
  4.311   6.3448
  4.307   6.3551
  4.304   6.4375
  4.300   6.5508
  4.296   6.5611
  4.293   6.4993
  4.289   6.5405
  4.286   6.5817
  4.282   6.5302
  4.279   6.5508
  4.275   6.5508
  4.272   6.5302
  4.268   6.5405
  4.265   6.5302
  4.261   6.4890
  4.258   6.4787
  4.254   6.4993
  4.251   6.5199
  4.247   6.5611
  4.244   6.6332
  4.240   6.6126
  4.237   6.6023
  4.233   6.7156
  4.230   6.7774
  4.226   6.7053
  4.223   6.7465
  4.219   6.6847
  4.216   6.6023
  4.213   6.5920
  4.209   6.5817
  4.206   6.5817
  4.202   6.5714
  4.199   6.5405
  4.196   6.5302
  4.192   6.5302
  4.189   6.5508
  4.185   6.6229
  4.182   6.6950
  4.179   6.6126
  4.175   6.4684
  4.172   6.4787
  4.169   6.5611
  4.165   6.5920
  4.162   6.6435
  4.159   6.6641
  4.155   6.6538
  4.152   6.6847
  4.149   6.7259
  4.145   6.7156
  4.142   6.6744
  4.139   6.6744
  4.135   6.7156
  4.132   6.6744
  4.129   6.5920
  4.126   6.5405
  4.122   6.6023
  4.119   6.6435
  4.116   6.6023
  4.112   6.5714
  4.109   6.6126
  4.106   6.6950
  4.103   6.7671
  4.099   6.7259
  4.096   6.5611
  4.093   6.5302
  4.090   6.6126
  4.086   6.6435
  4.083   6.7156
  4.080   6.7465
  4.077   6.6950
  4.074   6.6744
  4.070   6.6950
  4.067   6.6229
  4.064   6.5199
  4.061   6.4890
  4.058   6.5920
  4.055   6.5714
  4.051   6.5405
  4.048   6.5508
  4.045   6.5302
  4.042   6.5096
  4.039   6.4890
  4.036   6.4787
  4.032   6.5405
  4.029   6.5714
  4.026   6.4787
  4.023   6.3757
  4.020   6.3345
  4.017   6.3036
  4.014   6.3139
  4.011   6.3551
  4.008   6.3345
  4.004   6.2933
  4.001   6.3551
  3.998   6.4272
  3.995   6.4375
  3.992   6.3242
  3.989   6.2212
  3.986   6.1491
  3.983   6.2109
  3.980   6.2109
  3.977   6.2315
  3.974   6.2521
  3.971   6.3345
  3.968   6.2727
  3.965   6.2418
  3.962   6.3036
  3.959   6.3036
  3.956   6.2933
  3.953   6.3654
  3.950   6.3963
  3.947   6.4169
  3.944   6.4890
  3.941   6.4684
  3.938   6.3654
  3.935   6.3860
  3.932   6.3860
  3.929   6.4375
  3.926   6.4478
  3.923   6.4890
  3.920   6.4684
  3.917   6.4272
  3.914   6.3860
  3.911   6.3036
  3.908   6.4066
  3.905   6.5405
  3.902   6.4684
  3.899   6.4066
  3.896   6.3757
  3.893   6.4375
  3.890   6.4169
  3.887   6.4066
  3.884   6.3551
  3.882   6.4272
  3.879   6.5096
  3.876   6.5508
  3.873   6.5199
  3.870   6.4478
  3.867   6.4272
  3.864   6.4375
  3.861   6.4066
  3.858   6.3654
  3.856   6.4066
  3.853   6.4787
  3.850   6.4684
  3.847   6.4787
  3.844   6.4272
  3.841   6.3963
  3.838   6.4169
  3.836   6.4684
  3.833   6.4890
  3.830   6.5508
  3.827   6.5714
  3.824   6.5405
  3.822   6.5096
  3.819   6.5405
  3.816   6.5714
  3.813   6.6023
  3.810   6.5920
  3.807   6.6538
  3.805   6.7053
  3.802   6.7053
  3.799   6.6435
  3.796   6.6847
  3.794   6.7259
  3.791   6.6950
  3.788   6.7053
  3.785   6.7465
  3.782   6.8186
  3.780   6.9113
  3.777   6.9422
  3.774   6.9319
  3.771   6.7671
  3.769   6.6950
  3.766   6.8495
  3.763   6.9319
  3.761   6.8701
  3.758   6.7980
  3.755   6.7362
  3.752   6.7877
  3.750   6.8907
  3.747   6.9113
  3.744   6.8598
  3.742   6.9113
  3.739   6.8392
  3.736   6.7259
  3.733   6.6847
  3.731   6.7259
  3.728   6.7568
  3.725   6.7877
  3.723   6.7980
  3.720   6.7980
  3.717   6.7568
  3.715   6.7877
  3.712   6.8186
  3.709   6.8186
  3.707   6.8083
  3.704   6.7671
  3.702   6.7053
  3.699   6.7568
  3.696   6.7774
  3.694   6.7671
  3.691   6.6847
  3.688   6.6641
  3.686   6.6538
  3.683   6.7156
  3.680   6.6847
  3.678   6.6847
  3.675   6.6332
  3.673   6.6538
  3.670   6.7156
  3.667   6.7671
  3.665   6.7259
  3.662   6.7053
  3.660   6.6435
  3.657   6.6435
  3.655   6.6126
  3.652   6.6435
  3.649   6.6641
  3.647   6.6744
  3.644   6.6847
  3.642   6.6435
  3.639   6.5920
  3.637   6.6229
  3.634   6.5817
  3.632   6.6023
  3.629   6.6847
  3.626   6.6744
  3.624   6.5508
  3.621   6.4787
  3.619   6.4169
  3.616   6.4375
  3.614   6.5302
  3.611   6.6538
  3.609   6.5920
  3.606   6.4581
  3.604   6.4066
  3.601   6.4787
  3.599   6.4375
  3.596   6.3963
  3.594   6.4478
  3.591   6.4993
  3.589   6.5302
  3.586   6.4993
  3.584   6.4581
  3.581   6.4375
  3.579   6.3963
