Name: Rhyolite
Type: Rock
Class: Igneous
Subclass: Felsic
Particle Size: Whole Rock Chips
Sample No.: AP-936-185 *
Owner: United States Geological Survey, L. C. Rowan
Wavelength range: 0.405 - 14.05 um
Origin: Iberian Pyrite Belt, Spain

Description: Rhyolite, phyllically altered





Measurement: Directional Hemispherical Reflectance
First Column: X
Second Column: Y
X Units: Wavelength (micrometers)
Y Units: Reflectance (percent)
First X Value: 14.05105
Last X Value: 0.40500
Number of X Values: 2530
Additional Information: rhy185a.txt

 14.051   4.5938
 14.013   4.7689
 13.975   4.9955
 13.938   5.0676
 13.900   5.2118
 13.863   5.0882
 13.826   5.1397
 13.790   5.2324
 13.753   5.4487
 13.717   5.3560
 13.680   5.4796
 13.644   5.4487
 13.609   5.4899
 13.573   5.5208
 13.538   5.6238
 13.502   5.6032
 13.467   5.7886
 13.432   5.9637
 13.398   6.0873
 13.363   6.1182
 13.329   6.2521
 13.295   6.1800
 13.261   6.2830
 13.227   6.4375
 13.193   6.5611
 13.160   6.5302
 13.126   6.6229
 13.093   6.5714
 13.060   6.6641
 13.027   6.7156
 12.995   6.8701
 12.962   7.0349
 12.930   7.2924
 12.898   7.5087
 12.866   7.7147
 12.834   7.7147
 12.802   7.6838
 12.771   7.3748
 12.739   6.9834
 12.708   6.4993
 12.677   6.1903
 12.646   6.0358
 12.616   6.2109
 12.585   6.3860
 12.554   6.4684
 12.524   6.4478
 12.494   6.3551
 12.464   5.9431
 12.434   5.4487
 12.404   4.7277
 12.375   4.1818
 12.345   3.8419
 12.316   3.6462
 12.287   3.4917
 12.258   3.5123
 12.229   3.5638
 12.200   3.7492
 12.171   3.8831
 12.143   3.9758
 12.115   4.0891
 12.086   4.2848
 12.058   4.3569
 12.030   4.4084
 12.002   4.4187
 11.975   4.5526
 11.947   4.5938
 11.920   4.6659
 11.892   4.7380
 11.865   4.9543
 11.838   5.0573
 11.811   5.2839
 11.784   5.4384
 11.757   5.5311
 11.731   5.5826
 11.704   5.7783
 11.678   5.8710
 11.652   5.9740
 11.626   6.0255
 11.600   6.2006
 11.574   6.2830
 11.548   6.4478
 11.522   6.5405
 11.497   6.7877
 11.471   6.9113
 11.446   6.9525
 11.421   6.9834
 11.396   7.1791
 11.371   7.2924
 11.346   7.3542
 11.321   7.3336
 11.297   7.4366
 11.272   7.5396
 11.248   7.6632
 11.223   7.7250
 11.199   7.9928
 11.175   8.1782
 11.151   8.2606
 11.127   8.3842
 11.103   8.6314
 11.079   8.7447
 11.056   8.8477
 11.032   9.0022
 11.009   9.2906
 10.985   9.3730
 10.962   9.3215
 10.939   9.2700
 10.916   9.2803
 10.893   9.2391
 10.870   9.2185
 10.848   9.1052
 10.825   9.1155
 10.802   9.1052
 10.780   9.2288
 10.758   9.2906
 10.735   9.3215
 10.713   9.2803
 10.691   9.3112
 10.669   9.4245
 10.647   9.5584
 10.625   9.5790
 10.604   9.7129
 10.582   9.8571
 10.560  10.0219
 10.539  10.1970
 10.518  10.3412
 10.496  10.4442
 10.475  10.7326
 10.454  11.0313
 10.433  11.3506
 10.412  11.5360
 10.391  11.7626
 10.370  11.9892
 10.350  12.2879
 10.329  12.5248
 10.309  12.8132
 10.288  13.1016
 10.268  13.4209
 10.247  13.6784
 10.227  14.0183
 10.207  14.3376
 10.187  14.6569
 10.167  14.9144
 10.147  15.2028
 10.127  15.3573
 10.108  15.6663
 10.088  15.9444
 10.068  16.1504
 10.049  16.3358
 10.029  16.6860
 10.010  16.9023
  9.991  17.1392
  9.972  17.4070
  9.952  17.7366
  9.933  17.9632
  9.914  18.2722
  9.895  18.4576
  9.877  18.6121
  9.858  18.6636
  9.839  18.8078
  9.821  19.0138
  9.802  19.2713
  9.783  19.4979
  9.765  19.7966
  9.747  20.0335
  9.728  20.4249
  9.710  20.7751
  9.692  21.2695
  9.674  21.7433
  9.656  22.2171
  9.638  22.5776
  9.620  23.0205
  9.602  23.4119
  9.585  23.7106
  9.567  23.9166
  9.549  24.1329
  9.532  24.2359
  9.514  24.3904
  9.497  24.5037
  9.479  24.6685
  9.462  24.8848
  9.445  25.3174
  9.428  25.8324
  9.411  26.6461
  9.394  27.6246
  9.377  28.7576
  9.360  29.8906
  9.343  30.9412
  9.326  31.8167
  9.309  32.5892
  9.293  33.1145
  9.276  33.3617
  9.259  33.3411
  9.243  33.3514
  9.226  33.3308
  9.210  33.3411
  9.194  33.2175
  9.178  33.0321
  9.161  32.8879
  9.145  32.7437
  9.129  32.5171
  9.113  32.3008
  9.097  31.9712
  9.081  31.6931
  9.065  31.2708
  9.049  30.8897
  9.034  30.4571
  9.018  30.0966
  9.002  29.7258
  8.987  29.4374
  8.971  29.3035
  8.956  29.3550
  8.940  29.5095
  8.925  29.6640
  8.909  29.8391
  8.894  30.1584
  8.879  30.3129
  8.864  30.3850
  8.849  30.3850
  8.834  30.3438
  8.819  30.1893
  8.804  29.9833
  8.789  29.6949
  8.774  29.5198
  8.759  29.1799
  8.744  28.8915
  8.730  28.4589
  8.715  27.9027
  8.700  27.2744
  8.686  26.4813
  8.671  25.4101
  8.657  24.0608
  8.642  22.3201
  8.628  20.6000
  8.614  19.9202
  8.599  20.9090
  8.585  22.5982
  8.571  24.0299
  8.557  24.9466
  8.543  25.3895
  8.529  25.5131
  8.515  25.5749
  8.501  25.4719
  8.487  25.3277
  8.473  25.1320
  8.459  24.8024
  8.445  24.3904
  8.431  24.0196
  8.418  23.5458
  8.404  23.0926
  8.391  22.6600
  8.377  22.2789
  8.363  21.8669
  8.350  21.5167
  8.337  21.2077
  8.323  20.8987
  8.310  20.6000
  8.297  20.3528
  8.283  20.1468
  8.270  19.9511
  8.257  19.7451
  8.244  19.6421
  8.231  19.4155
  8.218  19.2301
  8.205  19.1786
  8.192  19.1477
  8.179  18.9417
  8.166  18.7872
  8.153  18.6018
  8.140  18.2516
  8.128  17.5512
  8.115  16.6757
  8.102  15.7693
  8.090  14.8938
  8.077  14.0801
  8.064  13.2973
  8.052  12.4218
  8.039  11.6699
  8.027  11.0519
  8.015  10.5060
  8.002   9.9498
  7.990   9.4966
  7.978   8.9816
  7.965   8.5387
  7.953   8.1576
  7.941   7.7147
  7.929   7.2615
  7.917   6.8907
  7.905   6.4993
  7.893   6.2315
  7.881   5.9637
  7.869   5.7680
  7.857   5.4693
  7.845   5.2324
  7.833   5.0882
  7.821   4.9749
  7.809   4.7895
  7.798   4.6762
  7.786   4.6247
  7.774   4.6865
  7.763   4.7174
  7.751   4.6968
  7.739   4.6659
  7.728   4.6350
  7.716   4.5217
  7.705   4.4908
  7.694   4.4599
  7.682   4.4599
  7.671   4.3981
  7.659   4.3878
  7.648   4.3775
  7.637   4.3260
  7.626   4.2436
  7.614   4.1715
  7.603   4.0891
  7.592   4.0994
  7.581   4.0479
  7.570   4.0170
  7.559   4.0067
  7.548   3.9964
  7.537   3.9346
  7.526   3.9140
  7.515   3.8522
  7.504   3.8728
  7.493   3.8831
  7.483   3.8007
  7.472   3.6771
  7.461   3.6565
  7.450   3.5844
  7.440   3.5638
  7.429   3.5123
  7.418   3.5226
  7.408   3.5638
  7.397   3.5020
  7.387   3.4299
  7.376   3.4814
  7.366   3.4402
  7.355   3.3681
  7.345   3.3784
  7.334   3.3887
  7.324   3.3578
  7.314   3.3269
  7.303   3.2857
  7.293   3.3372
  7.283   3.3681
  7.273   3.3372
  7.263   3.2857
  7.252   3.3063
  7.242   3.3475
  7.232   3.4299
  7.222   3.3990
  7.212   3.4196
  7.202   3.3990
  7.192   3.3475
  7.182   3.3063
  7.172   3.3681
  7.162   3.3269
  7.152   3.2651
  7.143   3.1930
  7.133   3.1724
  7.123   3.1312
  7.113   3.1518
  7.103   3.1518
  7.094   3.1621
  7.084   3.1106
  7.074   3.1209
  7.065   3.1003
  7.055   3.0179
  7.046   2.9355
  7.036   2.9664
  7.026   2.9458
  7.017   2.9664
  7.007   2.9767
  6.998   2.9664
  6.989   2.9149
  6.979   2.9046
  6.970   2.8737
  6.960   2.8840
  6.951   2.9046
  6.942   2.9767
  6.932   3.0179
  6.923   2.9561
  6.914   2.8634
  6.905   2.9046
  6.896   2.9046
  6.886   2.9767
  6.877   2.9973
  6.868   2.9767
  6.859   2.9355
  6.850   2.9046
  6.841   2.8634
  6.832   2.8531
  6.823   2.8531
  6.814   2.9046
  6.805   2.9046
  6.796   2.9149
  6.787   2.8943
  6.778   2.8325
  6.770   2.7707
  6.761   2.7810
  6.752   2.7810
  6.743   2.8016
  6.734   2.7913
  6.726   2.8016
  6.717   2.8016
  6.708   2.8016
  6.700   2.7810
  6.691   2.7810
  6.682   2.8325
  6.674   2.8634
  6.665   2.8531
  6.657   2.9046
  6.648   2.9046
  6.640   2.9149
  6.631   2.8840
  6.623   2.8119
  6.614   2.8634
  6.606   2.8943
  6.597   2.8222
  6.589   2.7913
  6.581   2.7913
  6.572   2.7501
  6.564   2.6986
  6.556   2.7398
  6.547   2.7810
  6.539   2.8119
  6.531   2.8325
  6.523   2.8840
  6.514   2.9149
  6.506   3.0385
  6.498   3.0694
  6.490   3.0591
  6.482   3.0900
  6.474   3.1106
  6.466   3.0797
  6.458   3.1415
  6.450   3.2548
  6.442   3.3269
  6.434   3.3063
  6.426   3.2857
  6.418   3.2033
  6.410   3.1724
  6.402   3.2239
  6.394   3.2445
  6.386   3.2445
  6.378   3.2445
  6.370   3.1106
  6.363   3.0900
  6.355   3.0900
  6.347   3.0282
  6.339   2.9664
  6.332   2.9458
  6.324   2.9149
  6.316   2.9458
  6.308   2.9149
  6.301   2.8531
  6.293   2.8222
  6.286   2.8119
  6.278   2.8016
  6.270   2.8016
  6.263   2.7913
  6.255   2.7707
  6.248   2.7295
  6.240   2.6986
  6.233   2.6780
  6.225   2.6883
  6.218   2.6471
  6.210   2.6368
  6.203   2.6265
  6.195   2.6471
  6.188   2.7089
  6.181   2.7501
  6.173   2.7604
  6.166   2.7707
  6.159   2.8016
  6.151   2.8428
  6.144   2.7913
  6.137   2.7501
  6.130   2.7707
  6.122   2.8325
  6.115   2.8840
  6.108   2.9355
  6.101   2.9458
  6.094   2.9973
  6.086   3.0076
  6.079   2.9973
  6.072   2.9664
  6.065   2.9458
  6.058   2.9664
  6.051   3.0076
  6.044   3.0282
  6.037   3.0591
  6.030   3.0282
  6.023   3.0282
  6.016   3.0282
  6.009   2.9973
  6.002   2.9664
  5.995   2.9870
  5.988   2.9767
  5.981   2.9767
  5.974   2.9767
  5.967   2.9664
  5.960   2.9149
  5.954   2.8840
  5.947   2.9149
  5.940   2.9046
  5.933   2.8840
  5.926   2.9046
  5.920   2.9458
  5.913   3.0076
  5.906   3.0488
  5.899   3.0900
  5.893   3.0694
  5.886   3.1312
  5.879   3.1724
  5.873   3.1724
  5.866   3.1415
  5.859   3.1930
  5.853   3.2548
  5.846   3.3166
  5.840   3.3681
  5.833   3.3990
  5.827   3.4093
  5.820   3.4299
  5.813   3.4299
  5.807   3.4711
  5.800   3.5226
  5.794   3.5535
  5.788   3.5432
  5.781   3.5741
  5.775   3.5741
  5.768   3.5844
  5.762   3.6462
  5.755   3.7183
  5.749   3.7389
  5.743   3.7389
  5.736   3.7801
  5.730   3.7698
  5.724   3.6874
  5.717   3.7080
  5.711   3.7698
  5.705   3.7801
  5.698   3.8213
  5.692   3.8419
  5.686   3.8007
  5.680   3.8213
  5.674   3.8007
  5.667   3.7389
  5.661   3.6668
  5.655   3.6256
  5.649   3.6050
  5.643   3.6256
  5.637   3.5844
  5.630   3.5226
  5.624   3.4711
  5.618   3.4711
  5.612   3.4505
  5.606   3.4917
  5.600   3.4505
  5.594   3.3578
  5.588   3.3578
  5.582   3.3887
  5.576   3.4093
  5.570   3.3990
  5.564   3.3990
  5.558   3.3887
  5.552   3.3784
  5.546   3.4402
  5.540   3.4917
  5.534   3.5226
  5.528   3.4814
  5.523   3.5020
  5.517   3.5432
  5.511   3.5947
  5.505   3.6153
  5.499   3.5947
  5.493   3.6256
  5.487   3.6771
  5.482   3.6668
  5.476   3.6771
  5.470   3.7389
  5.464   3.7698
  5.459   3.7698
  5.453   3.8007
  5.447   3.8213
  5.441   3.8213
  5.436   3.7801
  5.430   3.7389
  5.424   3.7286
  5.419   3.6874
  5.413   3.6565
  5.407   3.6668
  5.402   3.6359
  5.396   3.5638
  5.390   3.5123
  5.385   3.4608
  5.379   3.3887
  5.374   3.3475
  5.368   3.3578
  5.363   3.3269
  5.357   3.2857
  5.352   3.2651
  5.346   3.2548
  5.341   3.2754
  5.335   3.3166
  5.330   3.3475
  5.324   3.3372
  5.319   3.3269
  5.313   3.3372
  5.308   3.3578
  5.302   3.3475
  5.297   3.3887
  5.291   3.4299
  5.286   3.4299
  5.281   3.4505
  5.275   3.5123
  5.270   3.5741
  5.265   3.6153
  5.259   3.5947
  5.254   3.6256
  5.249   3.7080
  5.243   3.8110
  5.238   3.8831
  5.233   3.9346
  5.227   3.9861
  5.222   4.0479
  5.217   4.0994
  5.212   4.1200
  5.206   4.1097
  5.201   4.1612
  5.196   4.2127
  5.191   4.2436
  5.186   4.2436
  5.180   4.2642
  5.175   4.2436
  5.170   4.2539
  5.165   4.2848
  5.160   4.3157
  5.155   4.3054
  5.150   4.2848
  5.145   4.2642
  5.139   4.2848
  5.134   4.2745
  5.129   4.2539
  5.124   4.2333
  5.119   4.2642
  5.114   4.3260
  5.109   4.3054
  5.104   4.2745
  5.099   4.2848
  5.094   4.2745
  5.089   4.2436
  5.084   4.2436
  5.079   4.2745
  5.074   4.2642
  5.069   4.2333
  5.064   4.2539
  5.059   4.2539
  5.054   4.2539
  5.049   4.2436
  5.044   4.2230
  5.040   4.2333
  5.035   4.2333
  5.030   4.2333
  5.025   4.2436
  5.020   4.2848
  5.015   4.2848
  5.010   4.2436
  5.005   4.2745
  5.001   4.2951
  4.996   4.2951
  4.991   4.2951
  4.986   4.3569
  4.981   4.4393
  4.977   4.4702
  4.972   4.5114
  4.967   4.5732
  4.962   4.6144
  4.958   4.6659
  4.953   4.7071
  4.948   4.7689
  4.943   4.8204
  4.939   4.8410
  4.934   4.8513
  4.929   4.9234
  4.925   4.9852
  4.920   5.0161
  4.915   5.0676
  4.911   5.1397
  4.906   5.2633
  4.901   5.3663
  4.897   5.4899
  4.892   5.6341
  4.888   5.7474
  4.883   5.8401
  4.878   5.9946
  4.874   6.1491
  4.869   6.2418
  4.865   6.2624
  4.860   6.2933
  4.856   6.4066
  4.851   6.4581
  4.846   6.5302
  4.842   6.6538
  4.837   6.7053
  4.833   6.7053
  4.828   6.7877
  4.824   6.8804
  4.819   6.9628
  4.815   7.0658
  4.810   7.0761
  4.806   7.0452
  4.802   7.0452
  4.797   7.1173
  4.793   7.1894
  4.788   7.2512
  4.784   7.2306
  4.779   7.2718
  4.775   7.3542
  4.771   7.3851
  4.766   7.4366
  4.762   7.4881
  4.758   7.5293
  4.753   7.6426
  4.749   7.6838
  4.744   7.6323
  4.740   7.6323
  4.736   7.6735
  4.731   7.7559
  4.727   7.8280
  4.723   7.8177
  4.719   7.8486
  4.714   7.8795
  4.710   7.9001
  4.706   7.8692
  4.701   7.8692
  4.697   7.9207
  4.693   7.9104
  4.689   7.8383
  4.684   7.7868
  4.680   7.7662
  4.676   7.7868
  4.672   7.8383
  4.668   7.9310
  4.663   8.0546
  4.659   8.1679
  4.655   8.2709
  4.651   8.3842
  4.647   8.4254
  4.643   8.4769
  4.638   8.5181
  4.634   8.6005
  4.630   8.7138
  4.626   8.7653
  4.622   8.8580
  4.618   8.9301
  4.614   9.0537
  4.610   9.1464
  4.605   9.1876
  4.601   9.2288
  4.597   9.2597
  4.593   9.2700
  4.589   9.3112
  4.585   9.3730
  4.581   9.4451
  4.577   9.4760
  4.573   9.5069
  4.569   9.5584
  4.565   9.5996
  4.561   9.6202
  4.557   9.5687
  4.553   9.5275
  4.549   9.5378
  4.545   9.5893
  4.541   9.6408
  4.537   9.5893
  4.533   9.4863
  4.529   9.4039
  4.525   9.3215
  4.521   9.2082
  4.517   9.1464
  4.513   9.1052
  4.509   8.9713
  4.505   8.8683
  4.502   8.8374
  4.498   8.7550
  4.494   8.7138
  4.490   8.6417
  4.486   8.6108
  4.482   8.6314
  4.478   8.6005
  4.474   8.5387
  4.470   8.5490
  4.467   8.5387
  4.463   8.5799
  4.459   8.6623
  4.455   8.7447
  4.451   8.8374
  4.447   8.8580
  4.444   8.9301
  4.440   9.0228
  4.436   9.0537
  4.432   9.1155
  4.428   9.1979
  4.425   9.2494
  4.421   9.2391
  4.417   9.3215
  4.413   9.3833
  4.410   9.4039
  4.406   9.4760
  4.402   9.6305
  4.398   9.7438
  4.395   9.8262
  4.391   9.8365
  4.387   9.9292
  4.384  10.0734
  4.380  10.2279
  4.376  10.3309
  4.372  10.3515
  4.369  10.3927
  4.365  10.5575
  4.361  10.6708
  4.358  10.7326
  4.354  10.8047
  4.350  10.8871
  4.347  10.9592
  4.343  11.0210
  4.340  11.1240
  4.336  11.1961
  4.332  11.1858
  4.329  11.2064
  4.325  11.2476
  4.321  11.2373
  4.318  11.2579
  4.314  11.2888
  4.311  11.2476
  4.307  11.3094
  4.304  11.2888
  4.300  11.2579
  4.296  11.2888
  4.293  11.3197
  4.289  11.3300
  4.286  11.3918
  4.282  11.3609
  4.279  11.3094
  4.275  11.3197
  4.272  11.4330
  4.268  11.4948
  4.265  11.5566
  4.261  11.6184
  4.258  11.7008
  4.254  11.7832
  4.251  11.7935
  4.247  11.8038
  4.244  11.8141
  4.240  11.8141
  4.237  11.8347
  4.233  11.7008
  4.230  11.6287
  4.226  11.6802
  4.223  11.7523
  4.219  11.7935
  4.216  11.8450
  4.213  11.8553
  4.209  11.9377
  4.206  12.0098
  4.202  11.9583
  4.199  11.9171
  4.196  12.0304
  4.192  12.1025
  4.189  12.0819
  4.185  12.0510
  4.182  12.0922
  4.179  12.1025
  4.175  12.1540
  4.172  12.1952
  4.169  12.2261
  4.165  12.2879
  4.162  12.3806
  4.159  12.4115
  4.155  12.4218
  4.152  12.4527
  4.149  12.4836
  4.145  12.5145
  4.142  12.5248
  4.139  12.5763
  4.135  12.6175
  4.132  12.6484
  4.129  12.6896
  4.126  12.7617
  4.122  12.8647
  4.119  12.8544
  4.116  12.8441
  4.112  12.8956
  4.109  13.0295
  4.106  13.0604
  4.103  13.0089
  4.099  13.0501
  4.096  13.1222
  4.093  13.2046
  4.090  13.3076
  4.086  13.3282
  4.083  13.3694
  4.080  13.3179
  4.077  13.2561
  4.074  13.2046
  4.070  13.2561
  4.067  13.3591
  4.064  13.4518
  4.061  13.5239
  4.058  13.5651
  4.055  13.5651
  4.051  13.5239
  4.048  13.4827
  4.045  13.5033
  4.042  13.5754
  4.039  13.5754
  4.036  13.6063
  4.032  13.6784
  4.029  13.6475
  4.026  13.5651
  4.023  13.5960
  4.020  13.5857
  4.017  13.5857
  4.014  13.6063
  4.011  13.5754
  4.008  13.5445
  4.004  13.6475
  4.001  13.7711
  3.998  13.6784
  3.995  13.6166
  3.992  13.6681
  3.989  13.6887
  3.986  13.7608
  3.983  13.8329
  3.980  13.7196
  3.977  13.7505
  3.974  13.8329
  3.971  13.8844
  3.968  13.9153
  3.965  13.8638
  3.962  13.9359
  3.959  13.9977
  3.956  13.9874
  3.953  13.9771
  3.950  14.0389
  3.947  14.0801
  3.944  14.0389
  3.941  14.0286
  3.938  14.0492
  3.935  14.0698
  3.932  14.1419
  3.929  14.2140
  3.926  14.1316
  3.923  14.1213
  3.920  14.2449
  3.917  14.3170
  3.914  14.2655
  3.911  14.2655
  3.908  14.1934
  3.905  14.1728
  3.902  14.2243
  3.899  14.2964
  3.896  14.2552
  3.893  14.1728
  3.890  14.1419
  3.887  14.1728
  3.884  14.1419
  3.882  14.1316
  3.879  14.0801
  3.876  13.9668
  3.873  13.9668
  3.870  14.1316
  3.867  14.1007
  3.864  13.9977
  3.861  13.9565
  3.858  13.9565
  3.856  13.9153
  3.853  13.8535
  3.850  13.8638
  3.847  13.8844
  3.844  13.8844
  3.841  13.9462
  3.838  13.9050
  3.836  13.9050
  3.833  13.9359
  3.830  14.0183
  3.827  13.9874
  3.824  13.9050
  3.822  13.8638
  3.819  13.8535
  3.816  13.8844
  3.813  13.8226
  3.810  13.7917
  3.807  13.8535
  3.805  13.8329
  3.802  13.7402
  3.799  13.7196
  3.796  13.8123
  3.794  13.8123
  3.791  13.8226
  3.788  13.7608
  3.785  13.6990
  3.782  13.6887
  3.780  13.7093
  3.777  13.6269
  3.774  13.5857
  3.771  13.5033
  3.769  13.4518
  3.766  13.4415
  3.763  13.4415
  3.761  13.3694
  3.758  13.3385
  3.755  13.3179
  3.752  13.2664
  3.750  13.2046
  3.747  13.1943
  3.744  13.1016
  3.742  13.0913
  3.739  13.0501
  3.736  13.0295
  3.733  13.0192
  3.731  12.9471
  3.728  12.8750
  3.725  12.8853
  3.723  12.9780
  3.720  13.0295
  3.717  12.9265
  3.715  12.8029
  3.712  12.8029
  3.709  12.9265
  3.707  12.8853
  3.704  12.7720
  3.702  12.7411
  3.699  12.7617
  3.696  12.7308
  3.694  12.7617
  3.691  12.8132
  3.688  12.8441
  3.686  12.8029
  3.683  12.7205
  3.680  12.6999
  3.678  12.7102
  3.675  12.7102
  3.673  12.7102
  3.670  12.6381
  3.667  12.6999
  3.665  12.6793
  3.662  12.5763
  3.660  12.5763
  3.657  12.5866
  3.655  12.5145
  3.652  12.4424
  3.649  12.4115
  3.647  12.4012
  3.644  12.2570
  3.642  12.2673
  3.639  12.3703
  3.637  12.4012
  3.634  12.2570
  3.632  12.1540
  3.629  12.1643
  3.626  12.1231
  3.624  12.0716
  3.621  12.0407
  3.619  11.9892
  3.616  12.0098
  3.614  12.0304
  3.611  11.9686
  3.609  11.8347
  3.606  11.8553
  3.604  11.7626
  3.601  11.6287
  3.599  11.5772
  3.596  11.5772
  3.594  11.5566
  3.591  11.5051
  3.589  11.4536
  3.586  11.4021
  3.584  11.3506
