Name: Basalt
Type: Rock
Class: Igneous
Subclass: Mafic
Particle Size: Whole rock chips
Sample No.: me14b
Owner: Lawrence Rowan, USGS Reston
Wavelength range: 0.40 - 14.05 um
Origin: Datras area, Middle East

Description: Basalt, fresh surface





Measurement: Directional Hemispherical Reflectance
First Column: X
Second Column: Y
X Units: Wavelength (micrometers)
Y Units: Reflectance (percent)
First X Value: 14.05105
Last X Value: 0.40000
Number of X Values: 2231
Additional Information: me14ba.txt

 14.051   3.1930
 14.013   3.3681
 13.975   3.3166
 13.938   2.9664
 13.900   3.1724
 13.863   3.3372
 13.826   3.3784
 13.790   3.1930
 13.753   3.2342
 13.717   3.2651
 13.680   3.3681
 13.644   3.2548
 13.609   3.3063
 13.573   3.1827
 13.538   3.2651
 13.502   3.3578
 13.467   3.5226
 13.432   3.4505
 13.398   3.3990
 13.363   3.3372
 13.329   3.3269
 13.295   3.2960
 13.261   3.4814
 13.227   3.5226
 13.193   3.5123
 13.160   3.4814
 13.126   3.4402
 13.093   3.4196
 13.060   3.5432
 13.027   3.4608
 12.995   3.4093
 12.962   3.4093
 12.930   3.4917
 12.898   3.5123
 12.866   3.5020
 12.834   3.4505
 12.802   3.5535
 12.771   3.5638
 12.739   3.6256
 12.708   3.6050
 12.677   3.5638
 12.646   3.5432
 12.616   3.6771
 12.585   3.7183
 12.554   3.7904
 12.524   3.7801
 12.494   3.9243
 12.464   3.9758
 12.434   4.0170
 12.404   4.0685
 12.375   4.1097
 12.345   4.0891
 12.316   4.2642
 12.287   4.3672
 12.258   4.5423
 12.229   4.6865
 12.200   4.8101
 12.171   4.8204
 12.143   4.9337
 12.115   4.9955
 12.086   5.1603
 12.058   5.1912
 12.030   5.2324
 12.002   5.2839
 11.975   5.3560
 11.947   5.3972
 11.920   5.4693
 11.892   5.4693
 11.865   5.5414
 11.838   5.5723
 11.811   5.6444
 11.784   5.6856
 11.757   5.7886
 11.731   5.9019
 11.704   6.1491
 11.678   6.2830
 11.652   6.3654
 11.626   6.4581
 11.600   6.6950
 11.574   6.8907
 11.548   7.0555
 11.522   7.1791
 11.497   7.3645
 11.471   7.4984
 11.446   7.7147
 11.421   7.8074
 11.396   7.9722
 11.371   8.1782
 11.346   8.3636
 11.321   8.4666
 11.297   8.5490
 11.272   8.6211
 11.248   8.7550
 11.223   8.8168
 11.199   8.8683
 11.175   8.8477
 11.151   8.9095
 11.127   8.9610
 11.103   9.0537
 11.079   9.0537
 11.056   9.1670
 11.032   9.1979
 11.009   9.3009
 10.985   9.3936
 10.962   9.5069
 10.939   9.5275
 10.916   9.5996
 10.893   9.7026
 10.870   9.8571
 10.848   9.8262
 10.825   9.7850
 10.802   9.7335
 10.780   9.7850
 10.758   9.7953
 10.735   9.7850
 10.713   9.7438
 10.691   9.7644
 10.669   9.7850
 10.647   9.8571
 10.625   9.8159
 10.604   9.7747
 10.582   9.6820
 10.560   9.5996
 10.539   9.4966
 10.518   9.4554
 10.496   9.4451
 10.475   9.5069
 10.454   9.4863
 10.433   9.5584
 10.412   9.6202
 10.391   9.7335
 10.370   9.7953
 10.350   9.8777
 10.329   9.8777
 10.309   9.8365
 10.288   9.8365
 10.268   9.8571
 10.247   9.7850
 10.227   9.7438
 10.207   9.6717
 10.187   9.6305
 10.167   9.5481
 10.147   9.5378
 10.127   9.4966
 10.108   9.5687
 10.088   9.6099
 10.068   9.6305
 10.049   9.6820
 10.029   9.8262
 10.010   9.9086
  9.991  10.0837
  9.972  10.1352
  9.952  10.1043
  9.933  10.0734
  9.914  10.1455
  9.895  10.1661
  9.877  10.1661
  9.858  10.1043
  9.839  10.0219
  9.821  10.0219
  9.802  10.0219
  9.783   9.9910
  9.765  10.0013
  9.747   9.9601
  9.728   9.9189
  9.710   9.8674
  9.692   9.8674
  9.674   9.9189
  9.656   9.9910
  9.638   9.8571
  9.620   9.7438
  9.602   9.6923
  9.585   9.6923
  9.567   9.6099
  9.549   9.5275
  9.532   9.3524
  9.514   9.2288
  9.497   9.1670
  9.479   9.1258
  9.462   8.9713
  9.445   8.9095
  9.428   8.7756
  9.411   8.6726
  9.394   8.5387
  9.377   8.4769
  9.360   8.3533
  9.343   8.2400
  9.326   8.0546
  9.309   7.9928
  9.293   7.8898
  9.276   7.8898
  9.259   7.7971
  9.243   7.7353
  9.226   7.6220
  9.210   7.5602
  9.194   7.5293
  9.178   7.5705
  9.161   7.5602
  9.145   7.6117
  9.129   7.6632
  9.113   7.7559
  9.097   7.7971
  9.081   7.9001
  9.065   7.9722
  9.049   8.0237
  9.034   8.0546
  9.018   8.0855
  9.002   8.0031
  8.987   8.0340
  8.971   8.0546
  8.956   8.1370
  8.940   8.0649
  8.925   7.9825
  8.909   7.8589
  8.894   7.8177
  8.879   7.7250
  8.864   7.5911
  8.849   7.3439
  8.834   7.2306
  8.819   7.1173
  8.804   7.0246
  8.789   6.9628
  8.774   6.8701
  8.759   6.6641
  8.744   6.6023
  8.730   6.4581
  8.715   6.3757
  8.700   6.2830
  8.686   6.1800
  8.671   6.0255
  8.657   5.9637
  8.642   5.8710
  8.628   5.8401
  8.614   5.7165
  8.599   5.6135
  8.585   5.4796
  8.571   5.3457
  8.557   5.2427
  8.543   5.2427
  8.529   5.1603
  8.515   5.0470
  8.501   4.9234
  8.487   4.9028
  8.473   4.7895
  8.459   4.7586
  8.445   4.7174
  8.431   4.6659
  8.418   4.5629
  8.404   4.5217
  8.391   4.4599
  8.377   4.3260
  8.363   4.1406
  8.350   4.0170
  8.337   3.9037
  8.323   3.8316
  8.310   3.6565
  8.297   3.5432
  8.283   3.3990
  8.270   3.2754
  8.257   3.0797
  8.244   2.8943
  8.231   2.6780
  8.218   2.5441
  8.205   2.4205
  8.192   2.3072
  8.179   2.2042
  8.166   2.1527
  8.153   2.0188
  8.140   1.9673
  8.128   1.9158
  8.115   1.8952
  8.102   1.8128
  8.090   1.7716
  8.077   1.7201
  8.064   1.7201
  8.052   1.7201
  8.039   1.7407
  8.027   1.7304
  8.015   1.7201
  8.002   1.6686
  7.990   1.7304
  7.978   1.7098
  7.965   1.6995
  7.953   1.6686
  7.941   1.7201
  7.929   1.6789
  7.917   1.6995
  7.905   1.6583
  7.893   1.6583
  7.881   1.6480
  7.869   1.6377
  7.857   1.6274
  7.845   1.7407
  7.833   1.7716
  7.821   1.7716
  7.809   1.7098
  7.798   1.6995
  7.786   1.7304
  7.774   1.7098
  7.763   1.6789
  7.751   1.7613
  7.739   1.8128
  7.728   1.8128
  7.716   1.7716
  7.705   1.7922
  7.694   1.7819
  7.682   1.8025
  7.671   1.8231
  7.659   1.8231
  7.648   1.8334
  7.637   1.8849
  7.626   1.8128
  7.614   1.8334
  7.603   1.8849
  7.592   1.9570
  7.581   1.9158
  7.570   1.9467
  7.559   1.9776
  7.548   2.0085
  7.537   1.9467
  7.526   1.9364
  7.515   1.9776
  7.504   2.0188
  7.493   2.0085
  7.483   2.0085
  7.472   1.9673
  7.461   2.0394
  7.450   2.0291
  7.440   2.0085
  7.429   2.0085
  7.418   2.0806
  7.408   2.0806
  7.397   2.0909
  7.387   2.0703
  7.376   2.0909
  7.366   2.1115
  7.355   2.1836
  7.345   2.2145
  7.334   2.2042
  7.324   2.1733
  7.314   2.2454
  7.303   2.2042
  7.293   2.2145
  7.283   2.2557
  7.273   2.2763
  7.263   2.2660
  7.252   2.2866
  7.242   2.3175
  7.232   2.3381
  7.222   2.2969
  7.212   2.3175
  7.202   2.3587
  7.192   2.4308
  7.182   2.4102
  7.172   2.4205
  7.162   2.4720
  7.152   2.5132
  7.143   2.5132
  7.133   2.5956
  7.123   2.6162
  7.113   2.6677
  7.103   2.7501
  7.094   2.8119
  7.084   2.7810
  7.074   2.7913
  7.065   2.8016
  7.055   2.8840
  7.046   2.9458
  7.036   2.9664
  7.026   2.8943
  7.017   2.9046
  7.007   2.9767
  6.998   2.9767
  6.989   3.0076
  6.979   2.9973
  6.970   2.8943
  6.960   2.8634
  6.951   2.9561
  6.942   3.0076
  6.932   2.9664
  6.923   2.9973
  6.914   2.9870
  6.905   2.9870
  6.896   3.0282
  6.886   3.0900
  6.877   3.0900
  6.868   3.0694
  6.859   3.0694
  6.850   3.1312
  6.841   3.1621
  6.832   3.1930
  6.823   3.1827
  6.814   3.1621
  6.805   3.1724
  6.796   3.2445
  6.787   3.2136
  6.778   3.2033
  6.770   3.2033
  6.761   3.1621
  6.752   3.2239
  6.743   3.2857
  6.734   3.2548
  6.726   3.2445
  6.717   3.2548
  6.708   3.2960
  6.700   3.3063
  6.691   3.2857
  6.682   3.3063
  6.674   3.3166
  6.665   3.2651
  6.657   3.3578
  6.648   3.3887
  6.640   3.4093
  6.631   3.4093
  6.623   3.3990
  6.614   3.4196
  6.606   3.4814
  6.597   3.4299
  6.589   3.4299
  6.581   3.4608
  6.572   3.5329
  6.564   3.5741
  6.556   3.5947
  6.547   3.5638
  6.539   3.5329
  6.531   3.5432
  6.523   3.5844
  6.514   3.5329
  6.506   3.5226
  6.498   3.5432
  6.490   3.6050
  6.482   3.5741
  6.474   3.5741
  6.466   3.5432
  6.458   3.5123
  6.450   3.5226
  6.442   3.4917
  6.434   3.4093
  6.426   3.3475
  6.418   3.2548
  6.410   3.1930
  6.402   3.1415
  6.394   3.1106
  6.386   3.0282
  6.378   2.9561
  6.370   2.9355
  6.363   2.9252
  6.355   2.8943
  6.347   2.8943
  6.339   2.8634
  6.332   2.8531
  6.324   2.8428
  6.316   2.8222
  6.308   2.7810
  6.301   2.7089
  6.293   2.6780
  6.286   2.6780
  6.278   2.6883
  6.270   2.6986
  6.263   2.7192
  6.255   2.7398
  6.248   2.6883
  6.240   2.6677
  6.233   2.6574
  6.225   2.6574
  6.218   2.6677
  6.210   2.6986
  6.203   2.6780
  6.195   2.6265
  6.188   2.6368
  6.181   2.6677
  6.173   2.6265
  6.166   2.5956
  6.159   2.5853
  6.151   2.5647
  6.144   2.5338
  6.137   2.5544
  6.130   2.5853
  6.122   2.5647
  6.115   2.5235
  6.108   2.5338
  6.101   2.5338
  6.094   2.5647
  6.086   2.5235
  6.079   2.4823
  6.072   2.5235
  6.065   2.5853
  6.058   2.5132
  6.051   2.4926
  6.044   2.5853
  6.037   2.6059
  6.030   2.5647
  6.023   2.6059
  6.016   2.6368
  6.009   2.6162
  6.002   2.5956
  5.995   2.6574
  5.988   2.6780
  5.981   2.6677
  5.974   2.6780
  5.967   2.6780
  5.960   2.6677
  5.954   2.7089
  5.947   2.8016
  5.940   2.8428
  5.933   2.8222
  5.926   2.8634
  5.920   2.8222
  5.913   2.8428
  5.906   2.8634
  5.899   2.8840
  5.893   2.9046
  5.886   2.9046
  5.879   2.9355
  5.873   2.9767
  5.866   2.9252
  5.859   2.9355
  5.853   2.9458
  5.846   2.9767
  5.840   3.0282
  5.833   3.0694
  5.827   3.0797
  5.820   3.0591
  5.813   3.0385
  5.807   3.0591
  5.800   3.0797
  5.794   3.0797
  5.788   3.1106
  5.781   3.1621
  5.775   3.1518
  5.768   3.1621
  5.762   3.1827
  5.755   3.1827
  5.749   3.1724
  5.743   3.2033
  5.736   3.1518
  5.730   3.1518
  5.724   3.1724
  5.717   3.1724
  5.711   3.2239
  5.705   3.2754
  5.698   3.2239
  5.692   3.2136
  5.686   3.2239
  5.680   3.2445
  5.674   3.2445
  5.667   3.2548
  5.661   3.2651
  5.655   3.2754
  5.649   3.3166
  5.643   3.3475
  5.637   3.2857
  5.630   3.2651
  5.624   3.2960
  5.618   3.3475
  5.612   3.3475
  5.606   3.3681
  5.600   3.3372
  5.594   3.2857
  5.588   3.3063
  5.582   3.3166
  5.576   3.2548
  5.570   3.2960
  5.564   3.3372
  5.558   3.3475
  5.552   3.3269
  5.546   3.3475
  5.540   3.3681
  5.534   3.4093
  5.528   3.4505
  5.523   3.4814
  5.517   3.4711
  5.511   3.4917
  5.505   3.5329
  5.499   3.5432
  5.493   3.5329
  5.487   3.5020
  5.482   3.5123
  5.476   3.5329
  5.470   3.5535
  5.464   3.5947
  5.459   3.6153
  5.453   3.6153
  5.447   3.6565
  5.441   3.6771
  5.436   3.6565
  5.430   3.6359
  5.424   3.6256
  5.419   3.6771
  5.413   3.6771
  5.407   3.6977
  5.402   3.6874
  5.396   3.6771
  5.390   3.7080
  5.385   3.7698
  5.379   3.7492
  5.374   3.7389
  5.368   3.7595
  5.363   3.7492
  5.357   3.7698
  5.352   3.8213
  5.346   3.8213
  5.341   3.8007
  5.335   3.8110
  5.330   3.8316
  5.324   3.8419
  5.319   3.8419
  5.313   3.8522
  5.308   3.8625
  5.302   3.8625
  5.297   3.8934
  5.291   3.9243
  5.286   3.9346
  5.281   3.9140
  5.275   3.9346
  5.270   3.9552
  5.265   3.9346
  5.259   3.9449
  5.254   3.9964
  5.249   4.0067
  5.243   3.9861
  5.238   3.9655
  5.233   3.9964
  5.227   4.0273
  5.222   4.0273
  5.217   3.9655
  5.212   3.9861
  5.206   4.0994
  5.201   4.1612
  5.196   4.1097
  5.191   4.1097
  5.186   4.1200
  5.180   4.1406
  5.175   4.1612
  5.170   4.1715
  5.165   4.1612
  5.160   4.1715
  5.155   4.1818
  5.150   4.1612
  5.145   4.1406
  5.139   4.1303
  5.134   4.1715
  5.129   4.1818
  5.124   4.1715
  5.119   4.1921
  5.114   4.2127
  5.109   4.2436
  5.104   4.2848
  5.099   4.2436
  5.094   4.2127
  5.089   4.2333
  5.084   4.2951
  5.079   4.3466
  5.074   4.3569
  5.069   4.3569
  5.064   4.3569
  5.059   4.3569
  5.054   4.3260
  5.049   4.3466
  5.044   4.4084
  5.040   4.4290
  5.035   4.3981
  5.030   4.4187
  5.025   4.4290
  5.020   4.3878
  5.015   4.3775
  5.010   4.3775
  5.005   4.3981
  5.001   4.4599
  4.996   4.4702
  4.991   4.4908
  4.986   4.5217
  4.981   4.5217
  4.977   4.4702
  4.972   4.5114
  4.967   4.5320
  4.962   4.5320
  4.958   4.5320
  4.953   4.5732
  4.948   4.5526
  4.943   4.5732
  4.939   4.6453
  4.934   4.6556
  4.929   4.6968
  4.925   4.6762
  4.920   4.6144
  4.915   4.6659
  4.911   4.7380
  4.906   4.6865
  4.901   4.7071
  4.897   4.7792
  4.892   4.7483
  4.888   4.7586
  4.883   4.7586
  4.878   4.7998
  4.874   4.8616
  4.869   4.8513
  4.865   4.7689
  4.860   4.7586
  4.856   4.8616
  4.851   4.8719
  4.846   4.8204
  4.842   4.8616
  4.837   4.9337
  4.833   4.8925
  4.828   4.8616
  4.824   4.9131
  4.819   4.9440
  4.815   4.9543
  4.810   4.9440
  4.806   4.9131
  4.802   4.8719
  4.797   4.9028
  4.793   4.9749
  4.788   5.0264
  4.784   5.0161
  4.779   4.9749
  4.775   4.9646
  4.771   5.0058
  4.766   5.0470
  4.762   5.0676
  4.758   5.0676
  4.753   5.0264
  4.749   5.1191
  4.744   5.1603
  4.740   5.0985
  4.736   5.0779
  4.731   5.0779
  4.727   5.0882
  4.723   5.1912
  4.719   5.2324
  4.714   5.2015
  4.710   5.2427
  4.706   5.2530
  4.701   5.2736
  4.697   5.2942
  4.693   5.2427
  4.689   5.2427
  4.684   5.2942
  4.680   5.2839
  4.676   5.2736
  4.672   5.2942
  4.668   5.3457
  4.663   5.3663
  4.659   5.3766
  4.655   5.4384
  4.651   5.4384
  4.647   5.4281
  4.643   5.3972
  4.638   5.3869
  4.634   5.4178
  4.630   5.5311
  4.626   5.5723
  4.622   5.5723
  4.618   5.5517
  4.614   5.5208
  4.610   5.5208
  4.605   5.5620
  4.601   5.6238
  4.597   5.6650
  4.593   5.6650
  4.589   5.6444
  4.585   5.6547
  4.581   5.7062
  4.577   5.6959
  4.573   5.6959
  4.569   5.6959
  4.565   5.7268
  4.561   5.7989
  4.557   5.8092
  4.553   5.8195
  4.549   5.8092
  4.545   5.8298
  4.541   5.9225
  4.537   5.9122
  4.533   5.8607
  4.529   5.9019
  4.525   5.9431
  4.521   5.9431
  4.517   5.9740
  4.513   5.9431
  4.509   5.9946
  4.505   6.0667
  4.502   6.1491
  4.498   6.1182
  4.494   6.0358
  4.490   6.0049
  4.486   5.9843
  4.482   5.9843
  4.478   6.0667
  4.474   6.0976
  4.470   6.0564
  4.467   6.0564
  4.463   6.0976
  4.459   6.1491
  4.455   6.1594
  4.451   6.1594
  4.447   6.2006
  4.444   6.2109
  4.440   6.1800
  4.436   6.1800
  4.432   6.1697
  4.428   6.1800
  4.425   6.2727
  4.421   6.3139
  4.417   6.3139
  4.413   6.2830
  4.410   6.2418
  4.406   6.2727
  4.402   6.3139
  4.398   6.3345
  4.395   6.3345
  4.391   6.3654
  4.387   6.3242
  4.384   6.2109
  4.380   6.3139
  4.376   6.4169
  4.372   6.4478
  4.369   6.4993
  4.365   6.4787
  4.361   6.3654
  4.358   6.3654
  4.354   6.4375
  4.350   6.4684
  4.347   6.4993
  4.343   6.5199
  4.340   6.4581
  4.336   6.4890
  4.332   6.6023
  4.329   6.6229
  4.325   6.5714
  4.321   6.5199
  4.318   6.5096
  4.314   6.5508
  4.311   6.5508
  4.307   6.6023
  4.304   6.6126
  4.300   6.6538
  4.296   6.7671
  4.293   6.8495
  4.289   6.7980
  4.286   6.7568
  4.282   6.8392
  4.279   6.8907
  4.275   6.7774
  4.272   6.7053
  4.268   6.7259
  4.265   6.8186
  4.261   6.8495
  4.258   6.8392
  4.254   6.7980
  4.251   6.8186
  4.247   6.9010
  4.244   6.9525
  4.240   6.8907
  4.237   6.8701
  4.233   6.8804
  4.230   6.9319
  4.226   6.9731
  4.223   7.0555
  4.219   7.0246
  4.216   6.9731
  4.213   6.9422
  4.209   6.8701
  4.206   6.8392
  4.202   6.9216
  4.199   6.9319
  4.196   6.8907
  4.192   6.7980
  4.189   6.7980
  4.185   6.8598
  4.182   6.8598
  4.179   6.8804
  4.175   6.9113
  4.172   6.8701
  4.169   6.8804
  4.165   6.8907
  4.162   6.9010
  4.159   6.8804
  4.155   6.8907
  4.152   6.9525
  4.149   6.9525
  4.145   6.9113
  4.142   6.9113
  4.139   6.9319
  4.135   6.9216
  4.132   6.9525
  4.129   6.9937
  4.126   6.9525
  4.122   6.9628
  4.119   6.9113
  4.116   6.8804
  4.112   6.9010
  4.109   6.9834
  4.106   7.0349
  4.103   7.0246
  4.099   6.9628
  4.096   6.9216
  4.093   6.9937
  4.090   7.0761
  4.086   7.0246
  4.083   6.9834
  4.080   6.9628
  4.077   6.9422
  4.074   6.9216
  4.070   6.9834
  4.067   7.0555
  4.064   7.0246
  4.061   6.9422
  4.058   6.9731
  4.055   6.9731
  4.051   6.9422
  4.048   6.9010
  4.045   6.9319
  4.042   6.9216
  4.039   6.9422
  4.036   6.9525
  4.032   6.9113
  4.029   6.9216
  4.026   6.9937
  4.023   6.8701
  4.020   6.8083
  4.017   6.8289
  4.014   6.8392
  4.011   6.8186
  4.008   6.7259
  4.004   6.7053
  4.001   6.7980
  3.998   6.6847
  3.995   6.6229
  3.992   6.6435
  3.989   6.6847
  3.986   6.7259
  3.983   6.7053
  3.980   6.6332
  3.977   6.6126
  3.974   6.6332
  3.971   6.6229
  3.968   6.6126
  3.965   6.6126
  3.962   6.6023
  3.959   6.6847
  3.956   6.7671
  3.953   6.7362
  3.950   6.7362
  3.947   6.8289
  3.944   6.8907
  3.941   6.9010
  3.938   6.8907
  3.935   6.9010
  3.932   6.8907
  3.929   6.8907
  3.926   6.8495
  3.923   6.8495
  3.920   6.8598
  3.917   6.9319
  3.914   7.0143
  3.911   7.0246
  3.908   7.0452
  3.905   6.9525
  3.902   6.8186
  3.899   6.8598
  3.896   6.8907
  3.893   6.9319
  3.890   6.9525
  3.887   7.0040
  3.884   6.9628
  3.882   6.9731
  3.879   7.0555
  3.876   7.0143
  3.873   6.9422
  3.870   6.8804
  3.867   6.9422
  3.864   7.0555
  3.861   6.9937
  3.858   6.9628
  3.856   6.9628
  3.853   6.9525
  3.850   6.9834
  3.847   6.9216
  3.844   6.8804
  3.841   6.9731
  3.838   6.9525
  3.836   7.0143
  3.833   6.9834
  3.830   6.9834
  3.827   7.0040
  3.824   6.9422
  3.822   6.9937
  3.819   7.0967
  3.816   7.0864
  3.813   7.1173
  3.810   7.1482
  3.807   7.0658
  3.805   7.0452
  3.802   7.1585
  3.799   7.1791
  3.796   7.1997
  3.794   7.1997
  3.791   7.1688
  3.788   7.1688
  3.785   7.2615
  3.782   7.2306
  3.780   7.2203
  3.777   7.2306
  3.774   7.2203
  3.771   7.1894
  3.769   7.1997
  3.766   7.1585
  3.763   7.1791
  3.761   7.1997
  3.758   7.1997
  3.755   7.2615
  3.752   7.2718
  3.750   7.2409
  3.747   7.2306
  3.744   7.2512
  3.742   7.2409
  3.739   7.2409
  3.736   7.1997
  3.733   7.0658
  3.731   7.1173
  3.728   7.1997
  3.725   7.1791
  3.723   7.0967
  3.720   7.1585
  3.717   7.1791
  3.715   7.1379
  3.712   7.1585
  3.709   7.1482
  3.707   7.0864
  3.704   7.0143
  3.702   7.0246
  3.699   7.0967
  3.696   7.0967
  3.694   7.0658
  3.691   6.9937
  3.688   7.0143
  3.686   7.1276
  3.683   7.1070
  3.680   7.0143
  3.678   7.0658
  3.675   7.1070
  3.673   7.1173
  3.670   7.1070
  3.667   7.0967
  3.665   7.0040
  3.662   6.9731
  3.660   6.9937
  3.657   7.0246
  3.655   7.0246
  3.652   7.0349
  3.649   6.9937
  3.647   7.0658
  3.644   7.0967
  3.642   7.1070
  3.639   7.0452
  3.637   6.9010
  3.634   6.8495
  3.632   6.9628
  3.629   7.0555
  3.626   7.0658
  3.624   7.0246
  3.621   6.9731
  3.619   6.9113
  3.616   6.9216
  3.614   6.9113
  3.611   6.9010
  3.609   6.9319
  3.606   6.9319
  3.604   6.9525
  3.601   6.9731
  3.599   6.9010
  3.596   6.9422
  3.594   6.9731
  3.591   6.9113
  3.589   6.8598
  3.586   6.8392
  3.584   6.8083
  3.581   6.7980
  3.579   6.8083
