Name: Basalt
Type: Rock
Class: Igneous
Subclass: Mafic
Particle Size: Whole rock chips
Sample No.: Me24
Owner: Lawrence Rowan, USGS Reston
Wavelength range: 0.40 - 14.05 um
Origin: North Tillah, Middle East

Description: Basalt, cut surface, fragment of basalt vessel





Measurement: Directional Hemispherical Reflectance
First Column: X
Second Column: Y
X Units: Wavelength (micrometers)
Y Units: Reflectance (percent)
First X Value: 14.05105
Last X Value: 0.40000
Number of X Values: 2231
Additional Information: me24a.txt

 14.051   4.5835
 14.013   4.3569
 13.975   4.3981
 13.938   4.5217
 13.900   4.6247
 13.863   4.6350
 13.826   4.6968
 13.790   4.6453
 13.753   4.6659
 13.717   4.5423
 13.680   4.6144
 13.644   4.7174
 13.609   4.8307
 13.573   4.6453
 13.538   4.6762
 13.502   4.6865
 13.467   4.8101
 13.432   4.8307
 13.398   4.8204
 13.363   4.8101
 13.329   4.9234
 13.295   4.8513
 13.261   4.8101
 13.227   4.7895
 13.193   4.8204
 13.160   4.7483
 13.126   4.8204
 13.093   4.7998
 13.060   4.8101
 13.027   4.8204
 12.995   4.8616
 12.962   4.7998
 12.930   4.9131
 12.898   4.9543
 12.866   4.9337
 12.834   4.8410
 12.802   4.9337
 12.771   4.9955
 12.739   5.0264
 12.708   4.8719
 12.677   4.9440
 12.646   5.0470
 12.616   5.1809
 12.585   5.1397
 12.554   5.0882
 12.524   5.0779
 12.494   5.2427
 12.464   5.3045
 12.434   5.3560
 12.404   5.3045
 12.375   5.3766
 12.345   5.4384
 12.316   5.5002
 12.287   5.5002
 12.258   5.6856
 12.229   5.7268
 12.200   5.7577
 12.171   5.8092
 12.143   5.9740
 12.115   6.0049
 12.086   6.0873
 12.058   6.0976
 12.030   6.2418
 12.002   6.2212
 11.975   6.2933
 11.947   6.3757
 11.920   6.3551
 11.892   6.3448
 11.865   6.5199
 11.838   6.5714
 11.811   6.6435
 11.784   6.6229
 11.757   6.7362
 11.731   6.8598
 11.704   7.0452
 11.678   7.1276
 11.652   7.2512
 11.626   7.2615
 11.600   7.3542
 11.574   7.4778
 11.548   7.5499
 11.522   7.6117
 11.497   7.7250
 11.471   7.7559
 11.446   7.9310
 11.421   8.0546
 11.396   8.1370
 11.371   8.1473
 11.346   8.3842
 11.321   8.4563
 11.297   8.5181
 11.272   8.5696
 11.248   8.5902
 11.223   8.6314
 11.199   8.7344
 11.175   8.7138
 11.151   8.8065
 11.127   8.8889
 11.103   8.9095
 11.079   8.8580
 11.056   9.0228
 11.032   8.9713
 11.009   8.9713
 10.985   9.0331
 10.962   9.1052
 10.939   9.0846
 10.916   9.1361
 10.893   9.1773
 10.870   9.2082
 10.848   9.1361
 10.825   9.1258
 10.802   9.1464
 10.780   9.1979
 10.758   9.1670
 10.735   9.1670
 10.713   9.0125
 10.691   8.9610
 10.669   8.9919
 10.647   9.0743
 10.625   9.0125
 10.604   9.0022
 10.582   8.9404
 10.560   8.9198
 10.539   8.8271
 10.518   8.8065
 10.496   8.7550
 10.475   8.6726
 10.454   8.6417
 10.433   8.7859
 10.412   8.8168
 10.391   8.7241
 10.370   8.6314
 10.350   8.7138
 10.329   8.7138
 10.309   8.6211
 10.288   8.5387
 10.268   8.5490
 10.247   8.5181
 10.227   8.5696
 10.207   8.6005
 10.187   8.5387
 10.167   8.4563
 10.147   8.5078
 10.127   8.4357
 10.108   8.3739
 10.088   8.3739
 10.068   8.5387
 10.049   8.6623
 10.029   8.5902
 10.010   8.5078
  9.991   8.5696
  9.972   8.5902
  9.952   8.6520
  9.933   8.6829
  9.914   8.7138
  9.895   8.6726
  9.877   8.6417
  9.858   8.6108
  9.839   8.6314
  9.821   8.6932
  9.802   8.7035
  9.783   8.6108
  9.765   8.6623
  9.747   8.6932
  9.728   8.6726
  9.710   8.5799
  9.692   8.5799
  9.674   8.6417
  9.656   8.6520
  9.638   8.5902
  9.620   8.7138
  9.602   8.7344
  9.585   8.6829
  9.567   8.6417
  9.549   8.6829
  9.532   8.6314
  9.514   8.6623
  9.497   8.6211
  9.479   8.6211
  9.462   8.5490
  9.445   8.6211
  9.428   8.6417
  9.411   8.5902
  9.394   8.4563
  9.377   8.5593
  9.360   8.5387
  9.343   8.4872
  9.326   8.4048
  9.309   8.4254
  9.293   8.3945
  9.276   8.3945
  9.259   8.3430
  9.243   8.3121
  9.226   8.1988
  9.210   8.2091
  9.194   8.2709
  9.178   8.3121
  9.161   8.1679
  9.145   8.1061
  9.129   8.1782
  9.113   8.3018
  9.097   8.1782
  9.081   8.2194
  9.065   8.3121
  9.049   8.3430
  9.034   8.3430
  9.018   8.3430
  9.002   8.2812
  8.987   8.3018
  8.971   8.2503
  8.956   8.2194
  8.940   8.2709
  8.925   8.2091
  8.909   8.0340
  8.894   8.0443
  8.879   8.0237
  8.864   7.9516
  8.849   7.8692
  8.834   7.8795
  8.819   7.7765
  8.804   7.6838
  8.789   7.6014
  8.774   7.4675
  8.759   7.3027
  8.744   7.3336
  8.730   7.3027
  8.715   7.2924
  8.700   7.2409
  8.686   7.2100
  8.671   7.0967
  8.657   7.0658
  8.642   7.0143
  8.628   7.0246
  8.614   6.9731
  8.599   6.9937
  8.585   6.9319
  8.571   6.9216
  8.557   6.8701
  8.543   6.8392
  8.529   6.7980
  8.515   6.8186
  8.501   6.7259
  8.487   6.7362
  8.473   6.6847
  8.459   6.6641
  8.445   6.6641
  8.431   6.6538
  8.418   6.5920
  8.404   6.6435
  8.391   6.6435
  8.377   6.5714
  8.363   6.5302
  8.350   6.4684
  8.337   6.3242
  8.323   6.2521
  8.310   6.2006
  8.297   6.1903
  8.283   5.9946
  8.270   5.8504
  8.257   5.6650
  8.244   5.5723
  8.231   5.4281
  8.218   5.2530
  8.205   5.0779
  8.192   5.0058
  8.179   4.9749
  8.166   4.9234
  8.153   4.7174
  8.140   4.6144
  8.128   4.4908
  8.115   4.4290
  8.102   4.3569
  8.090   4.3260
  8.077   4.3157
  8.064   4.3363
  8.052   4.2230
  8.039   4.1818
  8.027   4.1921
  8.015   4.2230
  8.002   4.2333
  7.990   4.2539
  7.978   4.1818
  7.965   4.1612
  7.953   4.0788
  7.941   4.0685
  7.929   4.0685
  7.917   4.0891
  7.905   4.1200
  7.893   4.1406
  7.881   4.1303
  7.869   4.1818
  7.857   4.1921
  7.845   4.1921
  7.833   4.1509
  7.821   4.1303
  7.809   4.1509
  7.798   4.2127
  7.786   4.2024
  7.774   4.2848
  7.763   4.2848
  7.751   4.2539
  7.739   4.1921
  7.728   4.1818
  7.716   4.2642
  7.705   4.3878
  7.694   4.4084
  7.682   4.4084
  7.671   4.3260
  7.659   4.3466
  7.648   4.3672
  7.637   4.3878
  7.626   4.3466
  7.614   4.3672
  7.603   4.4084
  7.592   4.4702
  7.581   4.3981
  7.570   4.4084
  7.559   4.4805
  7.548   4.5423
  7.537   4.5011
  7.526   4.5114
  7.515   4.5629
  7.504   4.5629
  7.493   4.5732
  7.483   4.6247
  7.472   4.6350
  7.461   4.6762
  7.450   4.6659
  7.440   4.6968
  7.429   4.6865
  7.418   4.6968
  7.408   4.6968
  7.397   4.7174
  7.387   4.7380
  7.376   4.7998
  7.366   4.7380
  7.355   4.6968
  7.345   4.7174
  7.334   4.7380
  7.324   4.6865
  7.314   4.7071
  7.303   4.7071
  7.293   4.6762
  7.283   4.5938
  7.273   4.6453
  7.263   4.6968
  7.252   4.6968
  7.242   4.6659
  7.232   4.6968
  7.222   4.6968
  7.212   4.7689
  7.202   4.7277
  7.192   4.6762
  7.182   4.5938
  7.172   4.5526
  7.162   4.5423
  7.152   4.6247
  7.143   4.6556
  7.133   4.6968
  7.123   4.6659
  7.113   4.7174
  7.103   4.6968
  7.094   4.6865
  7.084   4.7071
  7.074   4.7689
  7.065   4.7483
  7.055   4.7277
  7.046   4.6968
  7.036   4.6968
  7.026   4.7380
  7.017   4.7792
  7.007   4.7174
  6.998   4.7380
  6.989   4.7071
  6.979   4.6453
  6.970   4.6453
  6.960   4.7277
  6.951   4.7689
  6.942   4.7998
  6.932   4.7792
  6.923   4.7586
  6.914   4.6865
  6.905   4.6968
  6.896   4.6968
  6.886   4.7380
  6.877   4.7174
  6.868   4.6865
  6.859   4.6968
  6.850   4.7586
  6.841   4.7174
  6.832   4.7689
  6.823   4.8307
  6.814   4.8204
  6.805   4.7689
  6.796   4.7792
  6.787   4.8101
  6.778   4.8410
  6.770   4.7380
  6.761   4.6968
  6.752   4.7277
  6.743   4.8307
  6.734   4.8616
  6.726   4.8822
  6.717   4.8719
  6.708   4.8925
  6.700   4.9028
  6.691   4.9234
  6.682   4.8719
  6.674   4.9234
  6.665   4.9234
  6.657   4.9543
  6.648   4.9646
  6.640   4.9337
  6.631   4.8616
  6.623   4.9131
  6.614   5.0161
  6.606   5.0367
  6.597   5.0161
  6.589   5.0367
  6.581   5.0779
  6.572   5.1191
  6.564   5.1088
  6.556   5.1294
  6.547   5.1603
  6.539   5.2118
  6.531   5.2015
  6.523   5.2324
  6.514   5.2221
  6.506   5.2118
  6.498   5.1603
  6.490   5.1603
  6.482   5.2118
  6.474   5.3045
  6.466   5.2942
  6.458   5.2942
  6.450   5.3045
  6.442   5.2942
  6.434   5.2736
  6.426   5.2942
  6.418   5.2427
  6.410   5.2324
  6.402   5.2221
  6.394   5.2427
  6.386   5.2221
  6.378   5.2427
  6.370   5.2221
  6.363   5.1603
  6.355   5.1500
  6.347   5.1706
  6.339   5.1706
  6.332   5.1809
  6.324   5.1603
  6.316   5.1706
  6.308   5.0985
  6.301   5.1088
  6.293   5.1500
  6.286   5.1500
  6.278   5.0573
  6.270   5.0573
  6.263   5.1088
  6.255   5.1191
  6.248   5.0367
  6.240   5.0161
  6.233   4.9646
  6.225   4.9028
  6.218   4.9440
  6.210   4.9852
  6.203   4.9028
  6.195   4.8410
  6.188   4.8410
  6.181   4.8616
  6.173   4.8925
  6.166   4.9131
  6.159   4.8204
  6.151   4.7895
  6.144   4.7792
  6.137   4.7689
  6.130   4.7483
  6.122   4.7895
  6.115   4.7586
  6.108   4.6865
  6.101   4.6968
  6.094   4.7689
  6.086   4.7895
  6.079   4.7586
  6.072   4.7174
  6.065   4.7277
  6.058   4.7380
  6.051   4.7380
  6.044   4.7586
  6.037   4.8307
  6.030   4.8513
  6.023   4.8616
  6.016   4.8719
  6.009   4.9646
  6.002   4.9955
  5.995   4.9749
  5.988   4.9646
  5.981   4.9955
  5.974   5.0264
  5.967   5.0264
  5.960   5.0779
  5.954   5.1912
  5.947   5.2118
  5.940   5.2118
  5.933   5.2015
  5.926   5.2942
  5.920   5.3869
  5.913   5.3972
  5.906   5.3766
  5.899   5.3766
  5.893   5.3972
  5.886   5.4487
  5.879   5.4796
  5.873   5.6032
  5.866   5.6444
  5.859   5.6547
  5.853   5.6650
  5.846   5.7474
  5.840   5.7783
  5.833   5.8092
  5.827   5.7886
  5.820   5.7783
  5.813   5.8195
  5.807   5.8298
  5.800   5.8298
  5.794   5.8710
  5.788   5.9740
  5.781   5.9946
  5.775   5.9534
  5.768   5.9843
  5.762   5.9843
  5.755   6.0152
  5.749   6.0358
  5.743   5.9946
  5.736   5.9740
  5.730   6.0667
  5.724   6.1594
  5.717   6.1903
  5.711   6.1388
  5.705   6.1285
  5.698   6.1800
  5.692   6.2109
  5.686   6.1800
  5.680   6.1800
  5.674   6.2006
  5.667   6.2109
  5.661   6.2315
  5.655   6.2727
  5.649   6.2933
  5.643   6.2933
  5.637   6.2624
  5.630   6.2624
  5.624   6.2933
  5.618   6.3448
  5.612   6.3654
  5.606   6.3860
  5.600   6.3654
  5.594   6.3551
  5.588   6.3036
  5.582   6.2315
  5.576   6.1903
  5.570   6.2212
  5.564   6.2830
  5.558   6.2418
  5.552   6.2315
  5.546   6.2830
  5.540   6.3551
  5.534   6.4684
  5.528   6.5508
  5.523   6.5714
  5.517   6.5920
  5.511   6.6538
  5.505   6.7053
  5.499   6.6538
  5.493   6.5920
  5.487   6.6435
  5.482   6.6744
  5.476   6.7053
  5.470   6.7877
  5.464   6.8186
  5.459   6.8289
  5.453   6.8289
  5.447   6.8186
  5.441   6.8083
  5.436   6.8083
  5.430   6.7980
  5.424   6.7980
  5.419   6.8392
  5.413   6.8907
  5.407   6.9216
  5.402   6.9422
  5.396   6.9525
  5.390   6.9216
  5.385   6.9525
  5.379   7.0143
  5.374   6.9937
  5.368   6.9525
  5.363   7.0349
  5.357   7.0555
  5.352   7.0143
  5.346   7.0040
  5.341   7.0349
  5.335   7.1070
  5.330   7.1276
  5.324   7.0761
  5.319   7.0967
  5.313   7.1173
  5.308   7.1276
  5.302   7.1585
  5.297   7.1791
  5.291   7.1585
  5.286   7.2409
  5.281   7.2718
  5.275   7.2512
  5.270   7.2924
  5.265   7.3233
  5.259   7.3233
  5.254   7.3645
  5.249   7.3439
  5.243   7.3336
  5.238   7.4057
  5.233   7.4366
  5.227   7.4572
  5.222   7.5396
  5.217   7.5396
  5.212   7.5087
  5.206   7.5293
  5.201   7.5911
  5.196   7.6220
  5.191   7.6220
  5.186   7.6323
  5.180   7.6735
  5.175   7.6838
  5.170   7.7044
  5.165   7.7353
  5.160   7.7765
  5.155   7.7765
  5.150   7.7765
  5.145   7.7971
  5.139   7.8383
  5.134   7.8692
  5.129   7.8898
  5.124   7.8692
  5.119   7.8486
  5.114   7.8383
  5.109   7.8795
  5.104   7.9104
  5.099   7.9722
  5.094   7.9928
  5.089   7.9413
  5.084   7.9825
  5.079   8.0546
  5.074   8.0958
  5.069   8.0958
  5.064   8.1061
  5.059   8.1370
  5.054   8.1679
  5.049   8.2297
  5.044   8.2297
  5.040   8.2400
  5.035   8.2400
  5.030   8.2606
  5.025   8.2812
  5.020   8.2915
  5.015   8.3121
  5.010   8.3739
  5.005   8.3430
  5.001   8.3430
  4.996   8.3739
  4.991   8.3739
  4.986   8.4254
  4.981   8.5181
  4.977   8.5387
  4.972   8.4975
  4.967   8.4666
  4.962   8.4975
  4.958   8.5490
  4.953   8.5902
  4.948   8.6005
  4.943   8.6417
  4.939   8.6726
  4.934   8.7035
  4.929   8.6932
  4.925   8.6829
  4.920   8.7550
  4.915   8.8168
  4.911   8.7653
  4.906   8.7344
  4.901   8.8168
  4.897   8.8889
  4.892   8.9198
  4.888   8.9301
  4.883   8.9919
  4.878   9.0537
  4.874   8.9816
  4.869   8.9713
  4.865   8.9610
  4.860   8.9507
  4.856   9.0434
  4.851   9.1464
  4.846   9.1670
  4.842   9.1567
  4.837   9.1670
  4.833   9.2288
  4.828   9.2185
  4.824   9.2082
  4.819   9.2494
  4.815   9.2700
  4.810   9.2906
  4.806   9.2803
  4.802   9.2803
  4.797   9.3009
  4.793   9.3112
  4.788   9.3318
  4.784   9.3730
  4.779   9.3833
  4.775   9.3833
  4.771   9.3627
  4.766   9.4142
  4.762   9.4245
  4.758   9.4245
  4.753   9.4863
  4.749   9.5172
  4.744   9.4863
  4.740   9.5790
  4.736   9.6202
  4.731   9.5893
  4.727   9.6408
  4.723   9.6717
  4.719   9.6202
  4.714   9.6511
  4.710   9.7335
  4.706   9.7438
  4.701   9.7335
  4.697   9.7335
  4.693   9.7541
  4.689   9.7335
  4.684   9.6923
  4.680   9.7438
  4.676   9.8159
  4.672   9.8777
  4.668   9.9189
  4.663   9.9292
  4.659   9.9189
  4.655   9.8983
  4.651   9.9189
  4.647   9.9498
  4.643  10.0322
  4.638  10.0940
  4.634  10.0940
  4.630  10.0734
  4.626  10.0837
  4.622  10.1455
  4.618  10.2279
  4.614  10.3000
  4.610  10.2897
  4.605  10.3000
  4.601  10.2897
  4.597  10.2691
  4.593  10.3206
  4.589  10.3927
  4.585  10.4751
  4.581  10.4648
  4.577  10.4648
  4.573  10.5163
  4.569  10.5987
  4.565  10.6399
  4.561  10.6502
  4.557  10.7017
  4.553  10.6605
  4.549  10.6708
  4.545  10.6914
  4.541  10.6811
  4.537  10.7532
  4.533  10.8150
  4.529  10.8356
  4.525  10.8459
  4.521  10.8253
  4.517  10.8768
  4.513  10.8871
  4.509  10.9489
  4.505  10.9695
  4.502  10.9798
  4.498  10.9695
  4.494  11.0107
  4.490  11.0622
  4.486  11.1034
  4.482  11.1240
  4.478  11.1343
  4.474  11.1240
  4.470  11.1755
  4.467  11.1858
  4.463  11.1858
  4.459  11.2476
  4.455  11.2579
  4.451  11.2270
  4.447  11.2991
  4.444  11.3300
  4.440  11.3197
  4.436  11.2785
  4.432  11.2785
  4.428  11.3197
  4.425  11.4433
  4.421  11.5154
  4.417  11.5360
  4.413  11.5154
  4.410  11.5463
  4.406  11.5875
  4.402  11.6081
  4.398  11.5463
  4.395  11.5566
  4.391  11.6493
  4.387  11.6493
  4.384  11.5772
  4.380  11.6596
  4.376  11.7626
  4.372  11.7729
  4.369  11.7729
  4.365  11.7420
  4.361  11.7523
  4.358  11.7935
  4.354  11.7832
  4.350  11.8141
  4.347  11.8038
  4.343  11.7832
  4.340  11.7626
  4.336  11.8553
  4.332  11.8965
  4.329  11.9274
  4.325  11.9171
  4.321  11.9068
  4.318  11.9480
  4.314  11.9892
  4.311  12.0098
  4.307  12.0407
  4.304  12.0098
  4.300  12.0510
  4.296  12.1025
  4.293  12.0819
  4.289  12.0716
  4.286  12.1128
  4.282  12.1128
  4.279  12.1952
  4.275  12.2570
  4.272  12.2467
  4.268  12.2261
  4.265  12.1643
  4.261  12.1540
  4.258  12.2158
  4.254  12.2879
  4.251  12.3394
  4.247  12.3188
  4.244  12.3394
  4.240  12.3703
  4.237  12.2982
  4.233  12.2879
  4.230  12.2879
  4.226  12.3497
  4.223  12.3703
  4.219  12.4321
  4.216  12.4630
  4.213  12.5248
  4.209  12.5763
  4.206  12.6072
  4.202  12.6175
  4.199  12.6896
  4.196  12.7823
  4.192  12.7823
  4.189  12.7102
  4.185  12.6587
  4.182  12.6690
  4.179  12.6587
  4.175  12.6484
  4.172  12.6690
  4.169  12.7205
  4.165  12.6793
  4.162  12.6896
  4.159  12.7926
  4.155  12.8441
  4.152  12.8750
  4.149  12.9162
  4.145  12.8750
  4.142  12.8338
  4.139  12.8544
  4.135  12.8750
  4.132  12.8544
  4.129  12.8132
  4.126  12.8338
  4.122  12.8853
  4.119  12.9368
  4.116  12.9677
  4.112  12.9677
  4.109  12.9986
  4.106  12.9574
  4.103  12.9780
  4.099  13.0089
  4.096  13.1016
  4.093  13.0810
  4.090  13.0501
  4.086  13.0707
  4.083  13.0501
  4.080  12.9986
  4.077  13.0604
  4.074  13.1325
  4.070  13.2458
  4.067  13.2355
  4.064  13.1016
  4.061  13.0501
  4.058  13.0707
  4.055  13.0604
  4.051  13.0295
  4.048  12.9677
  4.045  12.9780
  4.042  13.0089
  4.039  13.0089
  4.036  13.1016
  4.032  13.2046
  4.029  13.1634
  4.026  13.0913
  4.023  12.9574
  4.020  12.9574
  4.017  13.0295
  4.014  12.9883
  4.011  12.9574
  4.008  12.9368
  4.004  12.8338
  4.001  12.7720
  3.998  12.7823
  3.995  12.8029
  3.992  12.7926
  3.989  12.7720
  3.986  12.6793
  3.983  12.6381
  3.980  12.5969
  3.977  12.6175
  3.974  12.7514
  3.971  12.7926
  3.968  12.7411
  3.965  12.7411
  3.962  12.7514
  3.959  12.7411
  3.956  12.6999
  3.953  12.7308
  3.950  12.8235
  3.947  12.9677
  3.944  13.0089
  3.941  12.9574
  3.938  12.9986
  3.935  13.0913
  3.932  13.1531
  3.929  13.1634
  3.926  13.0810
  3.923  13.1325
  3.920  13.1840
  3.917  13.1737
  3.914  13.1016
  3.911  13.1943
  3.908  13.2973
  3.905  13.2149
  3.902  13.1016
  3.899  13.1531
  3.896  13.1016
  3.893  13.0810
  3.890  13.1943
  3.887  13.2252
  3.884  13.3179
  3.882  13.4003
  3.879  13.3076
  3.876  13.2355
  3.873  13.2046
  3.870  13.2046
  3.867  13.1737
  3.864  13.1634
  3.861  13.1428
  3.858  13.1943
  3.856  13.3076
  3.853  13.2973
  3.850  13.2458
  3.847  13.2149
  3.844  13.2355
  3.841  13.3488
  3.838  13.3282
  3.836  13.3385
  3.833  13.3179
  3.830  13.3591
  3.827  13.3076
  3.824  13.3179
  3.822  13.3488
  3.819  13.4106
  3.816  13.5033
  3.813  13.4621
  3.810  13.4518
  3.807  13.4827
  3.805  13.3900
  3.802  13.4621
  3.799  13.4930
  3.796  13.3900
  3.794  13.3076
  3.791  13.3488
  3.788  13.4312
  3.785  13.5033
  3.782  13.4415
  3.780  13.3900
  3.777  13.4003
  3.774  13.4003
  3.771  13.4415
  3.769  13.4827
  3.766  13.3900
  3.763  13.2870
  3.761  13.3076
  3.758  13.4518
  3.755  13.5651
  3.752  13.4827
  3.750  13.4209
  3.747  13.4415
  3.744  13.3591
  3.742  13.3282
  3.739  13.2870
  3.736  13.2046
  3.733  13.2252
  3.731  13.3282
  3.728  13.2973
  3.725  13.3179
  3.723  13.2870
  3.720  13.2252
  3.717  13.2149
  3.715  13.2252
  3.712  13.2046
  3.709  13.2355
  3.707  13.3282
  3.704  13.4106
  3.702  13.3591
  3.699  13.2767
  3.696  13.2149
  3.694  13.2149
  3.691  13.1737
  3.688  13.1531
  3.686  13.0707
  3.683  13.0810
  3.680  13.1016
  3.678  13.1737
  3.675  13.1943
  3.673  13.2355
  3.670  13.2149
  3.667  13.1016
  3.665  13.0089
  3.662  12.9677
  3.660  12.9780
  3.657  13.0192
  3.655  13.0398
  3.652  13.0604
  3.649  13.0295
  3.647  12.9677
  3.644  12.9883
  3.642  13.0089
  3.639  12.9059
  3.637  12.9162
  3.634  12.9368
  3.632  12.9883
  3.629  12.9986
  3.626  12.8853
  3.624  12.8647
  3.621  12.9265
  3.619  12.8441
  3.616  12.8029
  3.614  12.9162
  3.611  12.8956
  3.609  12.7926
  3.606  12.9677
  3.604  13.0089
  3.601  12.8956
  3.599  12.7823
  3.596  12.7617
  3.594  12.6896
  3.591  12.6381
  3.589  12.6381
  3.586  12.6381
  3.584  12.6381
  3.581  12.6690
