Name: Basalt
Type: Rock
Class: Igneous
Subclass: Mafic
Particle Size: Whole rock chips
Sample No.: Me69
Owner: Lawrence Rowan, USGS Reston
Wavelength range: 0.40 - 14.05 um
Origin: Ghassul, Jordan

Description: Vesicular Basalt, grinder fragment





Measurement: Directional Hemispherical Reflectance
First Column: X
Second Column: Y
X Units: Wavelength (micrometers)
Y Units: Reflectance (percent)
First X Value: 14.05105
Last X Value: 0.40000
Number of X Values: 2231
Additional Information: 69a.txt

 14.051   3.1930
 14.013   3.2136
 13.975   3.2342
 13.938   3.3063
 13.900   3.5123
 13.863   3.4402
 13.826   3.3681
 13.790   3.4608
 13.753   3.4402
 13.717   3.2857
 13.680   3.4093
 13.644   3.4093
 13.609   3.4299
 13.573   3.3578
 13.538   3.3063
 13.502   3.2548
 13.467   3.3475
 13.432   3.2445
 13.398   3.1724
 13.363   3.2342
 13.329   3.3990
 13.295   3.3475
 13.261   3.3063
 13.227   3.3475
 13.193   3.4917
 13.160   3.4917
 13.126   3.4402
 13.093   3.2754
 13.060   3.3475
 13.027   3.3475
 12.995   3.3063
 12.962   3.2754
 12.930   3.4299
 12.898   3.4196
 12.866   3.3681
 12.834   3.3784
 12.802   3.4917
 12.771   3.3990
 12.739   3.4608
 12.708   3.6565
 12.677   3.7595
 12.646   3.5947
 12.616   3.6359
 12.585   3.6771
 12.554   3.7492
 12.524   3.7698
 12.494   3.7801
 12.464   3.8316
 12.434   3.9346
 12.404   3.9140
 12.375   3.9655
 12.345   3.9449
 12.316   4.0994
 12.287   4.2230
 12.258   4.3672
 12.229   4.4393
 12.200   4.5320
 12.171   4.5835
 12.143   4.6350
 12.115   4.6865
 12.086   4.8410
 12.058   4.8925
 12.030   5.0264
 12.002   5.0058
 11.975   5.0573
 11.947   5.1809
 11.920   5.2633
 11.892   5.2324
 11.865   5.3045
 11.838   5.3663
 11.811   5.5002
 11.784   5.5414
 11.757   5.6753
 11.731   5.8092
 11.704   5.9740
 11.678   6.0049
 11.652   6.1182
 11.626   6.2212
 11.600   6.4272
 11.574   6.5920
 11.548   6.7156
 11.522   6.7877
 11.497   6.9628
 11.471   7.0555
 11.446   7.2512
 11.421   7.4263
 11.396   7.6117
 11.371   7.6838
 11.346   7.7765
 11.321   7.8589
 11.297   8.0546
 11.272   8.1679
 11.248   8.2400
 11.223   8.2606
 11.199   8.4048
 11.175   8.3842
 11.151   8.2915
 11.127   8.2400
 11.103   8.2812
 11.079   8.3121
 11.056   8.5696
 11.032   8.7447
 11.009   8.7035
 10.985   8.6829
 10.962   8.8889
 10.939   8.9610
 10.916   9.0331
 10.893   9.0537
 10.870   9.2082
 10.848   9.3215
 10.825   9.3009
 10.802   9.2906
 10.780   9.3833
 10.758   9.4039
 10.735   9.4348
 10.713   9.4554
 10.691   9.5790
 10.669   9.6202
 10.647   9.6614
 10.625   9.7232
 10.604   9.7850
 10.582   9.7644
 10.560   9.8880
 10.539   9.8674
 10.518   9.8365
 10.496   9.8056
 10.475   9.8262
 10.454   9.8674
 10.433  10.0219
 10.412  10.1455
 10.391  10.2897
 10.370  10.3721
 10.350  10.4751
 10.329  10.5575
 10.309  10.6914
 10.288  10.7429
 10.268  10.8768
 10.247  10.9283
 10.227  10.9695
 10.207  11.0210
 10.187  11.0725
 10.167  11.0107
 10.147  11.0828
 10.127  11.1549
 10.108  11.2682
 10.088  11.4330
 10.068  11.5463
 10.049  11.5154
 10.029  11.6184
 10.010  11.8553
  9.991  12.0716
  9.972  12.1231
  9.952  12.2158
  9.933  12.3600
  9.914  12.5660
  9.895  12.5763
  9.877  12.5660
  9.858  12.6999
  9.839  12.8441
  9.821  12.9986
  9.802  13.1634
  9.783  13.2561
  9.765  13.4621
  9.747  13.4209
  9.728  13.4621
  9.710  13.5651
  9.692  13.6887
  9.674  13.7196
  9.656  13.7402
  9.638  13.7402
  9.620  13.7711
  9.602  13.7402
  9.585  13.7196
  9.567  13.6063
  9.549  13.5239
  9.532  13.3900
  9.514  13.2973
  9.497  13.1840
  9.479  13.0089
  9.462  12.8132
  9.445  12.7617
  9.428  12.5248
  9.411  12.2982
  9.394  12.1128
  9.377  11.9480
  9.360  11.6699
  9.343  11.3815
  9.326  11.1137
  9.309  10.8562
  9.293  10.5369
  9.276  10.3927
  9.259  10.2382
  9.243  10.0013
  9.226   9.7232
  9.210   9.5790
  9.194   9.5172
  9.178   9.4863
  9.161   9.3627
  9.145   9.2391
  9.129   9.1567
  9.113   9.1464
  9.097   9.1052
  9.081   9.0537
  9.065   8.9507
  9.049   8.9713
  9.034   8.8889
  9.018   8.8374
  9.002   8.8065
  8.987   8.7447
  8.971   8.5799
  8.956   8.5078
  8.940   8.4460
  8.925   8.3224
  8.909   8.1473
  8.894   8.1370
  8.879   8.0443
  8.864   7.8589
  8.849   7.6632
  8.834   7.5705
  8.819   7.5396
  8.804   7.5190
  8.789   7.4263
  8.774   7.2924
  8.759   7.1070
  8.744   7.0864
  8.730   7.0452
  8.715   6.9937
  8.700   6.7671
  8.686   6.7259
  8.671   6.6538
  8.657   6.6023
  8.642   6.5920
  8.628   6.4993
  8.614   6.2933
  8.599   6.2624
  8.585   6.1903
  8.571   6.0976
  8.557   5.9843
  8.543   5.9328
  8.529   5.7680
  8.515   5.7268
  8.501   5.6959
  8.487   5.7371
  8.473   5.7268
  8.459   5.6650
  8.445   5.4899
  8.431   5.4075
  8.418   5.3869
  8.404   5.3148
  8.391   5.2839
  8.377   5.3148
  8.363   5.1706
  8.350   5.0779
  8.337   5.0058
  8.323   4.8925
  8.310   4.7277
  8.297   4.6350
  8.283   4.4393
  8.270   4.2436
  8.257   4.1097
  8.244   4.0788
  8.231   4.0273
  8.218   3.9243
  8.205   3.7492
  8.192   3.6256
  8.179   3.5226
  8.166   3.5020
  8.153   3.3578
  8.140   3.2754
  8.128   3.2342
  8.115   3.2857
  8.102   3.2445
  8.090   3.2033
  8.077   3.1827
  8.064   3.1518
  8.052   3.0488
  8.039   3.0694
  8.027   3.0900
  8.015   3.1415
  8.002   3.0900
  7.990   3.0591
  7.978   3.1312
  7.965   3.2033
  7.953   3.1621
  7.941   3.2548
  7.929   3.1621
  7.917   3.0797
  7.905   3.1003
  7.893   3.0797
  7.881   3.0488
  7.869   3.0694
  7.857   3.0591
  7.845   3.0488
  7.833   3.0797
  7.821   3.1312
  7.809   3.1209
  7.798   3.1415
  7.786   3.1621
  7.774   3.2857
  7.763   3.3063
  7.751   3.3372
  7.739   3.2651
  7.728   3.2548
  7.716   3.2754
  7.705   3.3269
  7.694   3.3166
  7.682   3.3269
  7.671   3.3578
  7.659   3.4299
  7.648   3.3784
  7.637   3.3784
  7.626   3.3681
  7.614   3.4299
  7.603   3.4814
  7.592   3.4917
  7.581   3.3990
  7.570   3.4196
  7.559   3.3887
  7.548   3.3887
  7.537   3.5020
  7.526   3.5844
  7.515   3.5638
  7.504   3.5741
  7.493   3.5638
  7.483   3.5535
  7.472   3.5226
  7.461   3.6050
  7.450   3.5741
  7.440   3.5741
  7.429   3.5741
  7.418   3.5741
  7.408   3.6256
  7.397   3.7389
  7.387   3.7698
  7.376   3.7286
  7.366   3.6977
  7.355   3.6668
  7.345   3.6874
  7.334   3.7595
  7.324   3.7080
  7.314   3.6874
  7.303   3.7183
  7.293   3.7492
  7.283   3.7080
  7.273   3.7389
  7.263   3.7904
  7.252   3.7801
  7.242   3.7595
  7.232   3.7904
  7.222   3.8007
  7.212   3.8728
  7.202   3.9037
  7.192   3.8419
  7.182   3.8728
  7.172   3.9449
  7.162   3.9655
  7.152   3.9861
  7.143   3.9346
  7.133   3.9243
  7.123   3.9243
  7.113   3.9346
  7.103   3.9346
  7.094   3.9552
  7.084   3.9964
  7.074   3.9964
  7.065   3.9552
  7.055   3.9964
  7.046   4.0891
  7.036   4.1200
  7.026   4.0685
  7.017   4.0891
  7.007   4.0994
  6.998   4.0788
  6.989   4.0273
  6.979   4.0170
  6.970   4.0891
  6.960   4.2230
  6.951   4.2745
  6.942   4.2127
  6.932   4.1097
  6.923   4.1715
  6.914   4.2333
  6.905   4.2333
  6.896   4.1715
  6.886   4.1303
  6.877   4.1200
  6.868   4.1509
  6.859   4.2539
  6.850   4.2745
  6.841   4.2024
  6.832   4.3157
  6.823   4.3157
  6.814   4.2436
  6.805   4.1921
  6.796   4.2333
  6.787   4.2436
  6.778   4.3157
  6.770   4.3260
  6.761   4.3260
  6.752   4.2848
  6.743   4.2333
  6.734   4.2539
  6.726   4.3466
  6.717   4.3775
  6.708   4.3363
  6.700   4.2333
  6.691   4.2230
  6.682   4.2745
  6.674   4.3466
  6.665   4.3672
  6.657   4.3569
  6.648   4.3157
  6.640   4.3672
  6.631   4.5423
  6.623   4.5011
  6.614   4.3981
  6.606   4.3363
  6.597   4.3054
  6.589   4.3466
  6.581   4.3981
  6.572   4.5114
  6.564   4.5629
  6.556   4.5114
  6.547   4.4908
  6.539   4.4805
  6.531   4.5114
  6.523   4.5320
  6.514   4.5217
  6.506   4.5114
  6.498   4.5629
  6.490   4.6762
  6.482   4.6144
  6.474   4.5526
  6.466   4.5320
  6.458   4.5011
  6.450   4.4702
  6.442   4.4805
  6.434   4.4393
  6.426   4.3672
  6.418   4.4084
  6.410   4.5217
  6.402   4.4702
  6.394   4.3054
  6.386   4.2642
  6.378   4.2848
  6.370   4.2436
  6.363   4.2642
  6.355   4.2333
  6.347   4.1509
  6.339   4.1818
  6.332   4.1406
  6.324   4.0582
  6.316   4.0273
  6.308   4.0376
  6.301   4.0582
  6.293   4.0273
  6.286   4.0479
  6.278   4.0376
  6.270   4.0273
  6.263   3.9243
  6.255   3.9140
  6.248   3.9861
  6.240   3.9449
  6.233   3.7801
  6.225   3.7389
  6.218   3.7389
  6.210   3.7595
  6.203   3.7801
  6.195   3.7595
  6.188   3.7801
  6.181   3.7904
  6.173   3.5947
  6.166   3.5020
  6.159   3.5020
  6.151   3.5123
  6.144   3.4814
  6.137   3.5020
  6.130   3.4608
  6.122   3.4299
  6.115   3.3990
  6.108   3.5226
  6.101   3.5638
  6.094   3.5535
  6.086   3.4814
  6.079   3.3990
  6.072   3.4402
  6.065   3.4711
  6.058   3.4196
  6.051   3.5226
  6.044   3.6359
  6.037   3.5844
  6.030   3.5020
  6.023   3.4814
  6.016   3.5020
  6.009   3.5844
  6.002   3.6565
  5.995   3.6771
  5.988   3.7286
  5.981   3.7698
  5.974   3.7286
  5.967   3.7595
  5.960   3.8625
  5.954   3.9140
  5.947   3.9037
  5.940   3.8728
  5.933   4.0067
  5.926   4.0994
  5.920   4.0994
  5.913   4.1200
  5.906   4.0067
  5.899   3.9964
  5.893   4.1612
  5.886   4.2539
  5.879   4.3260
  5.873   4.3672
  5.866   4.3363
  5.859   4.3775
  5.853   4.3363
  5.846   4.3157
  5.840   4.3054
  5.833   4.3054
  5.827   4.3878
  5.820   4.5217
  5.813   4.5526
  5.807   4.5114
  5.800   4.4908
  5.794   4.5011
  5.788   4.5217
  5.781   4.5320
  5.775   4.5526
  5.768   4.6144
  5.762   4.6659
  5.755   4.6144
  5.749   4.6144
  5.743   4.6350
  5.736   4.6247
  5.730   4.6556
  5.724   4.6453
  5.717   4.6659
  5.711   4.7071
  5.705   4.7380
  5.698   4.6968
  5.692   4.7071
  5.686   4.6556
  5.680   4.6453
  5.674   4.7380
  5.667   4.7586
  5.661   4.7277
  5.655   4.7483
  5.649   4.7380
  5.643   4.8101
  5.637   4.8410
  5.630   4.7895
  5.624   4.7689
  5.618   4.8204
  5.612   4.8616
  5.606   4.8410
  5.600   4.8101
  5.594   4.7998
  5.588   4.7792
  5.582   4.7895
  5.576   4.8410
  5.570   4.8925
  5.564   4.8822
  5.558   4.8719
  5.552   4.9131
  5.546   4.9234
  5.540   4.9028
  5.534   4.9131
  5.528   4.9131
  5.523   4.9749
  5.517   4.9955
  5.511   4.9955
  5.505   4.9749
  5.499   5.0058
  5.493   5.0470
  5.487   5.0573
  5.482   5.0676
  5.476   5.1191
  5.470   5.1603
  5.464   5.1912
  5.459   5.2015
  5.453   5.1912
  5.447   5.2221
  5.441   5.2221
  5.436   5.1912
  5.430   5.1603
  5.424   5.2118
  5.419   5.2942
  5.413   5.2839
  5.407   5.2427
  5.402   5.2530
  5.396   5.2942
  5.390   5.2427
  5.385   5.1912
  5.379   5.2530
  5.374   5.3251
  5.368   5.3251
  5.363   5.3045
  5.357   5.3045
  5.352   5.3972
  5.346   5.4281
  5.341   5.3972
  5.335   5.4178
  5.330   5.4178
  5.324   5.3560
  5.319   5.3663
  5.313   5.4178
  5.308   5.4281
  5.302   5.4178
  5.297   5.4075
  5.291   5.4487
  5.286   5.5002
  5.281   5.5002
  5.275   5.4899
  5.270   5.4899
  5.265   5.5208
  5.259   5.5311
  5.254   5.5002
  5.249   5.4796
  5.243   5.5311
  5.238   5.5517
  5.233   5.5620
  5.227   5.6341
  5.222   5.6444
  5.217   5.6032
  5.212   5.6444
  5.206   5.6238
  5.201   5.5723
  5.196   5.6135
  5.191   5.6650
  5.186   5.6547
  5.180   5.5826
  5.175   5.5517
  5.170   5.5929
  5.165   5.6959
  5.160   5.7268
  5.155   5.6856
  5.150   5.6547
  5.145   5.6650
  5.139   5.7268
  5.134   5.7165
  5.129   5.6753
  5.124   5.6959
  5.119   5.7886
  5.114   5.7783
  5.109   5.7165
  5.104   5.7371
  5.099   5.7371
  5.094   5.7062
  5.089   5.7474
  5.084   5.7783
  5.079   5.7783
  5.074   5.7886
  5.069   5.8195
  5.064   5.8298
  5.059   5.7989
  5.054   5.7577
  5.049   5.7680
  5.044   5.8195
  5.040   5.8504
  5.035   5.8607
  5.030   5.8195
  5.025   5.8092
  5.020   5.8092
  5.015   5.7886
  5.010   5.7783
  5.005   5.7783
  5.001   5.7989
  4.996   5.8298
  4.991   5.8504
  4.986   5.8401
  4.981   5.8504
  4.977   5.8607
  4.972   5.8710
  4.967   5.8916
  4.962   5.8710
  4.958   5.9019
  4.953   5.9328
  4.948   5.9019
  4.943   5.9122
  4.939   5.9225
  4.934   5.9225
  4.929   5.9122
  4.925   5.8916
  4.920   5.9225
  4.915   5.9946
  4.911   6.0152
  4.906   6.0049
  4.901   6.0049
  4.897   6.0049
  4.892   6.0049
  4.888   5.9946
  4.883   5.9637
  4.878   5.9534
  4.874   5.9431
  4.869   5.9431
  4.865   5.9843
  4.860   6.0049
  4.856   6.0049
  4.851   6.0358
  4.846   6.0255
  4.842   6.0461
  4.837   6.0564
  4.833   6.0358
  4.828   6.0667
  4.824   6.0873
  4.819   6.0564
  4.815   6.0461
  4.810   6.0358
  4.806   6.0358
  4.802   6.0564
  4.797   6.1285
  4.793   6.1285
  4.788   6.1491
  4.784   6.1182
  4.779   6.0770
  4.775   6.0873
  4.771   6.1182
  4.766   6.1285
  4.762   6.1800
  4.758   6.1800
  4.753   6.1594
  4.749   6.1697
  4.744   6.1388
  4.740   6.1285
  4.736   6.1491
  4.731   6.1491
  4.727   6.1594
  4.723   6.1285
  4.719   6.0873
  4.714   6.0976
  4.710   6.1388
  4.706   6.2109
  4.701   6.2006
  4.697   6.1903
  4.693   6.2006
  4.689   6.1594
  4.684   6.2727
  4.680   6.3345
  4.676   6.2830
  4.672   6.2418
  4.668   6.1800
  4.663   6.1800
  4.659   6.2521
  4.655   6.3242
  4.651   6.3345
  4.647   6.3448
  4.643   6.3036
  4.638   6.2933
  4.634   6.3139
  4.630   6.3654
  4.626   6.3551
  4.622   6.3448
  4.618   6.3345
  4.614   6.3654
  4.610   6.3345
  4.605   6.3654
  4.601   6.3963
  4.597   6.4478
  4.593   6.4684
  4.589   6.4581
  4.585   6.4169
  4.581   6.4581
  4.577   6.4684
  4.573   6.4478
  4.569   6.4684
  4.565   6.4787
  4.561   6.4787
  4.557   6.5199
  4.553   6.5096
  4.549   6.4993
  4.545   6.4787
  4.541   6.4478
  4.537   6.4890
  4.533   6.4581
  4.529   6.4375
  4.525   6.5508
  4.521   6.6744
  4.517   6.5611
  4.513   6.4375
  4.509   6.4272
  4.505   6.4581
  4.502   6.5405
  4.498   6.5611
  4.494   6.5405
  4.490   6.4993
  4.486   6.5199
  4.482   6.5920
  4.478   6.6229
  4.474   6.5714
  4.470   6.5199
  4.467   6.5920
  4.463   6.5508
  4.459   6.5508
  4.455   6.6229
  4.451   6.6332
  4.447   6.6229
  4.444   6.5817
  4.440   6.5302
  4.436   6.5611
  4.432   6.6332
  4.428   6.6744
  4.425   6.6538
  4.421   6.6950
  4.417   6.6950
  4.413   6.6229
  4.410   6.6435
  4.406   6.6847
  4.402   6.7053
  4.398   6.7362
  4.395   6.7053
  4.391   6.6229
  4.387   6.6332
  4.384   6.6332
  4.380   6.5714
  4.376   6.6332
  4.372   6.7259
  4.369   6.7465
  4.365   6.7259
  4.361   6.6744
  4.358   6.6744
  4.354   6.6744
  4.350   6.6950
  4.347   6.7259
  4.343   6.7671
  4.340   6.6744
  4.336   6.6332
  4.332   6.6538
  4.329   6.7362
  4.325   6.7877
  4.321   6.7465
  4.318   6.7259
  4.314   6.7980
  4.311   6.8392
  4.307   6.7568
  4.304   6.7362
  4.300   6.8186
  4.296   6.8392
  4.293   6.8392
  4.289   6.8083
  4.286   6.7774
  4.282   6.7362
  4.279   6.6950
  4.275   6.7465
  4.272   6.8186
  4.268   6.7671
  4.265   6.7259
  4.261   6.7465
  4.258   6.8083
  4.254   6.8186
  4.251   6.8186
  4.247   6.7053
  4.244   6.6641
  4.240   6.6950
  4.237   6.7671
  4.233   6.8392
  4.230   6.8804
  4.226   6.8289
  4.223   6.7259
  4.219   6.7362
  4.216   6.8804
  4.213   6.9216
  4.209   6.8392
  4.206   6.7774
  4.202   6.7053
  4.199   6.6126
  4.196   6.6332
  4.192   6.6950
  4.189   6.7671
  4.185   6.8495
  4.182   6.7980
  4.179   6.7465
  4.175   6.8289
  4.172   6.8186
  4.169   6.7362
  4.165   6.7671
  4.162   6.7877
  4.159   6.7053
  4.155   6.6435
  4.152   6.7156
  4.149   6.8186
  4.145   6.8598
  4.142   6.7671
  4.139   6.7053
  4.135   6.7053
  4.132   6.6744
  4.129   6.7053
  4.126   6.8083
  4.122   6.8907
  4.119   6.7877
  4.116   6.6744
  4.112   6.6435
  4.109   6.6847
  4.106   6.7259
  4.103   6.7877
  4.099   6.7671
  4.096   6.6847
  4.093   6.6641
  4.090   6.7259
  4.086   6.7568
  4.083   6.7156
  4.080   6.7053
  4.077   6.6950
  4.074   6.6229
  4.070   6.6538
  4.067   6.6435
  4.064   6.6744
  4.061   6.6435
  4.058   6.6332
  4.055   6.6332
  4.051   6.6435
  4.048   6.6950
  4.045   6.8083
  4.042   6.7877
  4.039   6.6538
  4.036   6.5611
  4.032   6.6435
  4.029   6.6435
  4.026   6.5817
  4.023   6.5611
  4.020   6.5611
  4.017   6.4684
  4.014   6.5199
  4.011   6.6641
  4.008   6.6744
  4.004   6.6229
  4.001   6.5920
  3.998   6.4993
  3.995   6.6023
  3.992   6.6332
  3.989   6.4787
  3.986   6.3860
  3.983   6.4272
  3.980   6.4272
  3.977   6.4684
  3.974   6.5302
  3.971   6.5714
  3.968   6.5817
  3.965   6.4993
  3.962   6.5508
  3.959   6.6126
  3.956   6.6435
  3.953   6.7053
  3.950   6.6229
  3.947   6.5508
  3.944   6.4581
  3.941   6.4890
  3.938   6.4787
  3.935   6.4169
  3.932   6.4684
  3.929   6.4993
  3.926   6.5611
  3.923   6.5817
  3.920   6.4272
  3.917   6.3654
  3.914   6.4787
  3.911   6.5611
  3.908   6.5817
  3.905   6.6126
  3.902   6.6023
  3.899   6.5405
  3.896   6.4272
  3.893   6.4787
  3.890   6.5096
  3.887   6.4787
  3.884   6.4581
  3.882   6.5405
  3.879   6.6332
  3.876   6.6023
  3.873   6.5611
  3.870   6.5405
  3.867   6.4169
  3.864   6.4581
  3.861   6.5302
  3.858   6.5199
  3.856   6.5096
  3.853   6.4478
  3.850   6.4581
  3.847   6.4993
  3.844   6.4375
  3.841   6.3963
  3.838   6.4478
  3.836   6.4478
  3.833   6.3757
  3.830   6.4066
  3.827   6.4169
  3.824   6.4581
  3.822   6.5508
  3.819   6.5508
  3.816   6.5920
  3.813   6.5714
  3.810   6.5096
  3.807   6.5096
  3.805   6.4993
  3.802   6.4375
  3.799   6.3860
  3.796   6.3345
  3.794   6.3448
  3.791   6.5199
  3.788   6.4684
  3.785   6.4993
  3.782   6.6641
  3.780   6.7259
  3.777   6.6538
  3.774   6.5199
  3.771   6.3757
  3.769   6.4375
  3.766   6.5611
  3.763   6.6023
  3.761   6.4890
  3.758   6.4066
  3.755   6.4993
  3.752   6.5508
  3.750   6.4684
  3.747   6.5199
  3.744   6.6126
  3.742   6.6229
  3.739   6.4993
  3.736   6.5508
  3.733   6.6023
  3.731   6.4890
  3.728   6.4375
  3.725   6.3757
  3.723   6.3345
  3.720   6.4272
  3.717   6.4478
  3.715   6.4890
  3.712   6.5096
  3.709   6.4890
  3.707   6.4375
  3.704   6.3963
  3.702   6.3345
  3.699   6.3345
  3.696   6.2624
  3.694   6.3551
  3.691   6.4993
  3.688   6.4993
  3.686   6.3963
  3.683   6.3551
  3.680   6.3448
  3.678   6.3757
  3.675   6.2624
  3.673   6.2624
  3.670   6.3036
  3.667   6.2521
  3.665   6.2933
  3.662   6.3242
  3.660   6.2418
  3.657   6.2109
  3.655   6.2418
  3.652   6.2418
  3.649   6.1903
  3.647   6.3036
  3.644   6.2727
  3.642   6.1491
  3.639   6.2727
  3.637   6.4890
  3.634   6.3963
  3.632   6.3139
  3.629   6.3139
  3.626   6.3036
  3.624   6.3139
  3.621   6.3551
  3.619   6.2212
  3.616   6.2418
  3.614   6.3551
  3.611   6.3551
  3.609   6.2830
  3.606   6.3448
  3.604   6.4272
  3.601   6.3963
  3.599   6.2109
  3.596   6.1182
  3.594   6.1079
  3.591   6.1800
  3.589   6.1800
  3.586   6.1079
  3.584   6.0564
  3.581   6.0667
  3.579   6.0873
