Name: Rhyolite
Type: Rock
Class: Igneous
Subclass: Felsic
Particle Size: Whole Rock Chips
Sample No.: AP-937-168
Owner: United States Geological Survey, L. C. Rowan
Wavelength range: 0.405 - 14.05 um
Origin: Iberian Pyrite Belt, Spain

Description: Rhyolite, white, phyllic





Measurement: Directional Hemispherical Reflectance
First Column: X
Second Column: Y
X Units: Wavelength (micrometers)
Y Units: Reflectance (percent)
First X Value: 14.05105
Last X Value: 0.40500
Number of X Values: 2530
Additional Information: rhy168a.txt

 14.051   2.0806
 14.013   1.8746
 13.975   2.1012
 13.938   2.2145
 13.900   2.2866
 13.863   2.1424
 13.826   2.2866
 13.790   2.2557
 13.753   2.3484
 13.717   2.3381
 13.680   2.4205
 13.644   2.2866
 13.609   2.2763
 13.573   2.2454
 13.538   2.4720
 13.502   2.5132
 13.467   2.5544
 13.432   2.5647
 13.398   2.6471
 13.363   2.5132
 13.329   2.4720
 13.295   2.4514
 13.261   2.5647
 13.227   2.6677
 13.193   2.7913
 13.160   2.6780
 13.126   2.7192
 13.093   2.6986
 13.060   2.8634
 13.027   2.9561
 12.995   2.9767
 12.962   2.9870
 12.930   3.1724
 12.898   3.3063
 12.866   3.4711
 12.834   3.5432
 12.802   3.6771
 12.771   3.5741
 12.739   3.4505
 12.708   3.1930
 12.677   3.0488
 12.646   2.8634
 12.616   2.8737
 12.585   2.9767
 12.554   3.1621
 12.524   3.1724
 12.494   3.2342
 12.464   3.1209
 12.434   2.9973
 12.404   2.6265
 12.375   2.3587
 12.345   2.0806
 12.316   1.8643
 12.287   1.6686
 12.258   1.7201
 12.229   1.6789
 12.200   1.8231
 12.171   1.9364
 12.143   1.9879
 12.115   1.9467
 12.086   2.0703
 12.058   2.0909
 12.030   2.1321
 12.002   2.1836
 11.975   2.2763
 11.947   2.2351
 11.920   2.3175
 11.892   2.3484
 11.865   2.3278
 11.838   2.2969
 11.811   2.4308
 11.784   2.4823
 11.757   2.6265
 11.731   2.5750
 11.704   2.6368
 11.678   2.7089
 11.652   2.7810
 11.626   2.7604
 11.600   2.8222
 11.574   2.8737
 11.548   2.9870
 11.522   2.8634
 11.497   2.8428
 11.471   2.9355
 11.446   3.0694
 11.421   3.0385
 11.396   3.1106
 11.371   3.0900
 11.346   3.1827
 11.321   3.2445
 11.297   3.2857
 11.272   3.1621
 11.248   3.1827
 11.223   3.2033
 11.199   3.3166
 11.175   3.3681
 11.151   3.4505
 11.127   3.4196
 11.103   3.4505
 11.079   3.4299
 11.056   3.4711
 11.032   3.3372
 11.009   3.2651
 10.985   3.2548
 10.962   3.3063
 10.939   3.3063
 10.916   3.5020
 10.893   3.4711
 10.870   3.3784
 10.848   3.2239
 10.825   3.3063
 10.802   3.3887
 10.780   3.5020
 10.758   3.4608
 10.735   3.4505
 10.713   3.4299
 10.691   3.5020
 10.669   3.5432
 10.647   3.6153
 10.625   3.5947
 10.604   3.6874
 10.582   3.7904
 10.560   3.9861
 10.539   4.0376
 10.518   4.1097
 10.496   4.0788
 10.475   4.1509
 10.454   4.2024
 10.433   4.2333
 10.412   4.2333
 10.391   4.3775
 10.370   4.3981
 10.350   4.4702
 10.329   4.4702
 10.309   4.5011
 10.288   4.4702
 10.268   4.5526
 10.247   4.5835
 10.227   4.6762
 10.207   4.6865
 10.187   4.7792
 10.167   4.7998
 10.147   4.7998
 10.127   4.8101
 10.108   4.9852
 10.088   5.0676
 10.068   5.1294
 10.049   5.0779
 10.029   5.2118
 10.010   5.2427
  9.991   5.3354
  9.972   5.3560
  9.952   5.4899
  9.933   5.6032
  9.914   5.7062
  9.895   5.6856
  9.877   5.6753
  9.858   5.6753
  9.839   5.8195
  9.821   5.8504
  9.802   5.8916
  9.783   5.8813
  9.765   5.9637
  9.747   6.0873
  9.728   6.3139
  9.710   6.4890
  9.692   6.6332
  9.674   6.7465
  9.656   6.9628
  9.638   7.1173
  9.620   7.3336
  9.602   7.3748
  9.585   7.4572
  9.567   7.4263
  9.549   7.4778
  9.532   7.5396
  9.514   7.6426
  9.497   7.7456
  9.479   7.8589
  9.462   7.9001
  9.445   8.0443
  9.428   8.1885
  9.411   8.5387
  9.394   8.9301
  9.377   9.4451
  9.360   9.8674
  9.343  10.2176
  9.326  10.5163
  9.309  10.7120
  9.293  10.7635
  9.276  10.9283
  9.259  10.9386
  9.243  10.8459
  9.226  10.8562
  9.210  10.9283
  9.194  10.9283
  9.178  10.9695
  9.161  10.9798
  9.145  10.9592
  9.129  10.9283
  9.113  10.9489
  9.097  10.8253
  9.081  10.7429
  9.065  10.6811
  9.049  10.6605
  9.034  10.5060
  9.018  10.4030
  9.002  10.2279
  8.987  10.1352
  8.971  10.0837
  8.956  10.0631
  8.940   9.9910
  8.925  10.0013
  8.909   9.9086
  8.894   9.9395
  8.879   9.9292
  8.864   9.8674
  8.849   9.7335
  8.834   9.7644
  8.819   9.7232
  8.804   9.6305
  8.789   9.4451
  8.774   9.3524
  8.759   9.1464
  8.744   9.0537
  8.730   8.9095
  8.715   8.8477
  8.700   8.7550
  8.686   8.5284
  8.671   8.1885
  8.657   7.7559
  8.642   7.2203
  8.628   6.7671
  8.614   6.5405
  8.599   6.8495
  8.585   7.4778
  8.571   8.0855
  8.557   8.3945
  8.543   8.5078
  8.529   8.4872
  8.515   8.5799
  8.501   8.6314
  8.487   8.6211
  8.473   8.4769
  8.459   8.5490
  8.445   8.6520
  8.431   8.6211
  8.418   8.4769
  8.404   8.4151
  8.391   8.4357
  8.377   8.4975
  8.363   8.6005
  8.350   8.6623
  8.337   8.6726
  8.323   8.7859
  8.310   8.9198
  8.297   9.2082
  8.283   9.4245
  8.270   9.6717
  8.257   9.8777
  8.244  10.1352
  8.231  10.2794
  8.218  10.4957
  8.205  10.7429
  8.192  10.8665
  8.179  10.8253
  8.166  10.6605
  8.153  10.3618
  8.140  10.0013
  8.128   9.5069
  8.115   8.9610
  8.102   8.3739
  8.090   7.8074
  8.077   7.3336
  8.064   7.0040
  8.052   6.5611
  8.039   6.1388
  8.027   5.7268
  8.015   5.4487
  8.002   5.1603
  7.990   4.9028
  7.978   4.6350
  7.965   4.3878
  7.953   4.0994
  7.941   3.8934
  7.929   3.6359
  7.917   3.4196
  7.905   3.1930
  7.893   3.0179
  7.881   2.8531
  7.869   2.7192
  7.857   2.5338
  7.845   2.4617
  7.833   2.4617
  7.821   2.3999
  7.809   2.2454
  7.798   2.1733
  7.786   2.0806
  7.774   2.0909
  7.763   2.0806
  7.751   2.0703
  7.739   1.9467
  7.728   1.8849
  7.716   1.8643
  7.705   1.8746
  7.694   1.8643
  7.682   1.8849
  7.671   1.8334
  7.659   1.7922
  7.648   1.7407
  7.637   1.7819
  7.626   1.8025
  7.614   1.7201
  7.603   1.5862
  7.592   1.5862
  7.581   1.5862
  7.570   1.6377
  7.559   1.5965
  7.548   1.5244
  7.537   1.4729
  7.526   1.5347
  7.515   1.5244
  7.504   1.5141
  7.493   1.4832
  7.483   1.5038
  7.472   1.5656
  7.461   1.5450
  7.450   1.4626
  7.440   1.5244
  7.429   1.5244
  7.418   1.5347
  7.408   1.4523
  7.397   1.4008
  7.387   1.4008
  7.376   1.4111
  7.366   1.3802
  7.355   1.4420
  7.345   1.4420
  7.334   1.4420
  7.324   1.4214
  7.314   1.4214
  7.303   1.4317
  7.293   1.4317
  7.283   1.3905
  7.273   1.4111
  7.263   1.4729
  7.252   1.5450
  7.242   1.5553
  7.232   1.5656
  7.222   1.5141
  7.212   1.5038
  7.202   1.4729
  7.192   1.4935
  7.182   1.5244
  7.172   1.5759
  7.162   1.5553
  7.152   1.5759
  7.143   1.5244
  7.133   1.5244
  7.123   1.5347
  7.113   1.5965
  7.103   1.5347
  7.094   1.5759
  7.084   1.6583
  7.074   1.6686
  7.065   1.6068
  7.055   1.5862
  7.046   1.5450
  7.036   1.5347
  7.026   1.5553
  7.017   1.6583
  7.007   1.6789
  6.998   1.6377
  6.989   1.5862
  6.979   1.6274
  6.970   1.6583
  6.960   1.6789
  6.951   1.6686
  6.942   1.6892
  6.932   1.6686
  6.923   1.7098
  6.914   1.7510
  6.905   1.7922
  6.896   1.7510
  6.886   1.7098
  6.877   1.7201
  6.868   1.6995
  6.859   1.6274
  6.850   1.6789
  6.841   1.7304
  6.832   1.7819
  6.823   1.7304
  6.814   1.7510
  6.805   1.7819
  6.796   1.7922
  6.787   1.7613
  6.778   1.7510
  6.770   1.7407
  6.761   1.7201
  6.752   1.7304
  6.743   1.7922
  6.734   1.8643
  6.726   1.8849
  6.717   1.8334
  6.708   1.8334
  6.700   1.8025
  6.691   1.7716
  6.682   1.7510
  6.674   1.8334
  6.665   1.7922
  6.657   1.7716
  6.648   1.8231
  6.640   1.8952
  6.631   1.8746
  6.623   1.8849
  6.614   1.8643
  6.606   1.8746
  6.597   1.8952
  6.589   1.8849
  6.581   1.8334
  6.572   1.8025
  6.564   1.8334
  6.556   1.8540
  6.547   1.8128
  6.539   1.8643
  6.531   1.8746
  6.523   1.8952
  6.514   1.9364
  6.506   1.9982
  6.498   1.9879
  6.490   2.0291
  6.482   2.0806
  6.474   2.1218
  6.466   2.1424
  6.458   2.1836
  6.450   2.1939
  6.442   2.2042
  6.434   2.2145
  6.426   2.2351
  6.418   2.2042
  6.410   2.2248
  6.402   2.2145
  6.394   2.2351
  6.386   2.1939
  6.378   2.2042
  6.370   2.1939
  6.363   2.1836
  6.355   2.1218
  6.347   2.1218
  6.339   2.1424
  6.332   2.0909
  6.324   2.0394
  6.316   2.0703
  6.308   2.0291
  6.301   2.0394
  6.293   2.0394
  6.286   1.9879
  6.278   1.9364
  6.270   1.9879
  6.263   2.0188
  6.255   1.9467
  6.248   1.8643
  6.240   1.8849
  6.233   1.8952
  6.225   1.8334
  6.218   1.7922
  6.210   1.8540
  6.203   1.8643
  6.195   1.8437
  6.188   1.8231
  6.181   1.7819
  6.173   1.7304
  6.166   1.7613
  6.159   1.7819
  6.151   1.8231
  6.144   1.8849
  6.137   1.8952
  6.130   1.8952
  6.122   1.9364
  6.115   1.9261
  6.108   1.8952
  6.101   1.9055
  6.094   1.9776
  6.086   2.0394
  6.079   2.0188
  6.072   1.9879
  6.065   2.0188
  6.058   1.9879
  6.051   1.9982
  6.044   2.0085
  6.037   2.0394
  6.030   2.0703
  6.023   2.0600
  6.016   2.0291
  6.009   2.0188
  6.002   2.0600
  5.995   2.1218
  5.988   2.1012
  5.981   2.0600
  5.974   2.0703
  5.967   2.1218
  5.960   2.0806
  5.954   2.0394
  5.947   2.0188
  5.940   2.0497
  5.933   2.0703
  5.926   2.1218
  5.920   2.1836
  5.913   2.1630
  5.906   2.1527
  5.899   2.2454
  5.893   2.2866
  5.886   2.3175
  5.879   2.3587
  5.873   2.3690
  5.866   2.4308
  5.859   2.4926
  5.853   2.4926
  5.846   2.5441
  5.840   2.6162
  5.833   2.6883
  5.827   2.7398
  5.820   2.7501
  5.813   2.7398
  5.807   2.8016
  5.800   2.8428
  5.794   2.8943
  5.788   2.8943
  5.781   2.8943
  5.775   2.9149
  5.768   2.9458
  5.762   2.9767
  5.755   3.0385
  5.749   3.0488
  5.743   3.0797
  5.736   3.0900
  5.730   3.1106
  5.724   3.1312
  5.717   3.1518
  5.711   3.1518
  5.705   3.1621
  5.698   3.1518
  5.692   3.1621
  5.686   3.2033
  5.680   3.1621
  5.674   3.1003
  5.667   3.1209
  5.661   3.0900
  5.655   3.0385
  5.649   3.0282
  5.643   3.0282
  5.637   2.9767
  5.630   2.9252
  5.624   2.8737
  5.618   2.8737
  5.612   2.8428
  5.606   2.8016
  5.600   2.8016
  5.594   2.8016
  5.588   2.8325
  5.582   2.8840
  5.576   2.8325
  5.570   2.7913
  5.564   2.8119
  5.558   2.8531
  5.552   2.8737
  5.546   2.8634
  5.540   2.8943
  5.534   3.0076
  5.528   3.0179
  5.523   3.0179
  5.517   3.0488
  5.511   3.1106
  5.505   3.1518
  5.499   3.1621
  5.493   3.2239
  5.487   3.2754
  5.482   3.3063
  5.476   3.3475
  5.470   3.3475
  5.464   3.3887
  5.459   3.4196
  5.453   3.4299
  5.447   3.4505
  5.441   3.4814
  5.436   3.4711
  5.430   3.5123
  5.424   3.4814
  5.419   3.3475
  5.413   3.3372
  5.407   3.3681
  5.402   3.3063
  5.396   3.1930
  5.390   3.0797
  5.385   3.0797
  5.379   3.0282
  5.374   2.9355
  5.368   2.9149
  5.363   2.9046
  5.357   2.8634
  5.352   2.8119
  5.346   2.8016
  5.341   2.8531
  5.335   2.8943
  5.330   2.8943
  5.324   2.9149
  5.319   2.9355
  5.313   2.9355
  5.308   2.9561
  5.302   2.9767
  5.297   3.0076
  5.291   2.9973
  5.286   3.0385
  5.281   3.1106
  5.275   3.1621
  5.270   3.2136
  5.265   3.2239
  5.259   3.2651
  5.254   3.3269
  5.249   3.3887
  5.243   3.5020
  5.238   3.5844
  5.233   3.6771
  5.227   3.7698
  5.222   3.8625
  5.217   3.9346
  5.212   3.9861
  5.206   4.0582
  5.201   4.1303
  5.196   4.1509
  5.191   4.2230
  5.186   4.2436
  5.180   4.2230
  5.175   4.2539
  5.170   4.3054
  5.165   4.3157
  5.160   4.3157
  5.155   4.3054
  5.150   4.3054
  5.145   4.3054
  5.139   4.3466
  5.134   4.3569
  5.129   4.3363
  5.124   4.3672
  5.119   4.4496
  5.114   4.4805
  5.109   4.4393
  5.104   4.4702
  5.099   4.4805
  5.094   4.4393
  5.089   4.4290
  5.084   4.4084
  5.079   4.3157
  5.074   4.2436
  5.069   4.2848
  5.064   4.3363
  5.059   4.3569
  5.054   4.3260
  5.049   4.3466
  5.044   4.3775
  5.040   4.3878
  5.035   4.3981
  5.030   4.4393
  5.025   4.4805
  5.020   4.4393
  5.015   4.3775
  5.010   4.3672
  5.005   4.3775
  5.001   4.4496
  4.996   4.4805
  4.991   4.5320
  4.986   4.5835
  4.981   4.6144
  4.977   4.6762
  4.972   4.7483
  4.967   4.8719
  4.962   5.0573
  4.958   5.1500
  4.953   5.2942
  4.948   5.4487
  4.943   5.5311
  4.939   5.5517
  4.934   5.5414
  4.929   5.5723
  4.925   5.5929
  4.920   5.6959
  4.915   5.8504
  4.911   5.9637
  4.906   6.1388
  4.901   6.3757
  4.897   6.6538
  4.892   6.9010
  4.888   7.1482
  4.883   7.3336
  4.878   7.4881
  4.874   7.6426
  4.869   7.7971
  4.865   7.9516
  4.860   8.0958
  4.856   8.2297
  4.851   8.3533
  4.846   8.5387
  4.842   8.6932
  4.837   8.7859
  4.833   8.8889
  4.828   9.0434
  4.824   9.1464
  4.819   9.1773
  4.815   9.2906
  4.810   9.4451
  4.806   9.5790
  4.802   9.6717
  4.797   9.7026
  4.793   9.7747
  4.788   9.8777
  4.784   9.9807
  4.779  10.0219
  4.775  10.0940
  4.771  10.1970
  4.766  10.2588
  4.762  10.3515
  4.758  10.4133
  4.753  10.5060
  4.749  10.6090
  4.744  10.7326
  4.740  10.8150
  4.736  10.9180
  4.731  11.0313
  4.727  11.0622
  4.723  11.1034
  4.719  11.2167
  4.714  11.2785
  4.710  11.2991
  4.706  11.3609
  4.701  11.3609
  4.697  11.3300
  4.693  11.2682
  4.689  11.1858
  4.684  11.1961
  4.680  11.2064
  4.676  11.2373
  4.672  11.3609
  4.668  11.5566
  4.663  11.7214
  4.659  11.8347
  4.655  11.9995
  4.651  12.1643
  4.647  12.2673
  4.643  12.3909
  4.638  12.5660
  4.634  12.7514
  4.630  12.9162
  4.626  13.0810
  4.622  13.2252
  4.618  13.3179
  4.614  13.4621
  4.610  13.6475
  4.605  13.8123
  4.601  13.9771
  4.597  14.1110
  4.593  14.1831
  4.589  14.1934
  4.585  14.2964
  4.581  14.4612
  4.577  14.5745
  4.573  14.6157
  4.569  14.6260
  4.565  14.6672
  4.561  14.7599
  4.557  14.8629
  4.553  14.9041
  4.549  14.9041
  4.545  14.8938
  4.541  14.9144
  4.537  14.8423
  4.533  14.7187
  4.529  14.6260
  4.525  14.5848
  4.521  14.4818
  4.517  14.3479
  4.513  14.2449
  4.509  14.1007
  4.505  13.9050
  4.502  13.8020
  4.498  13.6990
  4.494  13.5857
  4.490  13.5960
  4.486  13.6063
  4.482  13.5445
  4.478  13.4930
  4.474  13.5136
  4.470  13.5857
  4.467  13.5857
  4.463  13.6475
  4.459  13.7711
  4.455  13.9256
  4.451  14.1110
  4.447  14.3170
  4.444  14.4612
  4.440  14.5436
  4.436  14.6981
  4.432  14.9144
  4.428  15.0792
  4.425  15.1822
  4.421  15.2955
  4.417  15.4912
  4.413  15.6972
  4.410  15.8517
  4.406  16.0165
  4.402  16.2328
  4.398  16.4388
  4.395  16.6139
  4.391  16.8096
  4.387  17.0568
  4.384  17.3143
  4.380  17.5306
  4.376  17.7778
  4.372  18.0662
  4.369  18.2310
  4.365  18.4061
  4.361  18.5709
  4.358  18.7975
  4.354  19.0447
  4.350  19.1992
  4.347  19.3228
  4.343  19.4979
  4.340  19.6730
  4.336  19.7760
  4.332  19.8481
  4.329  19.9717
  4.325  20.1056
  4.321  20.2704
  4.318  20.3219
  4.314  20.2807
  4.311  20.2601
  4.307  20.3322
  4.304  20.3940
  4.300  20.4455
  4.296  20.4558
  4.293  20.4558
  4.289  20.5382
  4.286  20.6309
  4.282  20.6618
  4.279  20.7854
  4.275  20.8575
  4.272  20.9605
  4.268  21.1459
  4.265  21.2695
  4.261  21.4240
  4.258  21.6609
  4.254  21.7639
  4.251  21.7742
  4.247  21.7948
  4.244  21.8360
  4.240  21.8669
  4.237  21.8360
  4.233  21.7536
  4.230  21.8154
  4.226  21.8566
  4.223  21.9081
  4.219  22.0008
  4.216  22.1862
  4.213  22.3201
  4.209  22.4025
  4.206  22.5158
  4.202  22.6806
  4.199  22.7012
  4.196  22.7939
  4.192  22.9175
  4.189  23.0102
  4.185  23.0720
  4.182  23.1132
  4.179  23.2059
  4.175  23.4222
  4.172  23.4943
  4.169  23.5561
  4.165  23.6591
  4.162  23.7621
  4.159  23.8548
  4.155  24.0196
  4.152  24.1432
  4.149  24.2256
  4.145  24.2977
  4.142  24.4007
  4.139  24.4831
  4.135  24.5552
  4.132  24.6273
  4.129  24.7303
  4.126  24.8745
  4.122  25.0805
  4.119  25.1629
  4.116  25.2247
  4.112  25.3689
  4.109  25.5440
  4.106  25.6882
  4.103  25.8324
  4.099  25.9457
  4.096  25.9457
  4.093  25.9148
  4.090  26.1105
  4.086  26.3783
  4.083  26.5740
  4.080  26.6049
  4.077  26.7079
  4.074  26.7388
  4.070  26.8109
  4.067  26.8933
  4.064  26.9242
  4.061  27.0272
  4.058  27.1199
  4.055  27.1611
  4.051  27.2023
  4.048  27.2126
  4.045  27.2847
  4.042  27.3774
  4.039  27.3877
  4.036  27.3877
  4.032  27.4598
  4.029  27.4598
  4.026  27.5422
  4.023  27.5628
  4.020  27.5216
  4.017  27.5216
  4.014  27.5216
  4.011  27.5834
  4.008  27.6040
  4.004  27.6658
  4.001  27.7997
  3.998  27.8306
  3.995  27.9645
  3.992  27.9748
  3.989  27.9542
  3.986  28.0881
  3.983  28.1808
  3.980  28.1293
  3.977  28.2529
  3.974  28.4177
  3.971  28.4383
  3.968  28.4898
  3.965  28.6752
  3.962  28.7061
  3.959  28.8194
  3.956  29.0357
  3.953  29.1284
  3.950  29.1490
  3.947  29.2211
  3.944  29.2417
  3.941  29.3344
  3.938  29.4683
  3.935  29.5507
  3.932  29.5610
  3.929  29.6640
  3.926  29.7361
  3.923  29.7361
  3.920  29.7670
  3.917  29.8391
  3.914  29.8082
  3.911  29.8906
  3.908  29.9627
  3.905  29.9524
  3.902  29.8906
  3.899  29.7773
  3.896  29.8288
  3.893  29.9318
  3.890  29.9215
  3.887  29.8494
  3.884  29.7464
  3.882  29.7052
  3.879  29.6537
  3.876  29.6537
  3.873  29.6331
  3.870  29.6640
  3.867  29.6846
  3.864  29.7052
  3.861  29.6846
  3.858  29.6228
  3.856  29.5610
  3.853  29.6022
  3.850  29.5610
  3.847  29.5919
  3.844  29.6228
  3.841  29.5919
  3.838  29.5507
  3.836  29.6125
  3.833  29.6125
  3.830  29.5816
  3.827  29.5816
  3.824  29.6743
  3.822  29.7052
  3.819  29.6228
  3.816  29.5816
  3.813  29.6125
  3.810  29.6022
  3.807  29.6846
  3.805  29.6537
  3.802  29.5919
  3.799  29.5507
  3.796  29.5919
  3.794  29.5610
  3.791  29.4992
  3.788  29.4271
  3.785  29.4271
  3.782  29.3756
  3.780  29.2829
  3.777  29.0975
  3.774  28.9121
  3.771  28.7885
  3.769  28.8915
  3.766  28.9327
  3.763  28.7576
  3.761  28.6031
  3.758  28.4795
  3.755  28.3971
  3.752  28.3559
  3.750  28.2735
  3.747  28.2735
  3.744  28.1705
  3.742  28.0057
  3.739  27.9336
  3.736  28.0160
  3.733  27.8821
  3.731  27.7894
  3.728  27.7791
  3.725  27.7688
  3.723  27.8100
  3.720  27.7482
  3.717  27.6555
  3.715  27.6761
  3.712  27.6040
  3.709  27.5731
  3.707  27.5834
  3.704  27.5319
  3.702  27.4289
  3.699  27.3980
  3.696  27.3568
  3.694  27.3774
  3.691  27.4083
  3.688  27.3259
  3.686  27.3053
  3.683  27.4701
  3.680  27.4804
  3.678  27.4495
  3.675  27.4495
  3.673  27.5010
  3.670  27.5422
  3.667  27.5628
  3.665  27.5422
  3.662  27.5216
  3.660  27.4907
  3.657  27.5216
  3.655  27.5113
  3.652  27.4701
  3.649  27.3774
  3.647  27.3156
  3.644  27.3671
  3.642  27.3774
  3.639  27.2950
  3.637  27.2229
  3.634  27.1714
  3.632  27.1199
  3.629  27.0478
  3.626  26.9654
  3.624  26.8624
  3.621  26.8315
  3.619  26.7182
  3.616  26.6976
  3.614  26.6255
  3.611  26.5637
  3.609  26.5328
  3.606  26.4504
  3.604  26.2856
  3.601  26.1620
  3.599  26.1414
  3.596  26.2032
  3.594  26.2444
  3.591  26.1517
  3.589  25.9148
  3.586  25.7706
  3.584  25.6367
