Name: Quartzite
Type: Rock
Class: Metamorphic
Subclass: 
Particle Size: Whole Rock Chips
Sample No.: AP-958-111
Owner: United States Geological Survey, L. C. Rowan
Wavelength range: 0.405 - 14.05 um
Origin: Iberian Pyrite Belt, Spain

Description: Quartzite, light gray, silicified





Measurement: Directional Hemispherical Reflectance
First Column: X
Second Column: Y
X Units: Wavelength (micrometers)
Y Units: Reflectance (percent)
First X Value: 14.05105
Last X Value: 0.40500
Number of X Values: 2530
Additional Information: qua111a.txt

 14.051   3.1003
 14.013   3.1518
 13.975   3.1827
 13.938   3.1003
 13.900   3.2239
 13.863   3.2754
 13.826   3.5947
 13.790   3.6256
 13.753   3.6256
 13.717   3.5638
 13.680   3.6565
 13.644   3.6153
 13.609   3.7183
 13.573   3.8419
 13.538   4.0067
 13.502   4.0067
 13.467   4.0994
 13.432   3.9964
 13.398   4.0891
 13.363   4.1921
 13.329   4.3878
 13.295   4.5114
 13.261   4.6865
 13.227   4.7380
 13.193   4.8925
 13.160   4.9543
 13.126   5.0367
 13.093   5.2015
 13.060   5.5105
 13.027   5.7680
 12.995   6.1594
 12.962   6.5405
 12.930   7.1070
 12.898   7.6735
 12.866   8.4563
 12.834   9.2494
 12.802  10.0734
 12.771  10.4133
 12.739  10.2485
 12.708   9.3833
 12.677   8.1782
 12.646   7.0452
 12.616   6.5714
 12.585   6.6641
 12.554   7.3851
 12.524   8.0546
 12.494   8.5490
 12.464   8.7653
 12.434   8.5387
 12.404   7.5190
 12.375   5.8710
 12.345   3.7286
 12.316   2.0600
 12.287   1.1639
 12.258   0.9476
 12.229   0.9579
 12.200   1.1330
 12.171   1.2978
 12.143   1.5347
 12.115   1.6480
 12.086   1.8128
 12.058   1.8540
 12.030   2.0085
 12.002   2.0703
 11.975   2.1939
 11.947   2.3175
 11.920   2.4411
 11.892   2.4102
 11.865   2.5544
 11.838   2.5441
 11.811   2.5441
 11.784   2.5647
 11.757   2.7398
 11.731   2.7913
 11.704   2.8840
 11.678   2.9355
 11.652   3.0591
 11.626   3.0591
 11.600   3.1621
 11.574   3.2136
 11.548   3.2342
 11.522   3.1518
 11.497   3.2445
 11.471   3.3372
 11.446   3.5020
 11.421   3.5329
 11.396   3.5226
 11.371   3.4505
 11.346   3.5947
 11.321   3.6668
 11.297   3.7183
 11.272   3.6977
 11.248   3.8110
 11.223   3.7801
 11.199   3.7904
 11.175   3.8110
 11.151   3.8934
 11.127   3.9037
 11.103   4.0170
 11.079   4.0994
 11.056   4.2024
 11.032   4.1921
 11.009   4.1509
 10.985   4.1097
 10.962   4.1509
 10.939   4.1612
 10.916   4.3157
 10.893   4.3672
 10.870   4.4393
 10.848   4.4290
 10.825   4.5217
 10.802   4.6659
 10.780   4.7071
 10.758   4.6247
 10.735   4.7586
 10.713   4.8204
 10.691   4.8616
 10.669   4.7689
 10.647   4.8101
 10.625   4.8822
 10.604   5.0161
 10.582   4.9955
 10.560   5.0676
 10.539   5.1706
 10.518   5.2839
 10.496   5.2324
 10.475   5.2942
 10.454   5.3457
 10.433   5.4590
 10.412   5.5517
 10.391   5.6238
 10.370   5.6341
 10.350   5.7577
 10.329   5.7886
 10.309   5.8813
 10.288   5.9534
 10.268   6.1285
 10.247   6.2109
 10.227   6.3139
 10.207   6.3448
 10.187   6.4375
 10.167   6.4993
 10.147   6.5817
 10.127   6.7053
 10.108   6.9113
 10.088   6.9628
 10.068   7.0555
 10.049   7.1070
 10.029   7.3130
 10.010   7.4469
  9.991   7.6323
  9.972   7.7559
  9.952   7.8692
  9.933   7.8795
  9.914   8.1267
  9.895   8.3018
  9.877   8.5181
  9.858   8.7138
  9.839   8.8477
  9.821   9.0228
  9.802   9.3524
  9.783   9.5996
  9.765   9.8571
  9.747   9.9704
  9.728  10.2073
  9.710  10.4854
  9.692  10.7532
  9.674  10.9695
  9.656  11.3815
  9.638  11.7729
  9.620  12.2055
  9.602  12.6278
  9.585  13.0089
  9.567  13.3900
  9.549  13.9050
  9.532  14.4715
  9.514  15.1410
  9.497  15.8620
  9.479  16.7478
  9.462  17.7778
  9.445  18.9829
  9.428  20.2395
  9.411  21.7845
  9.394  23.5973
  9.377  25.7294
  9.360  27.7276
  9.343  29.4580
  9.326  30.9309
  9.309  32.2184
  9.293  33.1351
  9.276  33.7325
  9.259  34.0003
  9.243  34.1342
  9.226  34.1651
  9.210  34.2372
  9.194  34.3402
  9.178  34.4741
  9.161  34.4123
  9.145  34.3711
  9.129  34.3093
  9.113  34.2887
  9.097  34.2166
  9.081  34.1342
  9.065  34.0518
  9.049  34.0003
  9.034  33.7325
  9.018  33.4853
  9.002  33.2793
  8.987  33.1969
  8.971  32.9188
  8.956  32.5480
  8.940  32.1978
  8.925  31.9918
  8.909  31.6828
  8.894  31.4253
  8.879  31.1266
  8.864  30.7455
  8.849  30.3850
  8.834  30.1687
  8.819  29.8082
  8.804  29.3550
  8.789  28.9018
  8.774  28.6237
  8.759  28.3147
  8.744  28.0675
  8.730  27.8924
  8.715  27.5834
  8.700  27.0581
  8.686  26.5019
  8.671  25.5440
  8.657  24.1020
  8.642  22.0626
  8.628  20.1571
  8.614  19.5803
  8.599  20.8369
  8.585  22.8454
  8.571  24.6685
  8.557  26.0487
  8.543  27.0890
  8.529  27.7585
  8.515  28.3147
  8.501  28.6855
  8.487  28.8709
  8.473  28.8915
  8.459  29.0357
  8.445  29.2314
  8.431  29.4168
  8.418  29.5198
  8.404  29.6846
  8.391  29.7979
  8.377  29.9833
  8.363  30.1584
  8.350  30.3747
  8.337  30.6425
  8.323  30.9515
  8.310  31.2914
  8.297  31.7343
  8.283  32.2287
  8.270  32.7334
  8.257  33.1763
  8.244  33.6089
  8.231  34.0003
  8.218  34.3505
  8.205  34.3814
  8.192  34.1651
  8.179  33.7016
  8.166  32.9600
  8.153  31.7137
  8.140  29.9627
  8.128  27.9027
  8.115  25.7294
  8.102  23.4325
  8.090  21.3725
  8.077  19.5288
  8.064  17.8396
  8.052  16.2019
  8.039  14.7084
  8.027  13.4106
  8.015  12.3497
  8.002  11.4124
  7.990  10.4545
  7.978   9.4863
  7.965   8.6829
  7.953   7.8589
  7.941   7.0864
  7.929   6.4169
  7.917   5.7783
  7.905   5.1088
  7.893   4.6350
  7.881   4.2127
  7.869   3.8728
  7.857   3.5226
  7.845   3.2342
  7.833   2.9046
  7.821   2.6265
  7.809   2.4720
  7.798   2.3072
  7.786   2.0703
  7.774   1.9364
  7.763   1.8746
  7.751   1.7716
  7.739   1.6068
  7.728   1.5553
  7.716   1.3802
  7.705   1.2360
  7.694   1.1742
  7.682   1.1845
  7.671   1.1124
  7.659   0.9991
  7.648   0.8858
  7.637   0.8137
  7.626   0.7519
  7.614   0.7622
  7.603   0.7313
  7.592   0.6901
  7.581   0.6283
  7.570   0.6695
  7.559   0.5974
  7.548   0.5356
  7.537   0.4635
  7.526   0.4738
  7.515   0.5253
  7.504   0.5356
  7.493   0.4532
  7.483   0.4841
  7.472   0.5047
  7.461   0.4841
  7.450   0.4429
  7.440   0.4326
  7.429   0.3811
  7.418   0.4532
  7.408   0.4326
  7.397   0.4223
  7.387   0.3708
  7.376   0.3811
  7.366   0.3914
  7.355   0.4326
  7.345   0.4326
  7.334   0.4429
  7.324   0.3605
  7.314   0.3605
  7.303   0.3811
  7.293   0.3914
  7.283   0.4223
  7.273   0.4841
  7.263   0.4223
  7.252   0.3914
  7.242   0.4326
  7.232   0.5253
  7.222   0.4944
  7.212   0.4635
  7.202   0.4429
  7.192   0.4635
  7.182   0.4635
  7.172   0.4944
  7.162   0.5253
  7.152   0.5356
  7.143   0.5047
  7.133   0.5047
  7.123   0.5356
  7.113   0.6283
  7.103   0.6180
  7.094   0.6180
  7.084   0.5768
  7.074   0.6077
  7.065   0.5768
  7.055   0.5665
  7.046   0.5356
  7.036   0.5665
  7.026   0.5665
  7.017   0.6283
  7.007   0.5974
  6.998   0.5974
  6.989   0.6180
  6.979   0.6798
  6.970   0.6695
  6.960   0.7004
  6.951   0.6901
  6.942   0.6592
  6.932   0.5562
  6.923   0.5871
  6.914   0.6180
  6.905   0.6592
  6.896   0.6180
  6.886   0.6489
  6.877   0.6901
  6.868   0.7313
  6.859   0.6901
  6.850   0.6901
  6.841   0.7107
  6.832   0.7004
  6.823   0.6695
  6.814   0.6798
  6.805   0.6695
  6.796   0.7210
  6.787   0.7313
  6.778   0.7210
  6.770   0.6695
  6.761   0.7416
  6.752   0.7931
  6.743   0.7416
  6.734   0.6695
  6.726   0.7107
  6.717   0.7313
  6.708   0.7622
  6.700   0.7416
  6.691   0.7313
  6.682   0.7004
  6.674   0.7210
  6.665   0.7210
  6.657   0.7313
  6.648   0.7519
  6.640   0.7622
  6.631   0.7313
  6.623   0.7313
  6.614   0.7210
  6.606   0.7210
  6.597   0.7107
  6.589   0.7313
  6.581   0.7725
  6.572   0.8137
  6.564   0.7828
  6.556   0.7519
  6.547   0.7519
  6.539   0.7519
  6.531   0.7004
  6.523   0.7210
  6.514   0.7622
  6.506   0.7828
  6.498   0.7725
  6.490   0.8137
  6.482   0.8446
  6.474   0.8755
  6.466   0.8961
  6.458   0.8961
  6.450   0.8549
  6.442   0.8858
  6.434   0.9064
  6.426   0.9270
  6.418   0.9167
  6.410   0.9167
  6.402   0.9064
  6.394   0.8858
  6.386   0.8755
  6.378   0.8858
  6.370   0.9064
  6.363   0.8549
  6.355   0.7725
  6.347   0.8034
  6.339   0.8755
  6.332   0.9167
  6.324   0.8858
  6.316   0.8549
  6.308   0.8549
  6.301   0.8240
  6.293   0.7622
  6.286   0.8446
  6.278   0.9064
  6.270   0.8446
  6.263   0.8034
  6.255   0.8240
  6.248   0.8137
  6.240   0.8343
  6.233   0.8137
  6.225   0.8343
  6.218   0.8755
  6.210   0.8858
  6.203   0.8446
  6.195   0.8240
  6.188   0.7931
  6.181   0.8137
  6.173   0.8549
  6.166   0.8446
  6.159   0.8240
  6.151   0.8549
  6.144   0.8240
  6.137   0.8549
  6.130   0.8755
  6.122   0.9064
  6.115   0.9476
  6.108   0.9991
  6.101   1.0197
  6.094   1.0094
  6.086   0.9682
  6.079   0.9579
  6.072   0.9579
  6.065   0.9785
  6.058   1.0094
  6.051   0.9991
  6.044   0.9991
  6.037   1.0506
  6.030   1.0094
  6.023   0.9579
  6.016   0.9991
  6.009   1.0712
  6.002   1.0403
  5.995   1.0094
  5.988   0.9991
  5.981   1.0197
  5.974   1.0094
  5.967   0.9991
  5.960   0.9991
  5.954   0.9888
  5.947   1.0094
  5.940   0.9785
  5.933   0.9476
  5.926   0.9888
  5.920   0.9991
  5.913   1.0197
  5.906   1.0609
  5.899   1.1021
  5.893   1.0609
  5.886   1.1021
  5.879   1.1227
  5.873   1.1124
  5.866   1.1742
  5.859   1.1536
  5.853   1.1124
  5.846   1.1536
  5.840   1.1948
  5.833   1.2257
  5.827   1.1845
  5.820   1.2051
  5.813   1.2360
  5.807   1.2463
  5.800   1.2566
  5.794   1.3081
  5.788   1.3287
  5.781   1.3081
  5.775   1.3081
  5.768   1.3596
  5.762   1.3802
  5.755   1.3699
  5.749   1.3905
  5.743   1.4111
  5.736   1.4317
  5.730   1.4729
  5.724   1.4523
  5.717   1.4317
  5.711   1.4214
  5.705   1.4729
  5.698   1.4626
  5.692   1.4214
  5.686   1.3802
  5.680   1.3699
  5.674   1.3493
  5.667   1.3802
  5.661   1.3699
  5.655   1.3493
  5.649   1.3287
  5.643   1.2360
  5.637   1.1845
  5.630   1.2154
  5.624   1.2051
  5.618   1.1948
  5.612   1.2051
  5.606   1.2154
  5.600   1.2051
  5.594   1.2463
  5.588   1.2360
  5.582   1.2051
  5.576   1.1948
  5.570   1.2463
  5.564   1.2154
  5.558   1.1845
  5.552   1.2154
  5.546   1.1948
  5.540   1.2051
  5.534   1.2360
  5.528   1.2669
  5.523   1.3287
  5.517   1.2978
  5.511   1.3287
  5.505   1.3493
  5.499   1.2978
  5.493   1.2566
  5.487   1.2978
  5.482   1.3390
  5.476   1.4111
  5.470   1.4008
  5.464   1.4008
  5.459   1.4523
  5.453   1.4214
  5.447   1.3905
  5.441   1.4111
  5.436   1.4626
  5.430   1.4317
  5.424   1.3596
  5.419   1.3184
  5.413   1.2875
  5.407   1.3081
  5.402   1.3390
  5.396   1.2875
  5.390   1.2360
  5.385   1.2154
  5.379   1.2257
  5.374   1.2669
  5.368   1.2669
  5.363   1.2154
  5.357   1.1330
  5.352   1.1124
  5.346   1.1124
  5.341   1.1124
  5.335   1.1639
  5.330   1.2051
  5.324   1.1948
  5.319   1.2051
  5.313   1.1948
  5.308   1.1124
  5.302   1.1433
  5.297   1.2051
  5.291   1.2051
  5.286   1.2257
  5.281   1.2463
  5.275   1.2051
  5.270   1.1742
  5.265   1.1948
  5.259   1.2051
  5.254   1.2154
  5.249   1.2257
  5.243   1.2772
  5.238   1.2978
  5.233   1.3081
  5.227   1.3287
  5.222   1.3802
  5.217   1.4008
  5.212   1.3905
  5.206   1.3699
  5.201   1.4523
  5.196   1.4832
  5.191   1.5038
  5.186   1.5038
  5.180   1.4935
  5.175   1.4935
  5.170   1.4935
  5.165   1.4832
  5.160   1.4832
  5.155   1.4935
  5.150   1.5141
  5.145   1.5038
  5.139   1.4832
  5.134   1.4935
  5.129   1.5141
  5.124   1.5038
  5.119   1.5141
  5.114   1.5038
  5.109   1.4935
  5.104   1.5038
  5.099   1.5038
  5.094   1.4626
  5.089   1.4317
  5.084   1.3802
  5.079   1.3699
  5.074   1.3390
  5.069   1.3905
  5.064   1.4317
  5.059   1.4008
  5.054   1.3699
  5.049   1.3699
  5.044   1.3802
  5.040   1.4317
  5.035   1.4729
  5.030   1.4523
  5.025   1.4214
  5.020   1.4214
  5.015   1.4111
  5.010   1.3905
  5.005   1.3596
  5.001   1.3699
  4.996   1.4008
  4.991   1.3905
  4.986   1.4214
  4.981   1.4832
  4.977   1.4935
  4.972   1.4729
  4.967   1.4935
  4.962   1.5244
  4.958   1.5553
  4.953   1.5656
  4.948   1.5965
  4.943   1.6686
  4.939   1.6480
  4.934   1.5965
  4.929   1.6892
  4.925   1.7716
  4.920   1.7716
  4.915   1.7613
  4.911   1.7613
  4.906   1.8437
  4.901   2.0085
  4.897   2.1424
  4.892   2.2145
  4.888   2.2660
  4.883   2.3587
  4.878   2.5132
  4.874   2.7398
  4.869   2.9149
  4.865   3.0385
  4.860   3.1518
  4.856   3.2136
  4.851   3.3372
  4.846   3.4711
  4.842   3.5638
  4.837   3.6668
  4.833   3.7080
  4.828   3.8110
  4.824   3.9964
  4.819   4.0685
  4.815   4.1509
  4.810   4.2333
  4.806   4.2745
  4.802   4.4187
  4.797   4.5526
  4.793   4.6453
  4.788   4.6762
  4.784   4.7071
  4.779   4.7895
  4.775   4.8719
  4.771   4.9646
  4.766   5.0985
  4.762   5.1500
  4.758   5.1500
  4.753   5.1912
  4.749   5.2633
  4.744   5.3766
  4.740   5.4281
  4.736   5.4281
  4.731   5.4178
  4.727   5.4384
  4.723   5.4693
  4.719   5.5002
  4.714   5.5105
  4.710   5.4281
  4.706   5.3251
  4.701   5.1912
  4.697   5.0573
  4.693   4.9131
  4.689   4.7792
  4.684   4.6762
  4.680   4.6041
  4.676   4.6350
  4.672   4.7380
  4.668   4.8719
  4.663   5.0470
  4.659   5.2427
  4.655   5.4075
  4.651   5.6032
  4.647   5.7989
  4.643   5.9637
  4.638   6.2006
  4.634   6.4684
  4.630   6.6023
  4.626   6.7465
  4.622   6.8701
  4.618   7.0246
  4.614   7.1482
  4.610   7.2409
  4.605   7.3336
  4.601   7.3645
  4.597   7.4469
  4.593   7.5808
  4.589   7.6735
  4.585   7.6941
  4.581   7.7353
  4.577   7.7456
  4.573   7.7147
  4.569   7.7456
  4.565   7.7662
  4.561   7.6735
  4.557   7.5602
  4.553   7.4263
  4.549   7.2615
  4.545   7.1894
  4.541   7.0143
  4.537   6.7465
  4.533   6.5611
  4.529   6.3654
  4.525   6.1388
  4.521   5.8916
  4.517   5.6753
  4.513   5.3972
  4.509   5.1809
  4.505   5.0367
  4.502   4.7895
  4.498   4.5423
  4.494   4.3672
  4.490   4.2951
  4.486   4.2642
  4.482   4.2642
  4.478   4.3157
  4.474   4.2848
  4.470   4.1612
  4.467   4.0582
  4.463   4.0994
  4.459   4.1818
  4.455   4.2539
  4.451   4.2951
  4.447   4.3878
  4.444   4.5732
  4.440   4.6659
  4.436   4.6968
  4.432   4.7277
  4.428   4.7483
  4.425   4.7998
  4.421   4.9028
  4.417   5.0367
  4.413   5.1603
  4.410   5.2633
  4.406   5.3251
  4.402   5.4384
  4.398   5.5517
  4.395   5.6753
  4.391   5.7680
  4.387   5.8504
  4.384   6.0358
  4.380   6.3036
  4.376   6.4787
  4.372   6.6538
  4.369   6.9628
  4.365   7.2100
  4.361   7.1894
  4.358   7.2821
  4.354   7.4572
  4.350   7.6426
  4.347   7.8177
  4.343   7.9619
  4.340   8.1061
  4.336   8.1370
  4.332   8.1473
  4.329   8.1473
  4.325   8.1267
  4.321   8.1782
  4.318   8.2091
  4.314   8.2091
  4.311   8.1988
  4.307   8.0752
  4.304   7.9310
  4.300   7.8692
  4.296   7.8486
  4.293   7.8486
  4.289   7.7456
  4.286   7.6838
  4.282   7.6735
  4.279   7.6117
  4.275   7.4984
  4.272   7.4366
  4.268   7.3233
  4.265   7.3439
  4.261   7.5911
  4.258   7.8486
  4.254   8.0134
  4.251   8.1782
  4.247   8.2812
  4.244   8.2812
  4.240   8.2400
  4.237   8.2709
  4.233   8.3018
  4.230   8.4048
  4.226   8.5181
  4.223   8.5902
  4.219   8.6623
  4.216   8.8271
  4.213   8.8786
  4.209   8.7550
  4.206   8.8168
  4.202   8.9095
  4.199   8.9095
  4.196   8.9198
  4.192   8.9198
  4.189   9.0228
  4.185   9.1258
  4.182   9.1670
  4.179   9.2803
  4.175   9.4039
  4.172   9.3833
  4.169   9.4348
  4.165   9.6099
  4.162   9.7335
  4.159   9.7953
  4.155   9.8983
  4.152   9.8983
  4.149   9.9498
  4.145  10.0322
  4.142  10.2176
  4.139  10.3412
  4.135  10.3721
  4.132  10.3618
  4.129  10.3515
  4.126  10.4133
  4.122  10.5163
  4.119  10.6811
  4.116  10.8974
  4.112  11.0725
  4.109  11.2270
  4.106  11.2270
  4.103  11.2785
  4.099  11.3300
  4.096  11.4639
  4.093  11.6081
  4.090  11.7317
  4.086  11.8347
  4.083  11.9480
  4.080  12.0201
  4.077  12.0613
  4.074  12.1540
  4.070  12.3085
  4.067  12.4012
  4.064  12.4012
  4.061  12.3291
  4.058  12.3291
  4.055  12.3394
  4.051  12.3909
  4.048  12.4012
  4.045  12.3085
  4.042  12.2364
  4.039  12.2158
  4.036  12.2570
  4.032  12.2673
  4.029  12.2055
  4.026  12.2364
  4.023  12.2673
  4.020  12.1746
  4.017  12.0613
  4.014  12.0510
  4.011  12.0716
  4.008  12.1025
  4.004  12.0716
  4.001  12.1128
  3.998  12.2055
  3.995  12.2673
  3.992  12.2261
  3.989  12.1746
  3.986  12.2467
  3.983  12.3291
  3.980  12.2982
  3.977  12.3909
  3.974  12.5351
  3.971  12.6690
  3.968  12.7823
  3.965  12.8029
  3.962  12.8853
  3.959  12.9677
  3.956  12.9986
  3.953  13.1016
  3.950  13.1840
  3.947  13.2664
  3.944  13.3076
  3.941  13.3797
  3.938  13.4003
  3.935  13.3797
  3.932  13.4312
  3.929  13.5651
  3.926  13.6887
  3.923  13.8020
  3.920  13.7505
  3.917  13.6887
  3.914  13.6887
  3.911  13.7402
  3.908  13.7196
  3.905  13.7711
  3.902  13.8020
  3.899  13.7093
  3.896  13.6269
  3.893  13.5651
  3.890  13.4930
  3.887  13.4621
  3.884  13.3797
  3.882  13.3076
  3.879  13.2355
  3.876  13.1840
  3.873  13.1634
  3.870  13.1634
  3.867  13.1016
  3.864  13.1016
  3.861  12.9986
  3.858  12.9059
  3.856  12.9677
  3.853  13.0089
  3.850  12.9677
  3.847  12.9574
  3.844  12.9574
  3.841  12.9780
  3.838  13.0398
  3.836  13.1325
  3.833  13.1119
  3.830  13.1325
  3.827  13.1943
  3.824  13.2767
  3.822  13.2973
  3.819  13.3385
  3.816  13.4518
  3.813  13.4312
  3.810  13.2767
  3.807  13.3797
  3.805  13.4415
  3.802  13.3797
  3.799  13.4106
  3.796  13.4312
  3.794  13.3900
  3.791  13.4106
  3.788  13.4003
  3.785  13.2870
  3.782  13.2355
  3.780  13.2664
  3.777  13.2355
  3.774  13.1428
  3.771  13.0604
  3.769  13.0810
  3.766  13.0192
  3.763  12.9677
  3.761  12.8853
  3.758  12.7308
  3.755  12.6690
  3.752  12.7308
  3.750  12.7617
  3.747  12.6587
  3.744  12.5454
  3.742  12.4939
  3.739  12.4321
  3.736  12.4939
  3.733  12.6278
  3.731  12.6278
  3.728  12.5454
  3.725  12.6587
  3.723  12.7926
  3.720  12.7514
  3.717  12.7205
  3.715  12.7823
  3.712  12.8544
  3.709  12.8750
  3.707  12.9471
  3.704  13.0089
  3.702  12.9059
  3.699  13.0810
  3.696  13.3076
  3.694  13.3694
  3.691  13.4312
  3.688  13.4930
  3.686  13.5445
  3.683  13.6372
  3.680  13.7196
  3.678  13.7402
  3.675  13.6681
  3.673  13.7196
  3.670  13.7917
  3.667  13.7093
  3.665  13.7196
  3.662  13.9050
  3.660  13.9256
  3.657  13.9977
  3.655  13.9977
  3.652  13.9565
  3.649  13.8638
  3.647  13.8329
  3.644  13.8535
  3.642  13.8741
  3.639  13.9050
  3.637  13.8947
  3.634  13.8432
  3.632  13.8638
  3.629  13.7093
  3.626  13.6578
  3.624  13.6578
  3.621  13.5548
  3.619  13.4930
  3.616  13.5136
  3.614  13.4415
  3.611  13.4827
  3.609  13.3694
  3.606  13.2870
  3.604  13.2664
  3.601  13.2561
  3.599  13.2046
  3.596  13.2046
  3.594  13.1531
  3.591  13.0398
  3.589  12.9677
  3.586  12.9883
  3.584  12.9265
