Name: Basalt
Type: Rock
Class: Igneous
Subclass: Mafic
Particle Size: Whole rock chips
Sample No.: Mewy9
Owner: Lawrence Rowan, USGS Reston
Wavelength range: 0.40 - 14.05 um
Origin: Middle East

Description: Basalt, fresh surface





Measurement: Directional Hemispherical Reflectance
First Column: X
Second Column: Y
X Units: Wavelength (micrometers)
Y Units: Reflectance (percent)
First X Value: 14.05105
Last X Value: 0.40000
Number of X Values: 2231
Additional Information: mewy9a.txt

 14.051   3.4917
 14.013   3.1930
 13.975   3.2136
 13.938   3.2445
 13.900   3.1930
 13.863   3.2548
 13.826   3.3269
 13.790   3.2033
 13.753   3.2136
 13.717   3.1827
 13.680   3.1518
 13.644   3.0900
 13.609   3.1827
 13.573   3.3269
 13.538   3.2754
 13.502   3.1003
 13.467   3.2342
 13.432   3.3372
 13.398   3.3887
 13.363   3.3063
 13.329   3.2136
 13.295   3.1415
 13.261   3.1621
 13.227   3.2445
 13.193   3.2445
 13.160   3.1106
 13.126   3.1930
 13.093   3.3063
 13.060   3.3681
 13.027   3.2651
 12.995   3.2239
 12.962   3.2754
 12.930   3.3578
 12.898   3.4402
 12.866   3.4299
 12.834   3.3578
 12.802   3.3990
 12.771   3.3372
 12.739   3.3784
 12.708   3.4608
 12.677   3.4917
 12.646   3.4093
 12.616   3.4093
 12.585   3.4608
 12.554   3.6153
 12.524   3.6565
 12.494   3.7080
 12.464   3.7389
 12.434   3.7492
 12.404   3.7904
 12.375   3.9346
 12.345   3.9655
 12.316   3.9346
 12.287   3.9964
 12.258   4.1406
 12.229   4.1921
 12.200   4.2642
 12.171   4.4084
 12.143   4.5629
 12.115   4.5320
 12.086   4.5423
 12.058   4.5011
 12.030   4.6041
 12.002   4.7380
 11.975   4.8101
 11.947   4.9028
 11.920   5.0058
 11.892   4.9852
 11.865   4.9543
 11.838   4.9543
 11.811   5.0676
 11.784   5.0882
 11.757   5.2324
 11.731   5.4075
 11.704   5.4693
 11.678   5.4693
 11.652   5.5723
 11.626   5.6856
 11.600   5.7783
 11.574   5.8504
 11.548   6.0152
 11.522   6.1388
 11.497   6.2109
 11.471   6.2933
 11.446   6.4684
 11.421   6.6229
 11.396   6.6641
 11.371   6.7053
 11.346   6.8495
 11.321   6.8289
 11.297   6.8392
 11.272   6.9937
 11.248   7.2100
 11.223   7.2203
 11.199   7.2615
 11.175   7.2821
 11.151   7.3954
 11.127   7.4057
 11.103   7.4366
 11.079   7.5087
 11.056   7.6529
 11.032   7.6838
 11.009   7.8074
 10.985   7.8589
 10.962   7.9310
 10.939   7.9619
 10.916   8.0340
 10.893   8.1061
 10.870   8.1782
 10.848   8.2091
 10.825   8.3121
 10.802   8.3739
 10.780   8.3018
 10.758   8.3224
 10.735   8.5284
 10.713   8.5593
 10.691   8.5490
 10.669   8.5490
 10.647   8.6211
 10.625   8.7035
 10.604   8.8168
 10.582   8.8580
 10.560   8.9713
 10.539   9.0022
 10.518   8.9404
 10.496   8.9507
 10.475   9.0022
 10.454   9.0537
 10.433   9.1979
 10.412   9.3833
 10.391   9.5996
 10.370   9.7747
 10.350   9.9601
 10.329   9.9910
 10.309  10.0940
 10.288  10.2279
 10.268  10.3206
 10.247  10.4133
 10.227  10.4854
 10.207  10.5266
 10.187  10.5575
 10.167  10.4751
 10.147  10.5163
 10.127  10.6605
 10.108  10.8356
 10.088  10.9386
 10.068  11.0519
 10.049  11.0828
 10.029  11.1446
 10.010  11.2476
  9.991  11.3197
  9.972  11.2991
  9.952  11.4330
  9.933  11.5566
  9.914  11.5463
  9.895  11.6184
  9.877  11.8347
  9.858  11.9274
  9.839  12.0407
  9.821  12.1128
  9.802  12.2055
  9.783  12.2261
  9.765  12.2879
  9.747  12.3703
  9.728  12.5248
  9.710  12.5557
  9.692  12.6278
  9.674  12.6999
  9.656  12.6896
  9.638  12.7205
  9.620  12.7823
  9.602  12.7823
  9.585  12.6587
  9.567  12.5660
  9.549  12.4939
  9.532  12.3188
  9.514  12.2879
  9.497  12.2776
  9.479  12.1952
  9.462  11.9995
  9.445  11.7626
  9.428  11.5772
  9.411  11.3815
  9.394  11.1858
  9.377  11.0004
  9.360  10.7635
  9.343  10.4957
  9.326  10.2382
  9.309  10.0322
  9.293   9.7747
  9.276   9.5996
  9.259   9.4039
  9.243   9.1670
  9.226   8.9507
  9.210   8.7756
  9.194   8.6726
  9.178   8.8271
  9.161   8.9301
  9.145   9.0228
  9.129   9.0228
  9.113   8.9919
  9.097   9.0331
  9.081   9.1052
  9.065   9.0331
  9.049   9.0331
  9.034   8.9404
  9.018   8.9198
  9.002   8.8992
  8.987   8.9198
  8.971   8.8065
  8.956   8.6932
  8.940   8.7035
  8.925   8.7138
  8.909   8.5593
  8.894   8.3739
  8.879   8.1885
  8.864   8.0855
  8.849   8.0958
  8.834   8.0031
  8.819   7.7044
  8.804   7.6529
  8.789   7.6426
  8.774   7.5911
  8.759   7.5190
  8.744   7.4263
  8.730   7.4057
  8.715   7.3645
  8.700   7.2821
  8.686   7.2409
  8.671   7.0555
  8.657   6.9731
  8.642   6.9937
  8.628   6.9422
  8.614   6.7568
  8.599   6.6023
  8.585   6.4993
  8.571   6.4890
  8.557   6.3654
  8.543   6.3139
  8.529   6.2830
  8.515   6.1697
  8.501   6.1182
  8.487   6.1697
  8.473   6.1594
  8.459   6.0770
  8.445   5.9946
  8.431   5.9946
  8.418   5.9431
  8.404   5.8916
  8.391   5.8916
  8.377   5.9946
  8.363   5.9637
  8.350   5.8710
  8.337   5.7680
  8.323   5.6856
  8.310   5.5517
  8.297   5.4693
  8.283   5.3869
  8.270   5.4178
  8.257   5.3663
  8.244   5.3148
  8.231   5.2427
  8.218   5.2221
  8.205   5.1500
  8.192   5.0779
  8.179   5.0470
  8.166   5.1088
  8.153   4.9955
  8.140   4.9543
  8.128   4.9955
  8.115   4.9749
  8.102   4.8719
  8.090   4.8925
  8.077   4.8925
  8.064   4.8410
  8.052   4.7895
  8.039   4.7998
  8.027   4.7586
  8.015   4.7998
  8.002   4.8307
  7.990   4.9234
  7.978   4.9234
  7.965   4.8616
  7.953   4.8513
  7.941   4.8822
  7.929   4.8616
  7.917   4.9337
  7.905   4.9440
  7.893   4.9646
  7.881   5.0161
  7.869   5.0161
  7.857   5.0676
  7.845   5.0779
  7.833   5.0367
  7.821   5.0470
  7.809   5.0161
  7.798   5.0264
  7.786   4.9955
  7.774   5.0470
  7.763   5.1500
  7.751   5.1500
  7.739   5.1088
  7.728   5.1397
  7.716   5.1500
  7.705   5.1912
  7.694   5.1706
  7.682   5.2427
  7.671   5.2530
  7.659   5.2633
  7.648   5.2427
  7.637   5.2427
  7.626   5.3354
  7.614   5.3354
  7.603   5.1912
  7.592   5.1603
  7.581   5.2221
  7.570   5.3045
  7.559   5.3354
  7.548   5.3354
  7.537   5.3251
  7.526   5.3663
  7.515   5.3251
  7.504   5.3354
  7.493   5.3354
  7.483   5.3354
  7.472   5.3354
  7.461   5.4178
  7.450   5.4487
  7.440   5.3663
  7.429   5.3148
  7.418   5.3251
  7.408   5.3766
  7.397   5.4590
  7.387   5.4384
  7.376   5.4487
  7.366   5.4590
  7.355   5.5311
  7.345   5.5723
  7.334   5.5620
  7.324   5.5517
  7.314   5.5311
  7.303   5.4693
  7.293   5.5105
  7.283   5.5002
  7.273   5.5002
  7.263   5.5105
  7.252   5.5517
  7.242   5.5311
  7.232   5.4796
  7.222   5.4693
  7.212   5.4796
  7.202   5.4693
  7.192   5.4693
  7.182   5.5517
  7.172   5.6032
  7.162   5.6032
  7.152   5.5517
  7.143   5.5105
  7.133   5.4796
  7.123   5.5002
  7.113   5.6650
  7.103   5.7062
  7.094   5.6959
  7.084   5.6032
  7.074   5.5414
  7.065   5.5620
  7.055   5.7165
  7.046   5.7886
  7.036   5.8092
  7.026   5.6856
  7.017   5.6032
  7.007   5.5620
  6.998   5.5517
  6.989   5.6341
  6.979   5.6856
  6.970   5.7371
  6.960   5.9019
  6.951   5.9534
  6.942   5.8092
  6.932   5.7371
  6.923   5.7577
  6.914   5.7268
  6.905   5.7886
  6.896   5.8298
  6.886   5.8092
  6.877   5.7989
  6.868   5.7989
  6.859   5.8916
  6.850   5.8916
  6.841   5.7371
  6.832   5.6650
  6.823   5.7165
  6.814   5.7474
  6.805   5.6856
  6.796   5.6341
  6.787   5.6856
  6.778   5.7268
  6.770   5.6959
  6.761   5.7165
  6.752   5.7268
  6.743   5.7165
  6.734   5.5826
  6.726   5.5208
  6.717   5.5620
  6.708   5.6238
  6.700   5.5929
  6.691   5.5517
  6.682   5.5723
  6.674   5.6547
  6.665   5.6444
  6.657   5.6238
  6.648   5.5723
  6.640   5.6444
  6.631   5.7989
  6.623   5.7577
  6.614   5.6238
  6.606   5.6238
  6.597   5.5929
  6.589   5.6238
  6.581   5.5723
  6.572   5.5517
  6.564   5.6135
  6.556   5.6032
  6.547   5.5517
  6.539   5.5517
  6.531   5.5826
  6.523   5.6032
  6.514   5.6547
  6.506   5.6032
  6.498   5.6238
  6.490   5.7680
  6.482   5.7680
  6.474   5.6444
  6.466   5.5620
  6.458   5.6032
  6.450   5.5826
  6.442   5.5517
  6.434   5.5826
  6.426   5.6444
  6.418   5.7062
  6.410   5.8195
  6.402   5.7783
  6.394   5.6650
  6.386   5.6444
  6.378   5.6341
  6.370   5.6650
  6.363   5.7165
  6.355   5.6032
  6.347   5.6135
  6.339   5.7474
  6.332   5.6650
  6.324   5.5002
  6.316   5.5517
  6.308   5.6135
  6.301   5.7062
  6.293   5.7062
  6.286   5.6238
  6.278   5.5723
  6.270   5.5620
  6.263   5.5414
  6.255   5.5723
  6.248   5.5826
  6.240   5.5208
  6.233   5.4487
  6.225   5.4590
  6.218   5.5002
  6.210   5.5311
  6.203   5.4899
  6.195   5.4384
  6.188   5.4693
  6.181   5.5517
  6.173   5.4899
  6.166   5.4075
  6.159   5.3869
  6.151   5.3869
  6.144   5.3457
  6.137   5.2942
  6.130   5.2736
  6.122   5.3148
  6.115   5.3663
  6.108   5.4590
  6.101   5.3869
  6.094   5.2839
  6.086   5.2324
  6.079   5.3045
  6.072   5.3251
  6.065   5.2530
  6.058   5.2736
  6.051   5.3663
  6.044   5.4590
  6.037   5.3869
  6.030   5.2530
  6.023   5.2324
  6.016   5.2427
  6.009   5.2324
  6.002   5.2633
  5.995   5.3251
  5.988   5.3663
  5.981   5.3045
  5.974   5.2839
  5.967   5.4384
  5.960   5.5208
  5.954   5.4796
  5.947   5.3972
  5.940   5.4384
  5.933   5.6032
  5.926   5.6135
  5.920   5.4796
  5.913   5.4487
  5.906   5.4796
  5.899   5.5105
  5.893   5.6135
  5.886   5.5929
  5.879   5.6959
  5.873   5.7577
  5.866   5.5723
  5.859   5.5414
  5.853   5.5105
  5.846   5.4796
  5.840   5.4590
  5.833   5.5208
  5.827   5.6238
  5.820   5.7062
  5.813   5.7165
  5.807   5.6753
  5.800   5.6650
  5.794   5.6341
  5.788   5.5826
  5.781   5.6238
  5.775   5.6547
  5.768   5.7268
  5.762   5.8092
  5.755   5.7474
  5.749   5.6753
  5.743   5.6753
  5.736   5.6135
  5.730   5.6341
  5.724   5.6856
  5.717   5.7474
  5.711   5.7989
  5.705   5.8195
  5.698   5.7268
  5.692   5.6856
  5.686   5.6856
  5.680   5.7062
  5.674   5.7680
  5.667   5.7989
  5.661   5.7062
  5.655   5.7268
  5.649   5.7886
  5.643   5.8504
  5.637   5.8607
  5.630   5.7886
  5.624   5.7577
  5.618   5.7783
  5.612   5.7680
  5.606   5.7474
  5.600   5.8298
  5.594   5.8607
  5.588   5.8092
  5.582   5.8092
  5.576   5.8401
  5.570   5.8813
  5.564   5.8504
  5.558   5.8298
  5.552   5.8504
  5.546   5.9431
  5.540   5.9431
  5.534   5.9122
  5.528   5.9019
  5.523   5.9225
  5.517   5.9019
  5.511   5.8916
  5.505   5.9534
  5.499   6.0564
  5.493   6.0152
  5.487   5.9637
  5.482   5.9740
  5.476   6.0770
  5.470   6.0667
  5.464   6.0358
  5.459   6.0976
  5.453   6.0770
  5.447   6.0255
  5.441   6.0667
  5.436   6.0667
  5.430   6.0461
  5.424   6.1182
  5.419   6.2006
  5.413   6.1697
  5.407   6.1594
  5.402   6.1594
  5.396   6.1903
  5.390   6.1903
  5.385   6.1594
  5.379   6.1182
  5.374   6.1491
  5.368   6.1800
  5.363   6.2006
  5.357   6.2212
  5.352   6.2521
  5.346   6.2727
  5.341   6.3036
  5.335   6.2830
  5.330   6.2727
  5.324   6.2933
  5.319   6.2933
  5.313   6.2315
  5.308   6.2727
  5.302   6.3448
  5.297   6.3860
  5.291   6.3654
  5.286   6.3757
  5.281   6.2933
  5.275   6.2521
  5.270   6.2418
  5.265   6.2418
  5.259   6.2315
  5.254   6.3242
  5.249   6.3551
  5.243   6.3448
  5.238   6.3448
  5.233   6.3654
  5.227   6.3551
  5.222   6.3860
  5.217   6.4272
  5.212   6.5096
  5.206   6.4890
  5.201   6.4169
  5.196   6.3757
  5.191   6.3654
  5.186   6.3551
  5.180   6.3448
  5.175   6.3448
  5.170   6.3551
  5.165   6.3242
  5.160   6.3757
  5.155   6.3963
  5.150   6.4375
  5.145   6.4581
  5.139   6.4581
  5.134   6.4169
  5.129   6.3551
  5.124   6.3345
  5.119   6.4066
  5.114   6.4375
  5.109   6.4272
  5.104   6.3448
  5.099   6.3139
  5.094   6.3242
  5.089   6.3654
  5.084   6.3654
  5.079   6.4169
  5.074   6.3963
  5.069   6.3448
  5.064   6.3551
  5.059   6.3551
  5.054   6.3036
  5.049   6.3242
  5.044   6.3551
  5.040   6.3448
  5.035   6.3448
  5.030   6.3448
  5.025   6.3036
  5.020   6.3242
  5.015   6.2727
  5.010   6.3139
  5.005   6.3757
  5.001   6.3551
  4.996   6.3139
  4.991   6.3139
  4.986   6.3345
  4.981   6.3345
  4.977   6.3036
  4.972   6.3448
  4.967   6.3242
  4.962   6.3036
  4.958   6.3242
  4.953   6.3551
  4.948   6.3036
  4.943   6.2933
  4.939   6.4066
  4.934   6.4375
  4.929   6.3654
  4.925   6.4169
  4.920   6.4478
  4.915   6.4169
  4.911   6.3860
  4.906   6.4066
  4.901   6.3654
  4.897   6.3345
  4.892   6.3654
  4.888   6.3139
  4.883   6.2727
  4.878   6.3345
  4.874   6.3860
  4.869   6.3757
  4.865   6.3242
  4.860   6.3036
  4.856   6.2830
  4.851   6.3139
  4.846   6.3345
  4.842   6.3860
  4.837   6.4478
  4.833   6.4993
  4.828   6.4478
  4.824   6.3551
  4.819   6.3654
  4.815   6.3654
  4.810   6.3036
  4.806   6.3139
  4.802   6.3242
  4.797   6.3654
  4.793   6.3860
  4.788   6.3448
  4.784   6.3860
  4.779   6.4375
  4.775   6.3551
  4.771   6.2830
  4.766   6.3551
  4.762   6.4066
  4.758   6.3242
  4.753   6.3036
  4.749   6.3345
  4.744   6.3963
  4.740   6.3345
  4.736   6.3448
  4.731   6.4169
  4.727   6.4375
  4.723   6.4066
  4.719   6.3654
  4.714   6.3242
  4.710   6.3963
  4.706   6.3963
  4.701   6.4478
  4.697   6.4684
  4.693   6.3963
  4.689   6.3860
  4.684   6.3963
  4.680   6.4169
  4.676   6.4581
  4.672   6.4169
  4.668   6.3757
  4.663   6.3860
  4.659   6.4581
  4.655   6.4787
  4.651   6.4890
  4.647   6.4375
  4.643   6.4066
  4.638   6.4581
  4.634   6.4272
  4.630   6.3448
  4.626   6.3860
  4.622   6.3757
  4.618   6.3551
  4.614   6.3448
  4.610   6.3963
  4.605   6.4169
  4.601   6.4272
  4.597   6.3963
  4.593   6.4581
  4.589   6.4787
  4.585   6.4066
  4.581   6.3551
  4.577   6.3551
  4.573   6.3757
  4.569   6.4581
  4.565   6.4478
  4.561   6.4066
  4.557   6.4169
  4.553   6.4375
  4.549   6.4272
  4.545   6.3654
  4.541   6.3551
  4.537   6.3860
  4.533   6.3757
  4.529   6.4169
  4.525   6.4890
  4.521   6.4993
  4.517   6.3963
  4.513   6.4066
  4.509   6.3860
  4.505   6.4169
  4.502   6.5508
  4.498   6.5405
  4.494   6.5096
  4.490   6.4890
  4.486   6.4375
  4.482   6.3448
  4.478   6.3242
  4.474   6.4169
  4.470   6.4066
  4.467   6.3654
  4.463   6.3757
  4.459   6.3757
  4.455   6.2933
  4.451   6.3036
  4.447   6.3551
  4.444   6.4169
  4.440   6.3860
  4.436   6.3448
  4.432   6.3551
  4.428   6.3963
  4.425   6.4169
  4.421   6.3139
  4.417   6.2624
  4.413   6.2830
  4.410   6.3242
  4.406   6.3345
  4.402   6.2521
  4.398   6.2933
  4.395   6.3860
  4.391   6.4066
  4.387   6.3551
  4.384   6.3551
  4.380   6.3551
  4.376   6.2830
  4.372   6.2109
  4.369   6.2933
  4.365   6.2624
  4.361   6.2212
  4.358   6.2624
  4.354   6.2727
  4.350   6.2315
  4.347   6.2418
  4.343   6.2521
  4.340   6.2727
  4.336   6.2418
  4.332   6.1903
  4.329   6.2624
  4.325   6.3036
  4.321   6.1800
  4.318   6.1594
  4.314   6.1800
  4.311   6.1285
  4.307   6.0873
  4.304   6.1903
  4.300   6.2521
  4.296   6.2727
  4.293   6.2624
  4.289   6.2418
  4.286   6.2109
  4.282   6.2521
  4.279   6.2006
  4.275   6.1697
  4.272   6.1800
  4.268   6.2006
  4.265   6.1697
  4.261   6.0770
  4.258   6.0770
  4.254   6.2006
  4.251   6.2521
  4.247   6.2315
  4.244   6.1697
  4.240   6.1903
  4.237   6.1388
  4.233   6.1388
  4.230   6.2212
  4.226   6.1594
  4.223   6.0873
  4.219   6.0564
  4.216   6.0255
  4.213   6.0461
  4.209   6.0255
  4.206   6.0152
  4.202   6.0255
  4.199   6.1079
  4.196   6.1594
  4.192   6.1182
  4.189   6.0667
  4.185   5.9946
  4.182   5.9431
  4.179   5.9534
  4.175   5.9431
  4.172   5.8710
  4.169   5.7886
  4.165   5.8195
  4.162   5.8607
  4.159   5.9019
  4.155   5.8298
  4.152   5.7577
  4.149   5.9122
  4.145   6.0358
  4.142   5.9740
  4.139   5.9843
  4.135   5.8504
  4.132   5.7680
  4.129   5.8504
  4.126   5.8813
  4.122   5.8401
  4.119   5.9122
  4.116   5.8710
  4.112   5.8195
  4.109   5.7474
  4.106   5.7062
  4.103   5.7783
  4.099   5.9328
  4.096   5.9019
  4.093   5.8504
  4.090   5.8710
  4.086   5.8092
  4.083   5.6753
  4.080   5.6856
  4.077   5.7165
  4.074   5.7989
  4.070   5.7680
  4.067   5.7062
  4.064   5.6753
  4.061   5.6547
  4.058   5.7783
  4.055   5.8504
  4.051   5.8710
  4.048   5.8607
  4.045   5.7783
  4.042   5.7268
  4.039   5.6753
  4.036   5.6856
  4.032   5.7062
  4.029   5.7371
  4.026   5.7371
  4.023   5.7165
  4.020   5.6547
  4.017   5.5414
  4.014   5.4384
  4.011   5.5517
  4.008   5.6547
  4.004   5.6135
  4.001   5.6650
  3.998   5.7577
  3.995   5.6856
  3.992   5.6444
  3.989   5.6135
  3.986   5.6032
  3.983   5.6032
  3.980   5.6032
  3.977   5.6238
  3.974   5.5620
  3.971   5.4693
  3.968   5.4899
  3.965   5.4899
  3.962   5.4693
  3.959   5.5208
  3.956   5.5414
  3.953   5.5208
  3.950   5.5002
  3.947   5.5002
  3.944   5.5517
  3.941   5.4487
  3.938   5.4487
  3.935   5.4281
  3.932   5.4075
  3.929   5.4693
  3.926   5.5929
  3.923   5.4796
  3.920   5.3251
  3.917   5.4075
  3.914   5.4178
  3.911   5.3766
  3.908   5.4178
  3.905   5.4796
  3.902   5.5517
  3.899   5.5414
  3.896   5.4487
  3.893   5.2736
  3.890   5.2839
  3.887   5.3766
  3.884   5.3869
  3.882   5.4590
  3.879   5.5414
  3.876   5.4693
  3.873   5.4178
  3.870   5.3869
  3.867   5.4178
  3.864   5.3766
  3.861   5.3354
  3.858   5.2530
  3.856   5.3251
  3.853   5.4281
  3.850   5.4590
  3.847   5.3663
  3.844   5.3251
  3.841   5.2942
  3.838   5.2427
  3.836   5.2839
  3.833   5.4281
  3.830   5.4487
  3.827   5.3354
  3.824   5.2118
  3.822   5.1706
  3.819   5.1294
  3.816   5.0985
  3.813   5.1500
  3.810   5.2839
  3.807   5.3045
  3.805   5.2736
  3.802   5.3251
  3.799   5.3560
  3.796   5.3766
  3.794   5.4281
  3.791   5.3354
  3.788   5.1912
  3.785   5.2015
  3.782   5.2530
  3.780   5.2427
  3.777   5.2221
  3.774   5.2633
  3.771   5.2427
  3.769   5.2118
  3.766   5.2221
  3.763   5.2736
  3.761   5.3560
  3.758   5.3354
  3.755   5.3251
  3.752   5.2736
  3.750   5.1397
  3.747   5.1088
  3.744   5.1500
  3.742   5.1706
  3.739   5.2736
  3.736   5.2118
  3.733   5.1603
  3.731   5.1397
  3.728   5.1912
  3.725   5.2015
  3.723   5.1809
  3.720   5.2530
  3.717   5.2118
  3.715   5.1706
  3.712   5.2015
  3.709   5.0676
  3.707   4.9955
  3.704   4.9955
  3.702   5.0882
  3.699   5.1088
  3.696   5.1397
  3.694   5.1191
  3.691   5.1500
  3.688   5.2839
  3.686   5.2633
  3.683   5.1191
  3.680   5.0882
  3.678   5.1397
  3.675   5.1088
  3.673   5.0058
  3.670   5.0264
  3.667   5.0058
  3.665   5.0573
  3.662   5.1397
  3.660   5.1706
  3.657   5.0985
  3.655   5.1294
  3.652   5.2942
  3.649   5.2633
  3.647   5.0676
  3.644   5.0367
  3.642   5.1294
  3.639   5.0779
  3.637   5.0058
  3.634   4.9955
  3.632   5.0161
  3.629   5.1088
  3.626   5.0470
  3.624   5.0985
  3.621   5.1500
  3.619   5.1191
  3.616   5.0985
  3.614   5.1706
  3.611   5.1397
  3.609   5.0470
  3.606   5.0470
  3.604   5.1088
  3.601   5.0573
  3.599   5.0058
  3.596   4.9646
  3.594   4.9646
  3.591   5.0367
  3.589   5.0367
  3.586   4.9543
  3.584   5.0367
  3.581   5.1294
  3.579   5.1191
  3.576   5.0779
