Name: Rhyolite
Type: Rock
Class: Igneous
Subclass: Felsic
Particle Size: Whole Rock Chips
Sample No.: AP-981-175
Owner: United States Geological Survey, L. C. Rowan
Wavelength range: 0.405 - 14.05 um
Origin: Iberian Pyrite Belt, Spain

Description: Rhyolite, paragonitic altered





Measurement: Directional Hemispherical Reflectance
First Column: X
Second Column: Y
X Units: Wavelength (micrometers)
Y Units: Reflectance (percent)
First X Value: 14.05105
Last X Value: 0.40500
Number of X Values: 2530
Additional Information: rhy175a.txt

 14.051   2.8325
 14.013   2.7192
 13.975   2.8119
 13.938   2.8119
 13.900   2.8737
 13.863   2.7707
 13.826   2.9046
 13.790   3.0900
 13.753   3.1518
 13.717   2.9458
 13.680   2.9973
 13.644   3.0591
 13.609   3.1724
 13.573   3.2857
 13.538   3.4402
 13.502   3.4402
 13.467   3.5020
 13.432   3.5432
 13.398   3.5432
 13.363   3.3990
 13.329   3.4814
 13.295   3.5947
 13.261   3.5329
 13.227   3.4299
 13.193   3.4814
 13.160   3.4814
 13.126   3.4814
 13.093   3.4711
 13.060   3.5020
 13.027   3.4299
 12.995   3.3990
 12.962   3.3166
 12.930   3.3887
 12.898   3.4196
 12.866   3.6256
 12.834   3.6565
 12.802   3.6668
 12.771   3.5432
 12.739   3.4608
 12.708   3.4299
 12.677   3.4505
 12.646   3.4299
 12.616   3.5638
 12.585   3.6153
 12.554   3.6668
 12.524   3.7286
 12.494   3.8316
 12.464   3.5741
 12.434   3.3784
 12.404   3.1312
 12.375   2.9252
 12.345   2.7810
 12.316   2.8016
 12.287   2.6883
 12.258   2.6471
 12.229   2.6883
 12.200   2.9046
 12.171   2.9252
 12.143   2.9870
 12.115   2.9767
 12.086   2.9973
 12.058   2.9870
 12.030   2.9973
 12.002   3.0591
 11.975   3.1724
 11.947   3.1518
 11.920   3.2136
 11.892   3.2239
 11.865   3.3578
 11.838   3.4505
 11.811   3.5123
 11.784   3.5638
 11.757   3.6771
 11.731   3.7595
 11.704   3.9037
 11.678   3.9758
 11.652   4.0891
 11.626   4.1406
 11.600   4.2024
 11.574   4.2436
 11.548   4.3672
 11.522   4.3981
 11.497   4.5320
 11.471   4.6453
 11.446   4.6659
 11.421   4.6556
 11.396   4.7174
 11.371   4.7277
 11.346   4.8822
 11.321   4.9337
 11.297   4.9440
 11.272   4.9955
 11.248   5.1397
 11.223   5.1912
 11.199   5.3354
 11.175   5.3972
 11.151   5.4899
 11.127   5.5414
 11.103   5.7165
 11.079   5.7989
 11.056   5.9019
 11.032   6.0049
 11.009   6.1079
 10.985   6.1285
 10.962   6.2212
 10.939   6.1697
 10.916   6.1697
 10.893   6.1182
 10.870   6.0461
 10.848   5.9740
 10.825   6.0667
 10.802   6.1388
 10.780   6.1182
 10.758   6.0152
 10.735   6.0358
 10.713   6.0976
 10.691   6.1182
 10.669   5.9534
 10.647   5.8195
 10.625   5.6959
 10.604   5.7268
 10.582   5.7165
 10.560   5.7474
 10.539   5.7886
 10.518   5.8195
 10.496   5.8092
 10.475   5.9843
 10.454   6.1491
 10.433   6.3036
 10.412   6.4375
 10.391   6.6538
 10.370   6.8598
 10.350   7.1173
 10.329   7.3954
 10.309   7.7353
 10.288   8.0134
 10.268   8.2606
 10.247   8.5284
 10.227   8.8889
 10.207   9.1155
 10.187   9.4142
 10.167   9.6408
 10.147  10.0116
 10.127  10.2897
 10.108  10.4339
 10.088  10.5266
 10.068  10.6296
 10.049  10.6296
 10.029  10.7223
 10.010  10.8562
  9.991  11.1137
  9.972  11.2785
  9.952  11.3815
  9.933  11.5154
  9.914  11.7317
  9.895  11.8656
  9.877  12.0922
  9.858  12.2261
  9.839  12.2776
  9.821  12.4218
  9.802  12.6999
  9.783  12.9059
  9.765  13.1119
  9.747  13.2973
  9.728  13.5857
  9.710  13.8226
  9.692  14.1831
  9.674  14.5642
  9.656  14.9762
  9.638  15.2646
  9.620  15.5736
  9.602  15.7590
  9.585  15.8208
  9.567  15.7796
  9.549  15.6354
  9.532  15.2234
  9.514  14.6878
  9.497  14.1728
  9.479  13.8535
  9.462  13.6681
  9.445  13.5548
  9.428  13.5651
  9.411  13.9977
  9.394  14.4509
  9.377  14.9453
  9.360  15.5015
  9.343  16.1298
  9.326  16.6036
  9.309  16.9847
  9.293  17.3761
  9.276  17.7469
  9.259  17.9529
  9.243  18.1898
  9.226  18.3649
  9.210  18.4988
  9.194  18.4782
  9.178  18.5709
  9.161  18.6430
  9.145  18.6121
  9.129  18.5297
  9.113  18.4473
  9.097  18.3134
  9.081  18.1898
  9.065  18.0147
  9.049  17.9323
  9.034  17.7778
  9.018  17.5615
  9.002  17.3967
  8.987  17.2525
  8.971  17.0053
  8.956  16.9229
  8.940  16.7993
  8.925  16.7375
  8.909  16.7581
  8.894  16.7375
  8.879  16.6345
  8.864  16.5418
  8.849  16.3255
  8.834  16.1401
  8.819  15.9650
  8.804  15.6972
  8.789  15.3470
  8.774  15.0895
  8.759  14.7084
  8.744  14.2655
  8.730  13.7917
  8.715  13.3591
  8.700  12.7926
  8.686  12.2261
  8.671  11.7111
  8.657  11.0622
  8.642  10.1764
  8.628   9.4657
  8.614   9.2391
  8.599   9.5481
  8.585  10.0219
  8.571  10.4648
  8.557  10.7120
  8.543  10.7944
  8.529  10.7223
  8.515  10.5884
  8.501  10.3412
  8.487  10.1146
  8.473   9.9086
  8.459   9.6717
  8.445   9.3524
  8.431   9.1876
  8.418   9.0228
  8.404   8.8168
  8.391   8.5593
  8.377   8.3533
  8.363   8.2091
  8.350   8.0752
  8.337   7.9516
  8.323   7.9001
  8.310   7.8898
  8.297   7.8795
  8.283   7.8898
  8.270   7.9516
  8.257   7.9722
  8.244   8.0546
  8.231   8.1267
  8.218   8.2503
  8.205   8.2503
  8.192   8.2709
  8.179   8.2400
  8.166   8.2503
  8.153   8.1576
  8.140   8.0134
  8.128   7.8074
  8.115   7.4984
  8.102   7.1379
  8.090   6.8701
  8.077   6.5714
  8.064   6.2418
  8.052   6.0049
  8.039   5.8195
  8.027   5.5826
  8.015   5.4384
  8.002   5.3354
  7.990   5.1603
  7.978   4.9337
  7.965   4.7895
  7.953   4.6865
  7.941   4.6350
  7.929   4.4187
  7.917   4.1612
  7.905   4.0170
  7.893   3.9346
  7.881   3.8213
  7.869   3.7801
  7.857   3.6462
  7.845   3.5020
  7.833   3.4402
  7.821   3.4814
  7.809   3.4711
  7.798   3.4093
  7.786   3.3681
  7.774   3.3784
  7.763   3.3269
  7.751   3.3887
  7.739   3.3372
  7.728   3.3372
  7.716   3.3166
  7.705   3.2754
  7.694   3.2342
  7.682   3.2651
  7.671   3.2548
  7.659   3.2445
  7.648   3.1724
  7.637   3.1415
  7.626   3.1312
  7.614   3.1209
  7.603   3.0694
  7.592   3.0488
  7.581   3.0488
  7.570   3.0591
  7.559   3.0488
  7.548   3.0488
  7.537   2.9664
  7.526   2.9252
  7.515   2.9149
  7.504   2.9149
  7.493   2.8840
  7.483   2.9252
  7.472   2.9252
  7.461   2.8840
  7.450   2.7913
  7.440   2.7707
  7.429   2.7501
  7.418   2.7810
  7.408   2.7604
  7.397   2.7810
  7.387   2.7604
  7.376   2.7089
  7.366   2.6265
  7.355   2.6162
  7.345   2.5544
  7.334   2.5853
  7.324   2.6059
  7.314   2.6059
  7.303   2.5441
  7.293   2.5029
  7.283   2.4926
  7.273   2.4823
  7.263   2.4823
  7.252   2.5338
  7.242   2.5441
  7.232   2.5338
  7.222   2.5441
  7.212   2.5338
  7.202   2.4411
  7.192   2.4205
  7.182   2.3793
  7.172   2.3381
  7.162   2.2454
  7.152   2.2351
  7.143   2.1733
  7.133   2.0806
  7.123   2.0600
  7.113   2.1218
  7.103   2.1218
  7.094   2.0188
  7.084   1.9673
  7.074   1.9879
  7.065   1.9158
  7.055   1.9055
  7.046   1.9467
  7.036   1.9158
  7.026   1.8849
  7.017   1.9261
  7.007   1.8849
  6.998   1.9055
  6.989   1.8952
  6.979   1.8025
  6.970   1.7613
  6.960   1.8025
  6.951   1.8334
  6.942   1.8849
  6.932   1.9055
  6.923   1.9261
  6.914   1.8643
  6.905   1.8746
  6.896   1.9570
  6.886   2.0085
  6.877   2.0188
  6.868   2.0188
  6.859   1.9982
  6.850   2.0497
  6.841   2.0394
  6.832   2.0703
  6.823   2.0497
  6.814   2.0806
  6.805   2.1630
  6.796   2.2248
  6.787   2.1836
  6.778   2.2042
  6.770   2.2557
  6.761   2.2866
  6.752   2.2557
  6.743   2.2660
  6.734   2.2660
  6.726   2.2969
  6.717   2.3072
  6.708   2.3690
  6.700   2.3896
  6.691   2.3587
  6.682   2.3381
  6.674   2.3793
  6.665   2.4411
  6.657   2.5029
  6.648   2.4411
  6.640   2.4102
  6.631   2.4102
  6.623   2.4617
  6.614   2.5029
  6.606   2.5235
  6.597   2.4926
  6.589   2.4308
  6.581   2.3896
  6.572   2.3999
  6.564   2.3793
  6.556   2.4205
  6.547   2.4514
  6.539   2.4514
  6.531   2.4411
  6.523   2.4926
  6.514   2.5441
  6.506   2.5853
  6.498   2.6162
  6.490   2.6986
  6.482   2.7295
  6.474   2.7604
  6.466   2.7604
  6.458   2.7810
  6.450   2.7810
  6.442   2.7913
  6.434   2.8325
  6.426   2.8943
  6.418   2.8840
  6.410   2.8943
  6.402   2.8531
  6.394   2.8119
  6.386   2.7913
  6.378   2.8016
  6.370   2.7501
  6.363   2.6986
  6.355   2.6471
  6.347   2.6471
  6.339   2.6471
  6.332   2.6677
  6.324   2.6471
  6.316   2.5750
  6.308   2.5750
  6.301   2.5956
  6.293   2.5441
  6.286   2.4514
  6.278   2.3793
  6.270   2.3999
  6.263   2.4102
  6.255   2.3793
  6.248   2.3484
  6.240   2.3999
  6.233   2.3896
  6.225   2.2969
  6.218   2.2763
  6.210   2.2763
  6.203   2.2660
  6.195   2.2660
  6.188   2.2969
  6.181   2.3175
  6.173   2.2969
  6.166   2.2866
  6.159   2.3278
  6.151   2.3999
  6.144   2.3999
  6.137   2.4411
  6.130   2.4823
  6.122   2.4720
  6.115   2.5029
  6.108   2.5441
  6.101   2.5853
  6.094   2.5853
  6.086   2.5338
  6.079   2.5544
  6.072   2.5441
  6.065   2.5956
  6.058   2.6471
  6.051   2.6059
  6.044   2.5647
  6.037   2.6265
  6.030   2.6471
  6.023   2.6162
  6.016   2.5853
  6.009   2.5853
  6.002   2.5544
  5.995   2.5647
  5.988   2.5956
  5.981   2.6059
  5.974   2.5338
  5.967   2.4926
  5.960   2.5029
  5.954   2.5029
  5.947   2.4823
  5.940   2.4926
  5.933   2.5029
  5.926   2.5338
  5.920   2.5647
  5.913   2.5441
  5.906   2.5338
  5.899   2.5544
  5.893   2.5956
  5.886   2.6471
  5.879   2.6574
  5.873   2.6368
  5.866   2.6883
  5.859   2.7398
  5.853   2.7604
  5.846   2.8016
  5.840   2.8428
  5.833   2.8943
  5.827   2.9149
  5.820   2.9252
  5.813   2.9252
  5.807   2.9561
  5.800   2.9561
  5.794   2.9664
  5.788   2.9870
  5.781   2.9870
  5.775   2.9458
  5.768   2.9767
  5.762   3.0179
  5.755   3.0797
  5.749   3.1003
  5.743   3.1003
  5.736   3.0694
  5.730   3.0591
  5.724   3.1003
  5.717   3.1003
  5.711   3.1106
  5.705   3.0900
  5.698   3.0488
  5.692   3.0488
  5.686   3.0694
  5.680   3.0591
  5.674   3.0385
  5.667   3.0179
  5.661   2.9870
  5.655   2.9561
  5.649   2.9046
  5.643   2.9149
  5.637   2.8943
  5.630   2.8531
  5.624   2.8531
  5.618   2.8737
  5.612   2.8428
  5.606   2.8428
  5.600   2.8634
  5.594   2.8531
  5.588   2.8016
  5.582   2.8222
  5.576   2.8428
  5.570   2.8428
  5.564   2.8016
  5.558   2.8119
  5.552   2.8325
  5.546   2.8222
  5.540   2.8222
  5.534   2.8325
  5.528   2.8428
  5.523   2.9355
  5.517   2.9149
  5.511   2.9046
  5.505   2.9355
  5.499   2.9046
  5.493   2.9046
  5.487   2.9767
  5.482   3.0282
  5.476   3.0282
  5.470   2.9973
  5.464   3.0282
  5.459   3.0179
  5.453   3.0076
  5.447   3.0385
  5.441   3.0694
  5.436   3.1003
  5.430   3.1209
  5.424   3.0694
  5.419   3.0179
  5.413   2.9458
  5.407   2.8840
  5.402   2.8531
  5.396   2.8840
  5.390   2.8531
  5.385   2.8428
  5.379   2.8222
  5.374   2.8016
  5.368   2.7604
  5.363   2.7398
  5.357   2.7707
  5.352   2.8016
  5.346   2.7707
  5.341   2.7501
  5.335   2.7913
  5.330   2.8222
  5.324   2.8119
  5.319   2.7913
  5.313   2.8016
  5.308   2.8737
  5.302   2.8634
  5.297   2.8634
  5.291   2.8737
  5.286   2.8943
  5.281   2.9561
  5.275   3.0179
  5.270   3.0385
  5.265   3.0900
  5.259   3.1415
  5.254   3.1930
  5.249   3.2548
  5.243   3.3063
  5.238   3.3784
  5.233   3.4711
  5.227   3.5020
  5.222   3.5226
  5.217   3.5844
  5.212   3.6462
  5.206   3.7389
  5.201   3.8419
  5.196   3.8213
  5.191   3.8213
  5.186   3.8419
  5.180   3.8625
  5.175   3.8625
  5.170   3.8213
  5.165   3.8213
  5.160   3.8831
  5.155   3.8831
  5.150   3.8831
  5.145   3.9037
  5.139   3.8625
  5.134   3.8110
  5.129   3.8625
  5.124   3.9758
  5.119   4.0479
  5.114   4.0479
  5.109   4.0376
  5.104   4.0273
  5.099   4.0376
  5.094   3.9964
  5.089   3.9964
  5.084   3.9861
  5.079   3.9552
  5.074   3.9243
  5.069   3.9243
  5.064   3.9243
  5.059   3.9449
  5.054   3.9758
  5.049   3.9861
  5.044   4.0067
  5.040   4.0067
  5.035   3.9346
  5.030   3.9243
  5.025   3.9449
  5.020   3.9655
  5.015   3.9861
  5.010   3.9552
  5.005   3.9758
  5.001   4.0067
  4.996   4.0479
  4.991   4.1097
  4.986   4.1097
  4.981   4.1818
  4.977   4.2127
  4.972   4.2436
  4.967   4.3054
  4.962   4.3466
  4.958   4.3981
  4.953   4.5011
  4.948   4.5526
  4.943   4.5732
  4.939   4.6041
  4.934   4.6659
  4.929   4.7277
  4.925   4.7792
  4.920   4.7895
  4.915   4.8204
  4.911   4.8616
  4.906   4.9440
  4.901   5.0882
  4.897   5.2221
  4.892   5.3251
  4.888   5.4693
  4.883   5.6135
  4.878   5.7783
  4.874   5.8504
  4.869   5.8813
  4.865   5.9843
  4.860   6.0152
  4.856   6.0255
  4.851   6.0255
  4.846   6.0667
  4.842   6.1903
  4.837   6.3036
  4.833   6.3551
  4.828   6.3860
  4.824   6.4581
  4.819   6.4890
  4.815   6.4581
  4.810   6.4993
  4.806   6.5817
  4.802   6.5714
  4.797   6.5817
  4.793   6.6435
  4.788   6.6950
  4.784   6.7568
  4.779   6.7980
  4.775   6.8495
  4.771   6.8804
  4.766   6.9010
  4.762   6.9422
  4.758   6.9834
  4.753   7.0246
  4.749   7.0555
  4.744   7.1173
  4.740   7.1482
  4.736   7.1997
  4.731   7.2615
  4.727   7.2512
  4.723   7.3130
  4.719   7.3954
  4.714   7.3851
  4.710   7.3748
  4.706   7.3748
  4.701   7.3542
  4.697   7.3954
  4.693   7.4263
  4.689   7.4572
  4.684   7.4881
  4.680   7.5293
  4.676   7.5602
  4.672   7.5911
  4.668   7.6838
  4.663   7.7971
  4.659   7.8383
  4.655   7.9722
  4.651   8.0752
  4.647   8.1164
  4.643   8.1679
  4.638   8.2606
  4.634   8.3224
  4.630   8.3842
  4.626   8.4975
  4.622   8.6314
  4.618   8.6932
  4.614   8.7962
  4.610   8.9198
  4.605   8.9404
  4.601   8.9919
  4.597   9.0537
  4.593   9.1052
  4.589   9.1773
  4.585   9.2494
  4.581   9.3009
  4.577   9.2906
  4.573   9.2906
  4.569   9.3730
  4.565   9.5069
  4.561   9.5172
  4.557   9.5069
  4.553   9.5584
  4.549   9.6305
  4.545   9.6202
  4.541   9.5996
  4.537   9.6614
  4.533   9.6923
  4.529   9.6305
  4.525   9.5790
  4.521   9.5378
  4.517   9.4657
  4.513   9.4760
  4.509   9.4760
  4.505   9.4554
  4.502   9.4245
  4.498   9.3009
  4.494   9.2803
  4.490   9.3215
  4.486   9.2906
  4.482   9.2700
  4.478   9.2391
  4.474   9.2082
  4.470   9.2288
  4.467   9.3009
  4.463   9.3730
  4.459   9.4657
  4.455   9.5996
  4.451   9.6820
  4.447   9.7541
  4.444   9.8571
  4.440   9.9189
  4.436   9.9395
  4.432  10.0219
  4.428  10.0940
  4.425  10.1867
  4.421  10.2588
  4.417  10.3000
  4.413  10.3000
  4.410  10.3618
  4.406  10.4957
  4.402  10.5987
  4.398  10.7120
  4.395  10.8047
  4.391  10.8665
  4.387  11.0107
  4.384  11.1446
  4.380  11.1755
  4.376  11.1652
  4.372  11.2476
  4.369  11.3712
  4.365  11.4742
  4.361  11.5566
  4.358  11.5669
  4.354  11.5875
  4.350  11.5875
  4.347  11.5772
  4.343  11.6081
  4.340  11.7111
  4.336  11.7832
  4.332  11.8656
  4.329  11.8553
  4.325  11.7935
  4.321  11.8141
  4.318  11.7729
  4.314  11.7317
  4.311  11.7523
  4.307  11.8347
  4.304  11.8141
  4.300  11.8347
  4.296  11.8244
  4.293  11.7935
  4.289  11.8141
  4.286  11.8965
  4.282  11.8656
  4.279  11.8965
  4.275  11.9171
  4.272  11.9583
  4.268  11.9377
  4.265  11.9480
  4.261  12.0098
  4.258  12.0716
  4.254  12.1334
  4.251  12.1746
  4.247  12.1746
  4.244  12.2055
  4.240  12.2570
  4.237  12.2879
  4.233  12.2158
  4.230  12.1643
  4.226  12.2364
  4.223  12.2570
  4.219  12.1746
  4.216  12.1952
  4.213  12.1849
  4.209  12.2158
  4.206  12.2055
  4.202  12.1643
  4.199  12.1849
  4.196  12.1746
  4.192  12.1849
  4.189  12.2673
  4.185  12.2467
  4.182  12.2467
  4.179  12.2570
  4.175  12.2261
  4.172  12.2261
  4.169  12.2982
  4.165  12.3394
  4.162  12.4115
  4.159  12.4012
  4.155  12.3497
  4.152  12.3806
  4.149  12.4321
  4.145  12.5042
  4.142  12.5557
  4.139  12.5248
  4.135  12.5351
  4.132  12.6175
  4.129  12.6484
  4.126  12.5969
  4.122  12.6278
  4.119  12.6896
  4.116  12.7308
  4.112  12.7308
  4.109  12.7102
  4.106  12.7205
  4.103  12.8029
  4.099  12.8338
  4.096  12.8029
  4.093  12.8544
  4.090  12.9265
  4.086  12.9986
  4.083  13.0707
  4.080  13.0604
  4.077  13.0295
  4.074  12.9780
  4.070  12.9883
  4.067  13.0192
  4.064  13.1016
  4.061  13.1016
  4.058  13.0501
  4.055  13.1016
  4.051  13.2046
  4.048  13.1737
  4.045  13.0913
  4.042  13.0810
  4.039  13.2252
  4.036  13.2458
  4.032  13.1840
  4.029  13.1325
  4.026  13.0913
  4.023  13.1016
  4.020  13.1737
  4.017  13.1222
  4.014  13.0707
  4.011  13.1119
  4.008  13.1531
  4.004  13.1737
  4.001  13.1840
  3.998  13.1840
  3.995  13.1840
  3.992  13.1531
  3.989  13.0707
  3.986  13.0707
  3.983  13.1634
  3.980  13.1325
  3.977  13.0913
  3.974  13.0604
  3.971  13.1119
  3.968  13.0913
  3.965  13.0501
  3.962  13.0707
  3.959  13.1016
  3.956  13.1531
  3.953  13.1325
  3.950  13.1428
  3.947  13.0501
  3.944  12.9780
  3.941  13.0089
  3.938  13.0604
  3.935  13.0604
  3.932  12.9986
  3.929  12.9986
  3.926  12.9677
  3.923  13.0089
  3.920  13.0501
  3.917  13.0810
  3.914  13.0810
  3.911  12.9883
  3.908  12.8441
  3.905  12.7617
  3.902  12.7514
  3.899  12.8750
  3.896  12.7823
  3.893  12.7308
  3.890  12.8235
  3.887  12.8647
  3.884  12.7926
  3.882  12.7411
  3.879  12.6896
  3.876  12.6278
  3.873  12.5042
  3.870  12.6175
  3.867  12.6587
  3.864  12.5969
  3.861  12.5042
  3.858  12.4424
  3.856  12.4218
  3.853  12.4424
  3.850  12.4733
  3.847  12.5042
  3.844  12.3703
  3.841  12.2364
  3.838  12.2982
  3.836  12.3806
  3.833  12.3394
  3.830  12.2261
  3.827  12.1849
  3.824  12.1334
  3.822  12.0098
  3.819  12.0613
  3.816  12.0716
  3.813  12.0407
  3.810  12.0510
  3.807  12.0922
  3.805  12.0098
  3.802  11.8553
  3.799  11.8038
  3.796  11.8450
  3.794  11.7214
  3.791  11.6493
  3.788  11.6802
  3.785  11.7832
  3.782  11.8347
  3.780  11.7626
  3.777  11.6699
  3.774  11.5669
  3.771  11.5154
  3.769  11.5257
  3.766  11.4639
  3.763  11.3609
  3.761  11.2785
  3.758  11.2888
  3.755  11.1858
  3.752  11.1343
  3.750  11.1240
  3.747  11.0210
  3.744  10.8459
  3.742  10.7635
  3.739  10.7429
  3.736  10.8047
  3.733  10.7944
  3.731  10.7017
  3.728  10.6914
  3.725  10.7326
  3.723  10.5678
  3.720  10.4751
  3.717  10.4648
  3.715  10.4957
  3.712  10.4854
  3.709  10.4133
  3.707  10.3618
  3.704  10.3000
  3.702  10.2176
  3.699  10.1970
  3.696  10.2176
  3.694  10.2176
  3.691  10.1146
  3.688  10.0837
  3.686  10.0940
  3.683  10.0425
  3.680   9.9910
  3.678   9.8571
  3.675   9.7644
  3.673   9.8365
  3.670   9.8983
  3.667   9.8674
  3.665   9.8056
  3.662   9.7953
  3.660   9.7541
  3.657   9.7541
  3.655   9.6614
  3.652   9.6202
  3.649   9.5172
  3.647   9.3524
  3.644   9.2803
  3.642   9.3009
  3.639   9.1773
  3.637   9.1052
  3.634   9.0846
  3.632   9.0022
  3.629   9.0022
  3.626   9.0846
  3.624   8.9816
  3.621   8.8683
  3.619   8.7550
  3.616   8.7344
  3.614   8.7653
  3.611   8.7447
  3.609   8.5799
  3.606   8.4254
  3.604   8.4151
  3.601   8.4666
  3.599   8.3842
  3.596   8.2812
  3.594   8.2194
  3.591   8.0855
  3.589   7.9413
  3.586   7.9516
  3.584   7.9413
