Name: Rhyolite
Type: Rock
Class: Igneous
Subclass: Felsic
Particle Size: Whole Rock Chips
Sample No.: AP-939-220a
Owner: United States Geological Survey, L. C. Rowan
Wavelength range: 0.405 - 14.05 um
Origin: Iberian Pyrite Belt, Spain

Description: Rhyolite, white, altered





Measurement: Directional Hemispherical Reflectance
First Column: X
Second Column: Y
X Units: Wavelength (micrometers)
Y Units: Reflectance (percent)
First X Value: 14.05105
Last X Value: 0.40500
Number of X Values: 2530
Additional Information: rhy220aa.txt

 14.051   2.5235
 14.013   2.4411
 13.975   2.7604
 13.938   2.8222
 13.900   2.8119
 13.863   2.7707
 13.826   2.8634
 13.790   2.8222
 13.753   2.8943
 13.717   2.8222
 13.680   2.9252
 13.644   2.9252
 13.609   2.9046
 13.573   2.7707
 13.538   2.8222
 13.502   2.9046
 13.467   3.0797
 13.432   2.9664
 13.398   2.9046
 13.363   2.9870
 13.329   3.1415
 13.295   3.1415
 13.261   3.2136
 13.227   3.1312
 13.193   3.1312
 13.160   3.1621
 13.126   3.2960
 13.093   3.3475
 13.060   3.5226
 13.027   3.5123
 12.995   3.5329
 12.962   3.5947
 12.930   3.7595
 12.898   3.8419
 12.866   4.0479
 12.834   4.1612
 12.802   4.3260
 12.771   4.3363
 12.739   4.1818
 12.708   4.0170
 12.677   4.0376
 12.646   3.8110
 12.616   3.6050
 12.585   3.5329
 12.554   3.7595
 12.524   3.9140
 12.494   4.0170
 12.464   3.8934
 12.434   3.8522
 12.404   3.6771
 12.375   3.4505
 12.345   3.1106
 12.316   2.9355
 12.287   2.7707
 12.258   2.7913
 12.229   2.7707
 12.200   2.8634
 12.171   2.9664
 12.143   3.1518
 12.115   3.1106
 12.086   3.1518
 12.058   3.1621
 12.030   3.2960
 12.002   3.3475
 11.975   3.4505
 11.947   3.5020
 11.920   3.6256
 11.892   3.5844
 11.865   3.6359
 11.838   3.7389
 11.811   3.8728
 11.784   3.8213
 11.757   3.9346
 11.731   3.9346
 11.704   3.9243
 11.678   3.9346
 11.652   4.0479
 11.626   4.1612
 11.600   4.2951
 11.574   4.2024
 11.548   4.2024
 11.522   4.2333
 11.497   4.3981
 11.471   4.4908
 11.446   4.6041
 11.421   4.5938
 11.396   4.6865
 11.371   4.6556
 11.346   4.6556
 11.321   4.6865
 11.297   4.8513
 11.272   4.9440
 11.248   5.0573
 11.223   5.1706
 11.199   5.3354
 11.175   5.4384
 11.151   5.5929
 11.127   5.6032
 11.103   5.6753
 11.079   5.8401
 11.056   6.0461
 11.032   6.1182
 11.009   6.2830
 10.985   6.3963
 10.962   6.5817
 10.939   6.5920
 10.916   6.4993
 10.893   6.2212
 10.870   5.9740
 10.848   5.7062
 10.825   5.5311
 10.802   5.3766
 10.780   5.3251
 10.758   5.2015
 10.735   5.2427
 10.713   5.2221
 10.691   5.2839
 10.669   5.3457
 10.647   5.4075
 10.625   5.4178
 10.604   5.4384
 10.582   5.4281
 10.560   5.4796
 10.539   5.5002
 10.518   5.6135
 10.496   5.6650
 10.475   5.7577
 10.454   5.8298
 10.433   6.1800
 10.412   6.4169
 10.391   6.5199
 10.370   6.6023
 10.350   6.7980
 10.329   6.9834
 10.309   7.1997
 10.288   7.3954
 10.268   7.6735
 10.247   7.8383
 10.227   8.0546
 10.207   8.2194
 10.187   8.4048
 10.167   8.5902
 10.147   8.8168
 10.127   8.9713
 10.108   9.2700
 10.088   9.6408
 10.068  10.0219
 10.049  10.3412
 10.029  10.7429
 10.010  11.1137
  9.991  11.6081
  9.972  12.0922
  9.952  12.5969
  9.933  13.0501
  9.914  13.3900
  9.895  13.4312
  9.877  13.3900
  9.858  13.2046
  9.839  13.0295
  9.821  12.9162
  9.802  12.8750
  9.783  12.8338
  9.765  13.1634
  9.747  13.6784
  9.728  14.3170
  9.710  14.9144
  9.692  15.6148
  9.674  16.3461
  9.656  17.0362
  9.638  17.5203
  9.620  17.9838
  9.602  18.3546
  9.585  18.6327
  9.567  18.8902
  9.549  19.2404
  9.532  19.5803
  9.514  19.8687
  9.497  20.0232
  9.479  20.1983
  9.462  20.2189
  9.445  20.2498
  9.428  20.2910
  9.411  20.4455
  9.394  20.5691
  9.377  20.6206
  9.360  20.4764
  9.343  20.3116
  9.326  20.2498
  9.309  20.1777
  9.293  19.8172
  9.276  19.5288
  9.259  19.3537
  9.243  19.1477
  9.226  18.9211
  9.210  18.8284
  9.194  18.6945
  9.178  18.6121
  9.161  18.4267
  9.145  18.1589
  9.129  17.7263
  9.113  17.2525
  9.097  16.7375
  9.081  16.1092
  9.065  15.2852
  9.049  14.5127
  9.034  13.7505
  9.018  13.1222
  9.002  12.7411
  8.987  12.6072
  8.971  12.7205
  8.956  13.0604
  8.940  13.4724
  8.925  13.9977
  8.909  14.3994
  8.894  14.7908
  8.879  15.1101
  8.864  15.4191
  8.849  15.5942
  8.834  15.6869
  8.819  15.6972
  8.804  15.6560
  8.789  15.5221
  8.774  15.3470
  8.759  15.0792
  8.744  14.8938
  8.730  14.6054
  8.715  14.3067
  8.700  13.9977
  8.686  13.6784
  8.671  13.1634
  8.657  12.5763
  8.642  11.9480
  8.628  11.3506
  8.614  11.0004
  8.599  11.2167
  8.585  11.5875
  8.571  11.9789
  8.557  12.2467
  8.543  12.3909
  8.529  12.3703
  8.515  12.2982
  8.501  12.2776
  8.487  12.3497
  8.473  12.2467
  8.459  12.1849
  8.445  12.0922
  8.431  12.0304
  8.418  11.9377
  8.404  11.9377
  8.391  11.9377
  8.377  11.8656
  8.363  11.6802
  8.350  11.5154
  8.337  11.3506
  8.323  11.2991
  8.310  11.1858
  8.297  11.1137
  8.283  11.0210
  8.270  11.0313
  8.257  10.9592
  8.244  10.8871
  8.231  10.8253
  8.218  10.8253
  8.205  10.8356
  8.192  10.8459
  8.179  10.6914
  8.166  10.5266
  8.153  10.3309
  8.140  10.0013
  8.128   9.4657
  8.115   8.9919
  8.102   8.5387
  8.090   8.0958
  8.077   7.5705
  8.064   7.1070
  8.052   6.6744
  8.039   6.3345
  8.027   5.9328
  8.015   5.6341
  8.002   5.2633
  7.990   4.9749
  7.978   4.7174
  7.965   4.5526
  7.953   4.3260
  7.941   4.0170
  7.929   3.7595
  7.917   3.6256
  7.905   3.3681
  7.893   3.1415
  7.881   2.9458
  7.869   2.8222
  7.857   2.6883
  7.845   2.5544
  7.833   2.4617
  7.821   2.3999
  7.809   2.2969
  7.798   2.2866
  7.786   2.2557
  7.774   2.2660
  7.763   2.1939
  7.751   2.1836
  7.739   2.1630
  7.728   2.1115
  7.716   2.0188
  7.705   1.9879
  7.694   1.9570
  7.682   1.9776
  7.671   1.8952
  7.659   1.8437
  7.648   1.8231
  7.637   1.8437
  7.626   1.7922
  7.614   1.6892
  7.603   1.6789
  7.592   1.7510
  7.581   1.6686
  7.570   1.6274
  7.559   1.5656
  7.548   1.5862
  7.537   1.6068
  7.526   1.6377
  7.515   1.6171
  7.504   1.5553
  7.493   1.4832
  7.483   1.4832
  7.472   1.5038
  7.461   1.5038
  7.450   1.4729
  7.440   1.5244
  7.429   1.4729
  7.418   1.4626
  7.408   1.5141
  7.397   1.5862
  7.387   1.5244
  7.376   1.5038
  7.366   1.5038
  7.355   1.5038
  7.345   1.4729
  7.334   1.5553
  7.324   1.5553
  7.314   1.4626
  7.303   1.4111
  7.293   1.4523
  7.283   1.4729
  7.273   1.5347
  7.263   1.5862
  7.252   1.6377
  7.242   1.5862
  7.232   1.5141
  7.222   1.5759
  7.212   1.6480
  7.202   1.6068
  7.192   1.5656
  7.182   1.5553
  7.172   1.6377
  7.162   1.6686
  7.152   1.6686
  7.143   1.6583
  7.133   1.6583
  7.123   1.6583
  7.113   1.6892
  7.103   1.6789
  7.094   1.7304
  7.084   1.7407
  7.074   1.7716
  7.065   1.7201
  7.055   1.7510
  7.046   1.8025
  7.036   1.8025
  7.026   1.6995
  7.017   1.7098
  7.007   1.7510
  6.998   1.7716
  6.989   1.7407
  6.979   1.7407
  6.970   1.7819
  6.960   1.8025
  6.951   1.7613
  6.942   1.8540
  6.932   1.8643
  6.923   1.8231
  6.914   1.8437
  6.905   1.9055
  6.896   1.8643
  6.886   1.8952
  6.877   1.8849
  6.868   1.8746
  6.859   1.8746
  6.850   1.9055
  6.841   1.9261
  6.832   1.9570
  6.823   1.8952
  6.814   1.8952
  6.805   1.9570
  6.796   1.9879
  6.787   1.9261
  6.778   1.9261
  6.770   1.9673
  6.761   1.9570
  6.752   1.9158
  6.743   1.9673
  6.734   2.0085
  6.726   2.0394
  6.717   2.0497
  6.708   2.0497
  6.700   2.0085
  6.691   2.0394
  6.682   2.0394
  6.674   2.0394
  6.665   2.0497
  6.657   2.0909
  6.648   2.0909
  6.640   2.1321
  6.631   2.1218
  6.623   2.1527
  6.614   2.1527
  6.606   2.1939
  6.597   2.1836
  6.589   2.1630
  6.581   2.1836
  6.572   2.2145
  6.564   2.1939
  6.556   2.1733
  6.547   2.1630
  6.539   2.1527
  6.531   2.1424
  6.523   2.1733
  6.514   2.2454
  6.506   2.3278
  6.498   2.3793
  6.490   2.4308
  6.482   2.4102
  6.474   2.4102
  6.466   2.4308
  6.458   2.5029
  6.450   2.4617
  6.442   2.4514
  6.434   2.4823
  6.426   2.4720
  6.418   2.4514
  6.410   2.4617
  6.402   2.4514
  6.394   2.4308
  6.386   2.3896
  6.378   2.4514
  6.370   2.4514
  6.363   2.4411
  6.355   2.4514
  6.347   2.4102
  6.339   2.3381
  6.332   2.3381
  6.324   2.3175
  6.316   2.3072
  6.308   2.3175
  6.301   2.3278
  6.293   2.2763
  6.286   2.2351
  6.278   2.2145
  6.270   2.1939
  6.263   2.1630
  6.255   2.1733
  6.248   2.1836
  6.240   2.2042
  6.233   2.1424
  6.225   2.1527
  6.218   2.2145
  6.210   2.1939
  6.203   2.1012
  6.195   2.0703
  6.188   2.0703
  6.181   2.1115
  6.173   2.0703
  6.166   2.1321
  6.159   2.1424
  6.151   2.0909
  6.144   2.1630
  6.137   2.2351
  6.130   2.2042
  6.122   2.1836
  6.115   2.1630
  6.108   2.2248
  6.101   2.2763
  6.094   2.2660
  6.086   2.2969
  6.079   2.3381
  6.072   2.2351
  6.065   2.2248
  6.058   2.2454
  6.051   2.2351
  6.044   2.2351
  6.037   2.2866
  6.030   2.3587
  6.023   2.3587
  6.016   2.3381
  6.009   2.3381
  6.002   2.3072
  5.995   2.3587
  5.988   2.3896
  5.981   2.3690
  5.974   2.3690
  5.967   2.4205
  5.960   2.3793
  5.954   2.3793
  5.947   2.4205
  5.940   2.4102
  5.933   2.3587
  5.926   2.4205
  5.920   2.4514
  5.913   2.4308
  5.906   2.4720
  5.899   2.5132
  5.893   2.5029
  5.886   2.5338
  5.879   2.5441
  5.873   2.5956
  5.866   2.6162
  5.859   2.6368
  5.853   2.6986
  5.846   2.7295
  5.840   2.7810
  5.833   2.8634
  5.827   2.8531
  5.820   2.8943
  5.813   2.9252
  5.807   2.9149
  5.800   2.8943
  5.794   2.9664
  5.788   2.9870
  5.781   2.9870
  5.775   2.9767
  5.768   2.9973
  5.762   3.0282
  5.755   3.0488
  5.749   3.0385
  5.743   3.0694
  5.736   3.0900
  5.730   3.0694
  5.724   3.0694
  5.717   3.1106
  5.711   3.1209
  5.705   3.1415
  5.698   3.1930
  5.692   3.1930
  5.686   3.1827
  5.680   3.1724
  5.674   3.1209
  5.667   3.0488
  5.661   2.9664
  5.655   2.9664
  5.649   3.0385
  5.643   3.0385
  5.637   2.9561
  5.630   2.9458
  5.624   2.9252
  5.618   2.9149
  5.612   2.9149
  5.606   2.9458
  5.600   2.9458
  5.594   2.9046
  5.588   2.8943
  5.582   2.9458
  5.576   2.9149
  5.570   2.9149
  5.564   2.9355
  5.558   2.9458
  5.552   2.9458
  5.546   2.9767
  5.540   2.9973
  5.534   3.0385
  5.528   3.0282
  5.523   3.0488
  5.517   3.0591
  5.511   3.0797
  5.505   3.1312
  5.499   3.2136
  5.493   3.2239
  5.487   3.1930
  5.482   3.2239
  5.476   3.2857
  5.470   3.2754
  5.464   3.3166
  5.459   3.4196
  5.453   3.4711
  5.447   3.4711
  5.441   3.4608
  5.436   3.4608
  5.430   3.5020
  5.424   3.5020
  5.419   3.4814
  5.413   3.4402
  5.407   3.4196
  5.402   3.3887
  5.396   3.3166
  5.390   3.2445
  5.385   3.2033
  5.379   3.1930
  5.374   3.2033
  5.368   3.2033
  5.363   3.2239
  5.357   3.1930
  5.352   3.1724
  5.346   3.2136
  5.341   3.1827
  5.335   3.1621
  5.330   3.1930
  5.324   3.2239
  5.319   3.2651
  5.313   3.2857
  5.308   3.3063
  5.302   3.3269
  5.297   3.3269
  5.291   3.3269
  5.286   3.3578
  5.281   3.4093
  5.275   3.4505
  5.270   3.4814
  5.265   3.5020
  5.259   3.5741
  5.254   3.6462
  5.249   3.6668
  5.243   3.7492
  5.238   3.8110
  5.233   3.8213
  5.227   3.9243
  5.222   4.0273
  5.217   4.0788
  5.212   4.2024
  5.206   4.3466
  5.201   4.3775
  5.196   4.3672
  5.191   4.4187
  5.186   4.4702
  5.180   4.4702
  5.175   4.4805
  5.170   4.5217
  5.165   4.5526
  5.160   4.5732
  5.155   4.5732
  5.150   4.5629
  5.145   4.6144
  5.139   4.6453
  5.134   4.6350
  5.129   4.6247
  5.124   4.5938
  5.119   4.6762
  5.114   4.8101
  5.109   4.8513
  5.104   4.8307
  5.099   4.8616
  5.094   4.8719
  5.089   4.8616
  5.084   4.8822
  5.079   4.9028
  5.074   4.8616
  5.069   4.8307
  5.064   4.8101
  5.059   4.8410
  5.054   4.8719
  5.049   4.8616
  5.044   4.8513
  5.040   4.8410
  5.035   4.8822
  5.030   4.9543
  5.025   5.0367
  5.020   5.0161
  5.015   5.0161
  5.010   5.0367
  5.005   5.0264
  5.001   5.0161
  4.996   5.0470
  4.991   5.0676
  4.986   5.1088
  4.981   5.2221
  4.977   5.3148
  4.972   5.4075
  4.967   5.5208
  4.962   5.6341
  4.958   5.7371
  4.953   5.8710
  4.948   5.9431
  4.943   6.0049
  4.939   6.1079
  4.934   6.1594
  4.929   6.2006
  4.925   6.2830
  4.920   6.4375
  4.915   6.5920
  4.911   6.7259
  4.906   6.8392
  4.901   7.0246
  4.897   7.2821
  4.892   7.5602
  4.888   7.7662
  4.883   8.0031
  4.878   8.2400
  4.874   8.4872
  4.869   8.7241
  4.865   8.8992
  4.860   9.0640
  4.856   9.2082
  4.851   9.3112
  4.846   9.4657
  4.842   9.6305
  4.837   9.7644
  4.833   9.8983
  4.828  10.0219
  4.824  10.0631
  4.819  10.1249
  4.815  10.2485
  4.810  10.3103
  4.806  10.4030
  4.802  10.4957
  4.797  10.5575
  4.793  10.6296
  4.788  10.6708
  4.784  10.7635
  4.779  10.8047
  4.775  10.8562
  4.771  10.9283
  4.766  10.9901
  4.762  11.0313
  4.758  11.0725
  4.753  11.1755
  4.749  11.3506
  4.744  11.4536
  4.740  11.4948
  4.736  11.5154
  4.731  11.5669
  4.727  11.6287
  4.723  11.6493
  4.719  11.6699
  4.714  11.6493
  4.710  11.6493
  4.706  11.6287
  4.701  11.5875
  4.697  11.5463
  4.693  11.4845
  4.689  11.4433
  4.684  11.4330
  4.680  11.4433
  4.676  11.5051
  4.672  11.5257
  4.668  11.5875
  4.663  11.7523
  4.659  11.9583
  4.655  12.0716
  4.651  12.2570
  4.647  12.4733
  4.643  12.5969
  4.638  12.7411
  4.634  12.9162
  4.630  13.1531
  4.626  13.3282
  4.622  13.4724
  4.618  13.6269
  4.614  13.7196
  4.610  13.8432
  4.605  13.9668
  4.601  14.0801
  4.597  14.1934
  4.593  14.3582
  4.589  14.4715
  4.585  14.5642
  4.581  14.6878
  4.577  14.8320
  4.573  14.9968
  4.569  15.0689
  4.565  15.0792
  4.561  15.1204
  4.557  15.2337
  4.553  15.3264
  4.549  15.3779
  4.545  15.3882
  4.541  15.3985
  4.537  15.3676
  4.533  15.3264
  4.529  15.2543
  4.525  15.1719
  4.521  15.0895
  4.517  14.9968
  4.513  14.9041
  4.509  14.7290
  4.505  14.5436
  4.502  14.3994
  4.498  14.2964
  4.494  14.2861
  4.490  14.2861
  4.486  14.2861
  4.482  14.2655
  4.478  14.2037
  4.474  14.1934
  4.470  14.1831
  4.467  14.1934
  4.463  14.3788
  4.459  14.5436
  4.455  14.6981
  4.451  14.9144
  4.447  15.0689
  4.444  15.2543
  4.440  15.3985
  4.436  15.5118
  4.432  15.6457
  4.428  15.7693
  4.425  15.9032
  4.421  16.1092
  4.417  16.3049
  4.413  16.4800
  4.410  16.6860
  4.406  16.8405
  4.402  17.0362
  4.398  17.2422
  4.395  17.4379
  4.391  17.6748
  4.387  17.9838
  4.384  18.1589
  4.380  18.3443
  4.376  18.6430
  4.372  18.9108
  4.369  19.1580
  4.365  19.3743
  4.361  19.5700
  4.358  19.8172
  4.354  20.0953
  4.350  20.3116
  4.347  20.4249
  4.343  20.5588
  4.340  20.7133
  4.336  20.8472
  4.332  21.0017
  4.329  21.1974
  4.325  21.3313
  4.321  21.4343
  4.318  21.4652
  4.314  21.4858
  4.311  21.5373
  4.307  21.5579
  4.304  21.5785
  4.300  21.5888
  4.296  21.6094
  4.293  21.6609
  4.289  21.7021
  4.286  21.7742
  4.282  21.8051
  4.279  21.9287
  4.275  22.1553
  4.272  22.3098
  4.268  22.4437
  4.265  22.6085
  4.261  22.7012
  4.258  22.8557
  4.254  23.0720
  4.251  23.1441
  4.247  23.0823
  4.244  23.0205
  4.240  23.0514
  4.237  23.0102
  4.233  22.9999
  4.230  23.0102
  4.226  23.0823
  4.223  23.2471
  4.219  23.2986
  4.216  23.3810
  4.213  23.5046
  4.209  23.5973
  4.206  23.6591
  4.202  23.7415
  4.199  23.8754
  4.196  23.9784
  4.192  24.0299
  4.189  24.0917
  4.185  24.1226
  4.182  24.2359
  4.179  24.3286
  4.175  24.4110
  4.172  24.5758
  4.169  24.6685
  4.165  24.6788
  4.162  24.7818
  4.159  24.8539
  4.155  24.9363
  4.152  25.0599
  4.149  25.1732
  4.145  25.2659
  4.142  25.2865
  4.139  25.3586
  4.135  25.5028
  4.132  25.5955
  4.129  25.6161
  4.126  25.6882
  4.122  25.8324
  4.119  25.9148
  4.116  25.9251
  4.112  26.0796
  4.109  26.2650
  4.106  26.3165
  4.103  26.3989
  4.099  26.4813
  4.096  26.6461
  4.093  26.7285
  4.090  26.7285
  4.086  26.8418
  4.083  26.9242
  4.080  26.9551
  4.077  26.9963
  4.074  26.9654
  4.070  27.0478
  4.067  27.1920
  4.064  27.2229
  4.061  27.2538
  4.058  27.3465
  4.055  27.3774
  4.051  27.3568
  4.048  27.3156
  4.045  27.3877
  4.042  27.4289
  4.039  27.4392
  4.036  27.4701
  4.032  27.5731
  4.029  27.5525
  4.026  27.4495
  4.023  27.3568
  4.020  27.3362
  4.017  27.3053
  4.014  27.3774
  4.011  27.4804
  4.008  27.5113
  4.004  27.5525
  4.001  27.6452
  3.998  27.5834
  3.995  27.5937
  3.992  27.6349
  3.989  27.6864
  3.986  27.7070
  3.983  27.7482
  3.980  27.8203
  3.977  27.8306
  3.974  27.8615
  3.971  27.9336
  3.968  27.9954
  3.965  28.1190
  3.962  28.1705
  3.959  28.1293
  3.956  28.1499
  3.953  28.3353
  3.950  28.4280
  3.947  28.3971
  3.944  28.4177
  3.941  28.5413
  3.938  28.6237
  3.935  28.6134
  3.932  28.6134
  3.929  28.6855
  3.926  28.7061
  3.923  28.7370
  3.920  28.7885
  3.917  28.8194
  3.914  28.7988
  3.911  28.8503
  3.908  28.9121
  3.905  28.9224
  3.902  28.8812
  3.899  28.7885
  3.896  28.6855
  3.893  28.6134
  3.890  28.5722
  3.887  28.6546
  3.884  28.7679
  3.882  28.7576
  3.879  28.6134
  3.876  28.4795
  3.873  28.4280
  3.870  28.4898
  3.867  28.5104
  3.864  28.5413
  3.861  28.4795
  3.858  28.3971
  3.856  28.2735
  3.853  28.3044
  3.850  28.4074
  3.847  28.4280
  3.844  28.3353
  3.841  28.4383
  3.838  28.4795
  3.836  28.3765
  3.833  28.3559
  3.830  28.4589
  3.827  28.4383
  3.824  28.3868
  3.822  28.3971
  3.819  28.5001
  3.816  28.5001
  3.813  28.4280
  3.810  28.3765
  3.807  28.4589
  3.805  28.5207
  3.802  28.4177
  3.799  28.3147
  3.796  28.3353
  3.794  28.3147
  3.791  28.2941
  3.788  28.2632
  3.785  28.2014
  3.782  28.0881
  3.780  28.0675
  3.777  27.9954
  3.774  27.8615
  3.771  27.7276
  3.769  27.6658
  3.766  27.5525
  3.763  27.5319
  3.761  27.5216
  3.758  27.5010
  3.755  27.4289
  3.752  27.2950
  3.750  27.2332
  3.747  27.2126
  3.744  27.0478
  3.742  26.8933
  3.739  26.8727
  3.736  26.9860
  3.733  26.9242
  3.731  26.8521
  3.728  26.8212
  3.725  26.8418
  3.723  26.7800
  3.720  26.6667
  3.717  26.6564
  3.715  26.6667
  3.712  26.5946
  3.709  26.5534
  3.707  26.5328
  3.704  26.6049
  3.702  26.5225
  3.699  26.4813
  3.696  26.4504
  3.694  26.4195
  3.691  26.4401
  3.688  26.4195
  3.686  26.3268
  3.683  26.3474
  3.680  26.3680
  3.678  26.4813
  3.675  26.5637
  3.673  26.5637
  3.670  26.5946
  3.667  26.5534
  3.665  26.4092
  3.662  26.3989
  3.660  26.5637
  3.657  26.6152
  3.655  26.4916
  3.652  26.4092
  3.649  26.3989
  3.647  26.3783
  3.644  26.2135
  3.642  26.1826
  3.639  26.2238
  3.637  26.2032
  3.634  26.1929
  3.632  26.2650
  3.629  26.1517
  3.626  26.0178
  3.624  25.9148
  3.621  25.9251
  3.619  25.8736
  3.616  25.7500
  3.614  25.6264
  3.611  25.5543
  3.609  25.4307
  3.606  25.3895
  3.604  25.3380
  3.601  25.2968
  3.599  25.1629
  3.596  24.9981
  3.594  24.9569
  3.591  25.0393
  3.589  24.9775
  3.586  24.8436
  3.584  24.6376
