Name: Dacite
Type: Rock
Class: Intermediate
Subclass: Felsic
Particle Size: Whole Rock Chips
Sample No.: AP-939-213
Owner: United States Geological Survey, L. C. Rowan
Wavelength range: 0.405 - 14.05 um
Origin: Iberian Pyrite Belt, Spain

Description: Dacite, green, altered





Measurement: Directional Hemispherical Reflectance
First Column: X
Second Column: Y
X Units: Wavelength (micrometers)
Y Units: Reflectance (percent)
First X Value: 14.05105
Last X Value: 0.40500
Number of X Values: 2530
Additional Information: dac213a.txt

 14.051   2.8016
 14.013   2.6986
 13.975   2.8531
 13.938   2.8016
 13.900   2.9149
 13.863   2.9458
 13.826   2.9870
 13.790   2.9046
 13.753   2.9355
 13.717   2.8119
 13.680   2.8119
 13.644   2.8222
 13.609   2.9973
 13.573   2.8428
 13.538   2.6780
 13.502   2.5750
 13.467   2.7089
 13.432   2.7707
 13.398   2.9046
 13.363   2.8325
 13.329   2.8634
 13.295   2.8531
 13.261   2.8943
 13.227   2.8634
 13.193   2.9561
 13.160   2.9252
 13.126   2.9458
 13.093   3.0282
 13.060   3.0900
 13.027   3.0076
 12.995   3.2239
 12.962   3.4093
 12.930   3.5020
 12.898   3.5020
 12.866   3.6874
 12.834   3.6977
 12.802   3.7801
 12.771   3.7595
 12.739   3.7595
 12.708   3.6462
 12.677   3.4505
 12.646   3.1930
 12.616   3.2445
 12.585   3.3063
 12.554   3.4093
 12.524   3.5123
 12.494   3.6874
 12.464   3.6874
 12.434   3.6359
 12.404   3.4196
 12.375   3.2651
 12.345   2.9664
 12.316   2.7810
 12.287   2.5956
 12.258   2.6059
 12.229   2.5853
 12.200   2.6986
 12.171   2.7604
 12.143   2.8737
 12.115   2.9252
 12.086   2.9561
 12.058   2.8840
 12.030   2.9149
 12.002   2.8840
 11.975   2.9767
 11.947   3.0179
 11.920   3.0591
 11.892   3.0900
 11.865   3.1415
 11.838   3.0591
 11.811   3.1415
 11.784   3.2960
 11.757   3.3681
 11.731   3.3166
 11.704   3.4299
 11.678   3.4093
 11.652   3.4299
 11.626   3.4608
 11.600   3.5844
 11.574   3.6256
 11.548   3.6565
 11.522   3.7286
 11.497   3.8522
 11.471   3.8419
 11.446   3.9243
 11.421   3.8831
 11.396   3.8625
 11.371   3.9552
 11.346   4.0170
 11.321   3.9552
 11.297   4.1097
 11.272   4.1715
 11.248   4.1612
 11.223   4.0685
 11.199   4.1921
 11.175   4.2848
 11.151   4.4187
 11.127   4.5423
 11.103   4.6247
 11.079   4.5526
 11.056   4.5629
 11.032   4.5526
 11.009   4.6144
 10.985   4.6350
 10.962   4.6453
 10.939   4.6350
 10.916   4.7071
 10.893   4.6144
 10.870   4.5526
 10.848   4.5835
 10.825   4.6968
 10.802   4.7071
 10.780   4.7277
 10.758   4.6659
 10.735   4.6762
 10.713   4.7071
 10.691   4.8513
 10.669   4.9028
 10.647   4.9852
 10.625   5.0779
 10.604   5.2530
 10.582   5.3560
 10.560   5.3972
 10.539   5.4178
 10.518   5.5208
 10.496   5.6444
 10.475   5.7989
 10.454   5.9019
 10.433   6.0667
 10.412   6.1800
 10.391   6.3963
 10.370   6.6023
 10.350   6.8598
 10.329   6.9628
 10.309   7.0967
 10.288   7.2512
 10.268   7.5396
 10.247   7.6735
 10.227   7.7868
 10.207   7.9413
 10.187   8.1576
 10.167   8.2812
 10.147   8.4872
 10.127   8.6726
 10.108   8.8889
 10.088   9.0846
 10.068   9.3936
 10.049   9.5893
 10.029   9.7747
 10.010   9.9292
  9.991  10.1867
  9.972  10.3824
  9.952  10.6605
  9.933  10.8974
  9.914  11.0828
  9.895  11.1961
  9.877  11.3712
  9.858  11.4742
  9.839  11.5875
  9.821  11.5875
  9.802  11.7111
  9.783  11.8862
  9.765  12.1025
  9.747  12.2055
  9.728  12.3806
  9.710  12.6381
  9.692  13.0398
  9.674  13.3385
  9.656  13.6887
  9.638  13.9977
  9.620  14.3479
  9.602  14.5333
  9.585  14.7187
  9.567  14.9144
  9.549  15.1822
  9.532  15.4088
  9.514  15.5633
  9.497  15.6045
  9.479  15.7178
  9.462  15.6560
  9.445  15.5427
  9.428  15.4294
  9.411  15.2440
  9.394  14.8835
  9.377  14.6157
  9.360  14.3994
  9.343  14.3170
  9.326  14.1522
  9.309  13.9977
  9.293  13.9050
  9.276  13.8844
  9.259  13.8741
  9.243  13.9874
  9.226  14.1110
  9.210  14.2243
  9.194  14.3376
  9.178  14.5333
  9.161  14.5951
  9.145  14.5848
  9.129  14.5333
  9.113  14.5848
  9.097  14.5230
  9.081  14.4612
  9.065  14.2140
  9.049  14.0492
  9.034  13.8535
  9.018  13.5960
  9.002  13.3282
  8.987  13.2561
  8.971  13.0707
  8.956  12.8235
  8.940  12.5969
  8.925  12.4836
  8.909  12.3909
  8.894  12.3497
  8.879  12.2570
  8.864  12.2364
  8.849  12.1746
  8.834  12.1334
  8.819  12.0613
  8.804  12.1025
  8.789  12.0819
  8.774  12.0819
  8.759  12.0613
  8.744  11.9789
  8.730  11.7626
  8.715  11.6905
  8.700  11.5463
  8.686  11.2785
  8.671  11.0519
  8.657  10.7635
  8.642  10.3824
  8.628  10.0219
  8.614   9.7541
  8.599   9.8468
  8.585  10.1867
  8.571  10.5575
  8.557  10.7120
  8.543  10.7738
  8.529  10.7635
  8.515  10.8150
  8.501  10.7326
  8.487  10.6090
  8.473  10.4030
  8.459  10.3206
  8.445  10.2485
  8.431  10.1558
  8.418   9.9189
  8.404   9.6923
  8.391   9.5687
  8.377   9.4760
  8.363   9.2185
  8.350   9.0434
  8.337   8.9095
  8.323   8.7447
  8.310   8.5284
  8.297   8.4254
  8.283   8.3224
  8.270   8.2091
  8.257   8.0752
  8.244   8.0237
  8.231   7.9722
  8.218   7.9516
  8.205   7.8177
  8.192   7.6632
  8.179   7.5293
  8.166   7.3542
  8.153   7.0246
  8.140   6.6641
  8.128   6.2624
  8.115   5.8298
  8.102   5.3560
  8.090   5.0367
  8.077   4.7998
  8.064   4.5320
  8.052   4.1818
  8.039   3.9552
  8.027   3.7183
  8.015   3.4196
  8.002   3.1724
  7.990   3.0488
  7.978   2.8222
  7.965   2.6883
  7.953   2.5544
  7.941   2.4102
  7.929   2.2660
  7.917   2.1321
  7.905   1.9364
  7.893   1.8128
  7.881   1.7304
  7.869   1.6686
  7.857   1.5553
  7.845   1.5141
  7.833   1.4523
  7.821   1.4214
  7.809   1.3596
  7.798   1.3390
  7.786   1.3493
  7.774   1.3287
  7.763   1.2566
  7.751   1.2566
  7.739   1.2154
  7.728   1.1433
  7.716   1.1227
  7.705   1.1330
  7.694   1.1124
  7.682   1.1330
  7.671   1.0712
  7.659   1.0712
  7.648   1.0815
  7.637   1.1227
  7.626   1.0506
  7.614   0.9682
  7.603   0.9064
  7.592   0.8755
  7.581   0.8961
  7.570   0.9476
  7.559   0.9476
  7.548   0.9991
  7.537   1.0300
  7.526   1.0197
  7.515   0.9785
  7.504   0.9682
  7.493   0.9373
  7.483   0.9167
  7.472   0.8240
  7.461   0.8755
  7.450   0.9373
  7.440   0.9476
  7.429   0.9064
  7.418   0.9167
  7.408   0.9476
  7.397   1.0609
  7.387   1.0712
  7.376   1.0609
  7.366   1.0403
  7.355   0.9991
  7.345   0.9167
  7.334   0.9373
  7.324   0.9888
  7.314   1.0403
  7.303   0.9991
  7.293   1.0403
  7.283   1.0712
  7.273   1.0300
  7.263   0.9682
  7.252   0.9991
  7.242   1.0094
  7.232   1.0094
  7.222   1.0094
  7.212   1.0197
  7.202   1.0197
  7.192   1.0609
  7.182   1.0506
  7.172   1.0712
  7.162   1.0918
  7.152   1.1330
  7.143   1.1124
  7.133   1.1433
  7.123   1.0918
  7.113   1.0506
  7.103   1.0506
  7.094   1.1124
  7.084   1.1536
  7.074   1.1948
  7.065   1.1536
  7.055   1.1433
  7.046   1.1124
  7.036   1.1227
  7.026   1.1227
  7.017   1.1948
  7.007   1.2360
  6.998   1.2154
  6.989   1.1742
  6.979   1.1536
  6.970   1.1330
  6.960   1.1227
  6.951   1.1433
  6.942   1.2463
  6.932   1.2566
  6.923   1.2669
  6.914   1.2875
  6.905   1.2875
  6.896   1.2566
  6.886   1.2772
  6.877   1.2669
  6.868   1.2463
  6.859   1.1639
  6.850   1.2566
  6.841   1.2875
  6.832   1.3184
  6.823   1.3081
  6.814   1.2978
  6.805   1.2566
  6.796   1.2360
  6.787   1.2566
  6.778   1.3390
  6.770   1.3390
  6.761   1.3287
  6.752   1.3287
  6.743   1.3596
  6.734   1.3905
  6.726   1.4111
  6.717   1.3802
  6.708   1.4214
  6.700   1.3905
  6.691   1.4214
  6.682   1.4214
  6.674   1.3802
  6.665   1.4111
  6.657   1.4832
  6.648   1.4626
  6.640   1.4420
  6.631   1.4626
  6.623   1.5038
  6.614   1.4832
  6.606   1.4317
  6.597   1.3905
  6.589   1.4523
  6.581   1.4626
  6.572   1.4729
  6.564   1.4729
  6.556   1.5038
  6.547   1.4523
  6.539   1.4935
  6.531   1.5038
  6.523   1.5141
  6.514   1.5347
  6.506   1.5347
  6.498   1.4832
  6.490   1.4626
  6.482   1.4523
  6.474   1.4729
  6.466   1.5244
  6.458   1.5656
  6.450   1.5141
  6.442   1.4832
  6.434   1.5141
  6.426   1.5244
  6.418   1.4420
  6.410   1.4626
  6.402   1.5553
  6.394   1.6583
  6.386   1.6171
  6.378   1.5244
  6.370   1.4523
  6.363   1.4626
  6.355   1.4729
  6.347   1.4935
  6.339   1.5038
  6.332   1.5347
  6.324   1.5450
  6.316   1.5038
  6.308   1.4626
  6.301   1.4729
  6.293   1.4523
  6.286   1.5244
  6.278   1.5244
  6.270   1.5347
  6.263   1.5347
  6.255   1.5656
  6.248   1.5656
  6.240   1.5141
  6.233   1.5244
  6.225   1.5141
  6.218   1.4729
  6.210   1.5141
  6.203   1.5347
  6.195   1.5244
  6.188   1.5244
  6.181   1.5347
  6.173   1.5553
  6.166   1.5656
  6.159   1.5553
  6.151   1.5347
  6.144   1.5347
  6.137   1.5965
  6.130   1.5862
  6.122   1.5862
  6.115   1.5553
  6.108   1.5244
  6.101   1.5038
  6.094   1.5141
  6.086   1.5244
  6.079   1.5656
  6.072   1.5862
  6.065   1.5656
  6.058   1.5244
  6.051   1.4935
  6.044   1.4832
  6.037   1.5553
  6.030   1.5656
  6.023   1.5656
  6.016   1.5965
  6.009   1.6068
  6.002   1.5862
  5.995   1.5862
  5.988   1.6377
  5.981   1.6480
  5.974   1.5656
  5.967   1.5759
  5.960   1.5553
  5.954   1.5759
  5.947   1.5450
  5.940   1.5347
  5.933   1.5347
  5.926   1.5553
  5.920   1.5656
  5.913   1.6480
  5.906   1.6377
  5.899   1.6171
  5.893   1.6686
  5.886   1.6686
  5.879   1.6377
  5.873   1.6789
  5.866   1.6995
  5.859   1.6892
  5.853   1.6789
  5.846   1.6892
  5.840   1.7201
  5.833   1.7716
  5.827   1.8025
  5.820   1.8025
  5.813   1.7201
  5.807   1.7201
  5.800   1.7922
  5.794   1.7819
  5.788   1.7510
  5.781   1.8025
  5.775   1.8437
  5.768   1.8128
  5.762   1.8128
  5.755   1.8334
  5.749   1.7922
  5.743   1.7922
  5.736   1.8231
  5.730   1.8437
  5.724   1.8849
  5.717   1.8849
  5.711   1.8231
  5.705   1.8334
  5.698   1.9055
  5.692   1.9261
  5.686   1.8952
  5.680   1.8952
  5.674   1.8437
  5.667   1.8643
  5.661   1.8849
  5.655   1.8643
  5.649   1.8437
  5.643   1.8643
  5.637   1.8231
  5.630   1.8437
  5.624   1.8952
  5.618   1.8952
  5.612   1.8952
  5.606   1.9467
  5.600   1.9055
  5.594   1.8849
  5.588   1.8849
  5.582   1.9261
  5.576   1.9467
  5.570   1.9467
  5.564   1.9261
  5.558   1.9158
  5.552   1.9364
  5.546   1.9570
  5.540   1.9570
  5.534   1.9673
  5.528   1.9570
  5.523   1.9467
  5.517   1.9467
  5.511   1.9982
  5.505   2.0291
  5.499   2.0291
  5.493   2.0291
  5.487   2.0703
  5.482   2.0909
  5.476   2.1115
  5.470   2.0909
  5.464   2.0806
  5.459   2.1012
  5.453   2.1218
  5.447   2.1218
  5.441   2.1630
  5.436   2.1836
  5.430   2.1836
  5.424   2.1836
  5.419   2.1836
  5.413   2.1733
  5.407   2.1836
  5.402   2.1630
  5.396   2.1630
  5.390   2.1836
  5.385   2.1630
  5.379   2.1424
  5.374   2.1733
  5.368   2.1630
  5.363   2.0909
  5.357   2.0806
  5.352   2.1527
  5.346   2.2145
  5.341   2.1939
  5.335   2.1527
  5.330   2.1836
  5.324   2.1939
  5.319   2.1836
  5.313   2.2351
  5.308   2.2660
  5.302   2.2248
  5.297   2.2042
  5.291   2.2248
  5.286   2.2866
  5.281   2.3072
  5.275   2.2866
  5.270   2.2763
  5.265   2.2866
  5.259   2.3278
  5.254   2.3587
  5.249   2.3278
  5.243   2.3278
  5.238   2.3484
  5.233   2.4411
  5.227   2.5235
  5.222   2.5235
  5.217   2.5235
  5.212   2.5338
  5.206   2.5647
  5.201   2.5853
  5.196   2.5544
  5.191   2.5647
  5.186   2.6574
  5.180   2.6780
  5.175   2.6677
  5.170   2.7192
  5.165   2.7501
  5.160   2.7707
  5.155   2.7707
  5.150   2.8119
  5.145   2.8222
  5.139   2.7913
  5.134   2.8016
  5.129   2.8428
  5.124   2.8943
  5.119   2.9252
  5.114   2.9149
  5.109   2.9355
  5.104   2.9767
  5.099   3.0179
  5.094   2.9767
  5.089   2.9973
  5.084   3.0179
  5.079   2.9767
  5.074   2.9561
  5.069   2.9973
  5.064   3.0385
  5.059   3.0591
  5.054   3.0591
  5.049   3.0797
  5.044   3.1209
  5.040   3.1209
  5.035   3.0694
  5.030   3.0694
  5.025   3.0694
  5.020   3.0591
  5.015   3.1106
  5.010   3.1827
  5.005   3.1621
  5.001   3.1415
  4.996   3.1724
  4.991   3.1724
  4.986   3.1312
  4.981   3.1415
  4.977   3.2342
  4.972   3.2754
  4.967   3.3372
  4.962   3.3578
  4.958   3.3681
  4.953   3.3990
  4.948   3.3990
  4.943   3.3578
  4.939   3.3681
  4.934   3.3784
  4.929   3.3887
  4.925   3.4196
  4.920   3.4608
  4.915   3.5020
  4.911   3.5741
  4.906   3.6153
  4.901   3.6050
  4.897   3.6153
  4.892   3.6565
  4.888   3.6874
  4.883   3.7595
  4.878   3.8316
  4.874   3.8110
  4.869   3.8419
  4.865   3.9346
  4.860   3.9861
  4.856   3.9861
  4.851   3.9964
  4.846   4.0479
  4.842   4.1097
  4.837   4.0788
  4.833   4.0685
  4.828   4.1303
  4.824   4.1509
  4.819   4.1612
  4.815   4.1818
  4.810   4.1509
  4.806   4.1509
  4.802   4.1921
  4.797   4.1921
  4.793   4.2333
  4.788   4.2436
  4.784   4.2230
  4.779   4.2436
  4.775   4.2848
  4.771   4.3466
  4.766   4.3878
  4.762   4.3363
  4.758   4.3157
  4.753   4.3569
  4.749   4.3775
  4.744   4.4290
  4.740   4.4908
  4.736   4.4599
  4.731   4.4805
  4.727   4.5217
  4.723   4.5629
  4.719   4.5423
  4.714   4.4908
  4.710   4.5423
  4.706   4.5835
  4.701   4.6247
  4.697   4.6350
  4.693   4.5938
  4.689   4.5629
  4.684   4.5114
  4.680   4.5114
  4.676   4.5320
  4.672   4.5732
  4.668   4.6041
  4.663   4.6350
  4.659   4.7483
  4.655   4.8616
  4.651   4.8410
  4.647   4.8307
  4.643   4.8410
  4.638   4.8719
  4.634   4.9646
  4.630   5.0367
  4.626   5.0882
  4.622   5.1397
  4.618   5.1809
  4.614   5.2221
  4.610   5.2839
  4.605   5.2942
  4.601   5.2942
  4.597   5.3354
  4.593   5.4281
  4.589   5.5311
  4.585   5.4899
  4.581   5.4796
  4.577   5.5620
  4.573   5.6547
  4.569   5.6959
  4.565   5.6856
  4.561   5.6856
  4.557   5.7577
  4.553   5.8195
  4.549   5.8813
  4.545   5.9740
  4.541   6.0461
  4.537   6.0667
  4.533   6.0358
  4.529   6.0564
  4.525   6.1182
  4.521   6.1491
  4.517   6.1491
  4.513   6.1491
  4.509   6.1697
  4.505   6.1800
  4.502   6.2109
  4.498   6.2521
  4.494   6.2521
  4.490   6.2727
  4.486   6.3139
  4.482   6.3654
  4.478   6.4375
  4.474   6.5096
  4.470   6.5508
  4.467   6.5611
  4.463   6.6126
  4.459   6.6847
  4.455   6.7156
  4.451   6.8083
  4.447   6.9113
  4.444   7.0246
  4.440   7.1173
  4.436   7.1791
  4.432   7.2718
  4.428   7.3645
  4.425   7.3954
  4.421   7.4263
  4.417   7.5808
  4.413   7.7147
  4.410   7.7868
  4.406   7.8589
  4.402   7.9310
  4.398   8.0031
  4.395   8.1267
  4.391   8.2503
  4.387   8.3739
  4.384   8.4563
  4.380   8.5593
  4.376   8.6623
  4.372   8.7859
  4.369   8.8889
  4.365   8.9919
  4.361   9.0331
  4.358   9.1361
  4.354   9.3318
  4.350   9.4348
  4.347   9.5275
  4.343   9.6614
  4.340   9.7232
  4.336   9.7747
  4.332   9.8468
  4.329   9.8983
  4.325   9.9704
  4.321  10.0837
  4.318  10.1764
  4.314  10.2691
  4.311  10.3103
  4.307  10.3309
  4.304  10.3515
  4.300  10.3824
  4.296  10.4236
  4.293  10.5472
  4.289  10.7017
  4.286  10.7738
  4.282  10.7738
  4.279  10.8150
  4.275  10.8562
  4.272  10.8665
  4.268  10.8253
  4.265  10.9283
  4.261  11.1034
  4.258  11.2373
  4.254  11.3197
  4.251  11.3300
  4.247  11.4021
  4.244  11.5154
  4.240  11.5566
  4.237  11.5978
  4.233  11.6390
  4.230  11.7214
  4.226  11.8038
  4.223  11.8141
  4.219  11.8038
  4.216  11.7626
  4.213  11.8038
  4.209  11.9274
  4.206  11.9583
  4.202  12.0407
  4.199  12.1025
  4.196  12.1334
  4.192  12.1437
  4.189  12.1746
  4.185  12.1849
  4.182  12.2261
  4.179  12.2673
  4.175  12.2879
  4.172  12.3394
  4.169  12.3600
  4.165  12.4115
  4.162  12.4939
  4.159  12.5763
  4.155  12.6484
  4.152  12.6072
  4.149  12.6587
  4.145  12.7411
  4.142  12.7823
  4.139  12.8956
  4.135  12.9677
  4.132  12.9471
  4.129  12.8956
  4.126  12.9059
  4.122  13.0192
  4.119  13.1016
  4.116  13.0810
  4.112  13.1325
  4.109  13.2252
  4.106  13.2870
  4.103  13.2973
  4.099  13.2046
  4.096  13.2355
  4.093  13.3385
  4.090  13.3900
  4.086  13.4518
  4.083  13.5033
  4.080  13.4827
  4.077  13.4930
  4.074  13.5033
  4.070  13.5857
  4.067  13.6578
  4.064  13.7299
  4.061  13.7402
  4.058  13.7093
  4.055  13.7093
  4.051  13.7196
  4.048  13.7093
  4.045  13.6990
  4.042  13.7196
  4.039  13.7711
  4.036  13.8020
  4.032  13.8020
  4.029  13.7608
  4.026  13.7711
  4.023  13.7917
  4.020  13.8329
  4.017  13.8535
  4.014  13.8844
  4.011  13.8329
  4.008  13.8226
  4.004  13.8638
  4.001  13.9565
  3.998  13.9771
  3.995  13.8844
  3.992  13.8123
  3.989  13.9050
  3.986  14.0183
  3.983  14.1007
  3.980  14.1213
  3.977  14.1316
  3.974  14.0904
  3.971  14.0698
  3.968  14.0698
  3.965  14.1522
  3.962  14.2552
  3.959  14.3067
  3.956  14.2861
  3.953  14.2964
  3.950  14.4200
  3.947  14.5024
  3.944  14.5436
  3.941  14.5436
  3.938  14.5230
  3.935  14.5024
  3.932  14.5436
  3.929  14.6054
  3.926  14.6569
  3.923  14.6466
  3.920  14.6157
  3.917  14.6054
  3.914  14.6672
  3.911  14.7084
  3.908  14.7084
  3.905  14.7393
  3.902  14.7393
  3.899  14.7187
  3.896  14.6878
  3.893  14.7187
  3.890  14.7496
  3.887  14.8114
  3.884  14.7599
  3.882  14.7393
  3.879  14.6775
  3.876  14.6672
  3.873  14.6466
  3.870  14.6363
  3.867  14.7084
  3.864  14.7496
  3.861  14.6672
  3.858  14.6466
  3.856  14.6775
  3.853  14.7393
  3.850  14.7908
  3.847  14.8526
  3.844  14.8526
  3.841  14.8423
  3.838  14.7702
  3.836  14.7084
  3.833  14.7702
  3.830  14.8526
  3.827  14.8423
  3.824  14.8320
  3.822  14.9144
  3.819  14.9144
  3.816  14.9041
  3.813  14.9144
  3.810  14.8011
  3.807  14.7496
  3.805  14.6981
  3.802  14.6981
  3.799  14.7702
  3.796  14.8114
  3.794  14.7599
  3.791  14.6878
  3.788  14.6569
  3.785  14.6775
  3.782  14.6981
  3.780  14.6672
  3.777  14.5333
  3.774  14.5230
  3.771  14.4406
  3.769  14.4200
  3.766  14.3685
  3.763  14.2758
  3.761  14.1213
  3.758  14.0698
  3.755  14.0698
  3.752  14.0286
  3.750  14.0080
  3.747  13.9668
  3.744  13.9050
  3.742  13.8947
  3.739  13.8226
  3.736  13.7196
  3.733  13.6578
  3.731  13.6990
  3.728  13.7299
  3.725  13.7402
  3.723  13.6372
  3.720  13.6372
  3.717  13.6681
  3.715  13.6990
  3.712  13.7196
  3.709  13.5651
  3.707  13.4724
  3.704  13.5548
  3.702  13.5754
  3.699  13.5342
  3.696  13.5033
  3.694  13.4518
  3.691  13.3591
  3.688  13.3385
  3.686  13.4415
  3.683  13.5239
  3.680  13.4106
  3.678  13.4003
  3.675  13.4415
  3.673  13.4518
  3.670  13.3591
  3.667  13.3179
  3.665  13.3591
  3.662  13.4106
  3.660  13.3488
  3.657  13.4106
  3.655  13.4209
  3.652  13.3900
  3.649  13.3385
  3.647  13.2973
  3.644  13.2870
  3.642  13.2973
  3.639  13.2355
  3.637  13.2252
  3.634  13.2149
  3.632  13.1428
  3.629  13.0089
  3.626  12.9780
  3.624  12.9265
  3.621  12.8338
  3.619  12.7823
  3.616  12.8029
  3.614  12.7514
  3.611  12.7308
  3.609  12.7411
  3.606  12.6381
  3.604  12.4836
  3.601  12.4733
  3.599  12.5660
  3.596  12.5969
  3.594  12.5660
  3.591  12.4527
  3.589  12.2055
  3.586  12.0201
  3.584  11.9686
