Name: Rhyolite
Type: Rock
Class: Igneous
Subclass: Felsic
Particle Size: Whole Rock Chips
Sample No.: AP-938-93
Owner: United States Geological Survey, L. C. Rowan
Wavelength range: 0.405 - 14.05 um
Origin: Iberian Pyrite Belt, Spain

Description: Rhyolite, white, chalky, altered





Measurement: Directional Hemispherical Reflectance
First Column: X
Second Column: Y
X Units: Wavelength (micrometers)
Y Units: Reflectance (percent)
First X Value: 14.05105
Last X Value: 0.40500
Number of X Values: 2530
Additional Information: rhy93a.txt

 14.051   3.0797
 14.013   2.9252
 13.975   2.9252
 13.938   2.7295
 13.900   2.8222
 13.863   2.8325
 13.826   2.8119
 13.790   2.5235
 13.753   2.5853
 13.717   2.6471
 13.680   2.7089
 13.644   2.4926
 13.609   2.5029
 13.573   2.5750
 13.538   2.7089
 13.502   2.5441
 13.467   2.5544
 13.432   2.5544
 13.398   2.6883
 13.363   2.5750
 13.329   2.5544
 13.295   2.5235
 13.261   2.6162
 13.227   2.6265
 13.193   2.6883
 13.160   2.6780
 13.126   2.8119
 13.093   2.8840
 13.060   2.9458
 13.027   2.8840
 12.995   2.9561
 12.962   2.8943
 12.930   2.9046
 12.898   3.0179
 12.866   3.1930
 12.834   3.1827
 12.802   3.2651
 12.771   3.1930
 12.739   3.0900
 12.708   2.8428
 12.677   2.8016
 12.646   2.7604
 12.616   2.7913
 12.585   2.7089
 12.554   2.7398
 12.524   2.7089
 12.494   2.8840
 12.464   3.0900
 12.434   3.1518
 12.404   3.0076
 12.375   3.0488
 12.345   2.9355
 12.316   2.8634
 12.287   2.7398
 12.258   2.7398
 12.229   2.7810
 12.200   2.9458
 12.171   3.0385
 12.143   3.2754
 12.115   3.3166
 12.086   3.3990
 12.058   3.4299
 12.030   3.5432
 12.002   3.5741
 11.975   3.6874
 11.947   3.7698
 11.920   3.8831
 11.892   3.9140
 11.865   4.0479
 11.838   4.0582
 11.811   4.1921
 11.784   4.2848
 11.757   4.4187
 11.731   4.4496
 11.704   4.4908
 11.678   4.4393
 11.652   4.6247
 11.626   4.6453
 11.600   4.6453
 11.574   4.6247
 11.548   4.7586
 11.522   4.7380
 11.497   4.7483
 11.471   4.7483
 11.446   4.7483
 11.421   4.7071
 11.396   4.8204
 11.371   4.8101
 11.346   4.8822
 11.321   4.9131
 11.297   4.9852
 11.272   4.9852
 11.248   5.0676
 11.223   4.9955
 11.199   4.9749
 11.175   5.0058
 11.151   5.1397
 11.127   5.1294
 11.103   5.1397
 11.079   5.1191
 11.056   5.1809
 11.032   5.1603
 11.009   5.2118
 10.985   5.2118
 10.962   5.2427
 10.939   5.1603
 10.916   5.1191
 10.893   5.0058
 10.870   4.8822
 10.848   4.7689
 10.825   4.8204
 10.802   4.7586
 10.780   4.6453
 10.758   4.5011
 10.735   4.5114
 10.713   4.4805
 10.691   4.4496
 10.669   4.3569
 10.647   4.4084
 10.625   4.3775
 10.604   4.4084
 10.582   4.3363
 10.560   4.3981
 10.539   4.3878
 10.518   4.3672
 10.496   4.3466
 10.475   4.3775
 10.454   4.3363
 10.433   4.4187
 10.412   4.4290
 10.391   4.4599
 10.370   4.4908
 10.350   4.6453
 10.329   4.6968
 10.309   4.8101
 10.288   4.9028
 10.268   5.0676
 10.247   5.0985
 10.227   5.2736
 10.207   5.4178
 10.187   5.6341
 10.167   5.7680
 10.147   5.9946
 10.127   6.2315
 10.108   6.4581
 10.088   6.5817
 10.068   6.7877
 10.049   6.9834
 10.029   7.2100
 10.010   7.3645
  9.991   7.5808
  9.972   7.7662
  9.952   8.0134
  9.933   8.2194
  9.914   8.3018
  9.895   8.2606
  9.877   8.2606
  9.858   8.1164
  9.839   8.0031
  9.821   7.7765
  9.802   7.6220
  9.783   7.5705
  9.765   7.7044
  9.747   8.0031
  9.728   8.4563
  9.710   8.8580
  9.692   9.4142
  9.674   9.7953
  9.656  10.2279
  9.638  10.5163
  9.620  10.7017
  9.602  10.7944
  9.585  10.8974
  9.567  10.8871
  9.549  10.9180
  9.532  10.8768
  9.514  10.8253
  9.497  10.7738
  9.479  10.7841
  9.462  10.7326
  9.445  10.7944
  9.428  10.9798
  9.411  11.3300
  9.394  11.4845
  9.377  11.6596
  9.360  11.8141
  9.343  11.9480
  9.326  11.9377
  9.309  11.9274
  9.293  11.8450
  9.276  11.7420
  9.259  11.6184
  9.243  11.5257
  9.226  11.2991
  9.210  11.1137
  9.194  10.8768
  9.178  10.7017
  9.161  10.4957
  9.145  10.3515
  9.129  10.0425
  9.113   9.7438
  9.097   9.3936
  9.081   9.1773
  9.065   8.9095
  9.049   8.6623
  9.034   8.2709
  9.018   8.0340
  9.002   7.8898
  8.987   7.8177
  8.971   7.9207
  8.956   8.1782
  8.940   8.4357
  8.925   8.7653
  8.909   8.9713
  8.894   9.2288
  8.879   9.3421
  8.864   9.5172
  8.849   9.5687
  8.834   9.6099
  8.819   9.5996
  8.804   9.6614
  8.789   9.7129
  8.774   9.7438
  8.759   9.6305
  8.744   9.6305
  8.730   9.6820
  8.715   9.7026
  8.700   9.5275
  8.686   9.4039
  8.671   9.3215
  8.657   9.1876
  8.642   8.8683
  8.628   8.5490
  8.614   8.3842
  8.599   8.7138
  8.585   9.0846
  8.571   9.3524
  8.557   9.6408
  8.543   9.8777
  8.529   9.9807
  8.515  10.1558
  8.501  10.2382
  8.487  10.3412
  8.473  10.4442
  8.459  10.5781
  8.445  10.7120
  8.431  10.9283
  8.418  11.0416
  8.404  11.1858
  8.391  11.3094
  8.377  11.3403
  8.363  11.3094
  8.350  11.3918
  8.337  11.4227
  8.323  11.4742
  8.310  11.4433
  8.297  11.4433
  8.283  11.4433
  8.270  11.4124
  8.257  11.3506
  8.244  11.4536
  8.231  11.4021
  8.218  11.2579
  8.205  11.2270
  8.192  11.1549
  8.179  10.9283
  8.166  10.7223
  8.153  10.4236
  8.140  10.0425
  8.128   9.5378
  8.115   9.0434
  8.102   8.4666
  8.090   7.9104
  8.077   7.3851
  8.064   6.9731
  8.052   6.4787
  8.039   6.0873
  8.027   5.7062
  8.015   5.3045
  8.002   4.9440
  7.990   4.6968
  7.978   4.4290
  7.965   4.1612
  7.953   3.8419
  7.941   3.5947
  7.929   3.3166
  7.917   3.1415
  7.905   2.9355
  7.893   2.8119
  7.881   2.5956
  7.869   2.3999
  7.857   2.2660
  7.845   2.1630
  7.833   1.9982
  7.821   1.9467
  7.809   1.8540
  7.798   1.7819
  7.786   1.7613
  7.774   1.8128
  7.763   1.7510
  7.751   1.7304
  7.739   1.6480
  7.728   1.5862
  7.716   1.5347
  7.705   1.5141
  7.694   1.5038
  7.682   1.5244
  7.671   1.3905
  7.659   1.2875
  7.648   1.3081
  7.637   1.3699
  7.626   1.3287
  7.614   1.2978
  7.603   1.2154
  7.592   1.2360
  7.581   1.2051
  7.570   1.1948
  7.559   1.1536
  7.548   1.2154
  7.537   1.2257
  7.526   1.1845
  7.515   1.1330
  7.504   1.1330
  7.493   1.1124
  7.483   1.1330
  7.472   1.1021
  7.461   1.0815
  7.450   1.1536
  7.440   1.1948
  7.429   1.1227
  7.418   1.1433
  7.408   1.1227
  7.397   1.1021
  7.387   1.1330
  7.376   1.2463
  7.366   1.2360
  7.355   1.1845
  7.345   1.1330
  7.334   1.1536
  7.324   1.2051
  7.314   1.2360
  7.303   1.1948
  7.293   1.2360
  7.283   1.2051
  7.273   1.1536
  7.263   1.1948
  7.252   1.2772
  7.242   1.3390
  7.232   1.3699
  7.222   1.3287
  7.212   1.3596
  7.202   1.3905
  7.192   1.4420
  7.182   1.4317
  7.172   1.4626
  7.162   1.4317
  7.152   1.4626
  7.143   1.4729
  7.133   1.5244
  7.123   1.5553
  7.113   1.5450
  7.103   1.5656
  7.094   1.6686
  7.084   1.5759
  7.074   1.5656
  7.065   1.6171
  7.055   1.6583
  7.046   1.6583
  7.036   1.6995
  7.026   1.6995
  7.017   1.7201
  7.007   1.7716
  6.998   1.7922
  6.989   1.7922
  6.979   1.7819
  6.970   1.7201
  6.960   1.7613
  6.951   1.8128
  6.942   1.8746
  6.932   1.8849
  6.923   1.8746
  6.914   1.8643
  6.905   1.9158
  6.896   1.9364
  6.886   1.9673
  6.877   1.9776
  6.868   2.0188
  6.859   1.9673
  6.850   1.9261
  6.841   1.9673
  6.832   2.0291
  6.823   1.9982
  6.814   2.0188
  6.805   2.0600
  6.796   2.0497
  6.787   1.9879
  6.778   1.9879
  6.770   1.9879
  6.761   2.0806
  6.752   2.1115
  6.743   2.0909
  6.734   2.0600
  6.726   2.0703
  6.717   2.0497
  6.708   2.1321
  6.700   2.1321
  6.691   2.1939
  6.682   2.2351
  6.674   2.2351
  6.665   2.2042
  6.657   2.2042
  6.648   2.2145
  6.640   2.2042
  6.631   2.2351
  6.623   2.3072
  6.614   2.2969
  6.606   2.3381
  6.597   2.3587
  6.589   2.3175
  6.581   2.2454
  6.572   2.2660
  6.564   2.3381
  6.556   2.3793
  6.547   2.3896
  6.539   2.3690
  6.531   2.3587
  6.523   2.4411
  6.514   2.5132
  6.506   2.5544
  6.498   2.6059
  6.490   2.6986
  6.482   2.7192
  6.474   2.7604
  6.466   2.7604
  6.458   2.7604
  6.450   2.7604
  6.442   2.8222
  6.434   2.8634
  6.426   2.9046
  6.418   2.8943
  6.410   2.8737
  6.402   2.9252
  6.394   3.0076
  6.386   2.9767
  6.378   2.8737
  6.370   2.7707
  6.363   2.7398
  6.355   2.7604
  6.347   2.8016
  6.339   2.8119
  6.332   2.8428
  6.324   2.8016
  6.316   2.7810
  6.308   2.7604
  6.301   2.6986
  6.293   2.6162
  6.286   2.6677
  6.278   2.6986
  6.270   2.6471
  6.263   2.5544
  6.255   2.5235
  6.248   2.4926
  6.240   2.5338
  6.233   2.4720
  6.225   2.4102
  6.218   2.4308
  6.210   2.4308
  6.203   2.4617
  6.195   2.4926
  6.188   2.4617
  6.181   2.3793
  6.173   2.3072
  6.166   2.3690
  6.159   2.4411
  6.151   2.4720
  6.144   2.4720
  6.137   2.5029
  6.130   2.5544
  6.122   2.6265
  6.115   2.6265
  6.108   2.6677
  6.101   2.6162
  6.094   2.6368
  6.086   2.6883
  6.079   2.6986
  6.072   2.6780
  6.065   2.6677
  6.058   2.6780
  6.051   2.7089
  6.044   2.6780
  6.037   2.7398
  6.030   2.8325
  6.023   2.8840
  6.016   2.8737
  6.009   2.8840
  6.002   2.8737
  5.995   2.8634
  5.988   2.8737
  5.981   2.9046
  5.974   2.8840
  5.967   2.9149
  5.960   2.9767
  5.954   3.0076
  5.947   2.9664
  5.940   2.9561
  5.933   2.9458
  5.926   3.0076
  5.920   3.0488
  5.913   3.0591
  5.906   3.0488
  5.899   3.0797
  5.893   3.0797
  5.886   3.1415
  5.879   3.2136
  5.873   3.2857
  5.866   3.3269
  5.859   3.3475
  5.853   3.4402
  5.846   3.5741
  5.840   3.6050
  5.833   3.6771
  5.827   3.6874
  5.820   3.6771
  5.813   3.6771
  5.807   3.7389
  5.800   3.8213
  5.794   3.8419
  5.788   3.8213
  5.781   3.8522
  5.775   3.8728
  5.768   3.8831
  5.762   3.8625
  5.755   3.9037
  5.749   3.9346
  5.743   3.9861
  5.736   4.0479
  5.730   4.0891
  5.724   4.0994
  5.717   4.0685
  5.711   4.0582
  5.705   4.0891
  5.698   4.1097
  5.692   4.1200
  5.686   4.1097
  5.680   4.1200
  5.674   4.0994
  5.667   4.0891
  5.661   4.0376
  5.655   4.0273
  5.649   4.0067
  5.643   3.9861
  5.637   3.9655
  5.630   3.9449
  5.624   3.9037
  5.618   3.8625
  5.612   3.8625
  5.606   3.8522
  5.600   3.8007
  5.594   3.8110
  5.588   3.8007
  5.582   3.8007
  5.576   3.7698
  5.570   3.8110
  5.564   3.8316
  5.558   3.8316
  5.552   3.8419
  5.546   3.8831
  5.540   3.9346
  5.534   4.0479
  5.528   4.1097
  5.523   4.1097
  5.517   4.1097
  5.511   4.1818
  5.505   4.2745
  5.499   4.3569
  5.493   4.4084
  5.487   4.4393
  5.482   4.4702
  5.476   4.5423
  5.470   4.6041
  5.464   4.6144
  5.459   4.6247
  5.453   4.6659
  5.447   4.6968
  5.441   4.7586
  5.436   4.7792
  5.430   4.7586
  5.424   4.7586
  5.419   4.7586
  5.413   4.7174
  5.407   4.6350
  5.402   4.5835
  5.396   4.5732
  5.390   4.5114
  5.385   4.4702
  5.379   4.4290
  5.374   4.3466
  5.368   4.2436
  5.363   4.2230
  5.357   4.2127
  5.352   4.2024
  5.346   4.1921
  5.341   4.2333
  5.335   4.2745
  5.330   4.3054
  5.324   4.3466
  5.319   4.3466
  5.313   4.3157
  5.308   4.3466
  5.302   4.4187
  5.297   4.4084
  5.291   4.4084
  5.286   4.4805
  5.281   4.5526
  5.275   4.6350
  5.270   4.6350
  5.265   4.6350
  5.259   4.6865
  5.254   4.7792
  5.249   4.8719
  5.243   4.9646
  5.238   5.0470
  5.233   5.1397
  5.227   5.2324
  5.222   5.3251
  5.217   5.4384
  5.212   5.5414
  5.206   5.6032
  5.201   5.6856
  5.196   5.7268
  5.191   5.7474
  5.186   5.8195
  5.180   5.8504
  5.175   5.8401
  5.170   5.8504
  5.165   5.8813
  5.160   5.8916
  5.155   5.9122
  5.150   5.9328
  5.145   5.9225
  5.139   5.9019
  5.134   5.9225
  5.129   5.9431
  5.124   5.9843
  5.119   6.0564
  5.114   6.0873
  5.109   6.0770
  5.104   6.0976
  5.099   6.1491
  5.094   6.1903
  5.089   6.2109
  5.084   6.2006
  5.079   6.1697
  5.074   6.1594
  5.069   6.1388
  5.064   6.1388
  5.059   6.1491
  5.054   6.1800
  5.049   6.1800
  5.044   6.1903
  5.040   6.1903
  5.035   6.2315
  5.030   6.2727
  5.025   6.2418
  5.020   6.2418
  5.015   6.2624
  5.010   6.3036
  5.005   6.2933
  5.001   6.2933
  4.996   6.4066
  4.991   6.4375
  4.986   6.4169
  4.981   6.5199
  4.977   6.7156
  4.972   6.8289
  4.967   6.9731
  4.962   7.1791
  4.958   7.3748
  4.953   7.5190
  4.948   7.6220
  4.943   7.7147
  4.939   7.8486
  4.934   7.9310
  4.929   7.9619
  4.925   8.0237
  4.920   8.0752
  4.915   8.1679
  4.911   8.3533
  4.906   8.5799
  4.901   8.8065
  4.897   9.0537
  4.892   9.3936
  4.888   9.6820
  4.883   9.9292
  4.878  10.2073
  4.874  10.4751
  4.869  10.6502
  4.865  10.8150
  4.860  11.0004
  4.856  11.2476
  4.851  11.4124
  4.846  11.5360
  4.842  11.7420
  4.837  11.9068
  4.833  11.9995
  4.828  12.1025
  4.824  12.2364
  4.819  12.3600
  4.815  12.4321
  4.810  12.5351
  4.806  12.5557
  4.802  12.5145
  4.797  12.5042
  4.793  12.5145
  4.788  12.5042
  4.784  12.4733
  4.779  12.4939
  4.775  12.6278
  4.771  12.7308
  4.766  12.6999
  4.762  12.8029
  4.758  12.9883
  4.753  13.1325
  4.749  13.2252
  4.744  13.2973
  4.740  13.3900
  4.736  13.4518
  4.731  13.5033
  4.727  13.5857
  4.723  13.6578
  4.719  13.7505
  4.714  13.8226
  4.710  13.9153
  4.706  13.9668
  4.701  13.9771
  4.697  13.9874
  4.693  13.9256
  4.689  13.8535
  4.684  13.8020
  4.680  13.7814
  4.676  13.8432
  4.672  13.9977
  4.668  14.1522
  4.663  14.2861
  4.659  14.4097
  4.655  14.5745
  4.651  14.6878
  4.647  14.7702
  4.643  14.9350
  4.638  15.1204
  4.634  15.2749
  4.630  15.4603
  4.626  15.6560
  4.622  15.8311
  4.618  16.0062
  4.614  16.2122
  4.610  16.3976
  4.605  16.5006
  4.601  16.6242
  4.597  16.7581
  4.593  16.8199
  4.589  16.9126
  4.585  16.9332
  4.581  17.0259
  4.577  17.1701
  4.573  17.2937
  4.569  17.3555
  4.565  17.3967
  4.561  17.4276
  4.557  17.4482
  4.553  17.4276
  4.549  17.4173
  4.545  17.4482
  4.541  17.4585
  4.537  17.3761
  4.533  17.3246
  4.529  17.2422
  4.525  17.0877
  4.521  17.0156
  4.517  16.9229
  4.513  16.8199
  4.509  16.6757
  4.505  16.4079
  4.502  16.2740
  4.498  16.2328
  4.494  16.1813
  4.490  16.1401
  4.486  16.1195
  4.482  16.1298
  4.478  16.1195
  4.474  16.1092
  4.470  16.1298
  4.467  16.1195
  4.463  16.1607
  4.459  16.2843
  4.455  16.4182
  4.451  16.5521
  4.447  16.7272
  4.444  16.8817
  4.440  16.9950
  4.436  17.0568
  4.432  17.0774
  4.428  17.1289
  4.425  17.2628
  4.421  17.4173
  4.417  17.5718
  4.413  17.6439
  4.410  17.7572
  4.406  17.9220
  4.402  18.0559
  4.398  18.2104
  4.395  18.3546
  4.391  18.4782
  4.387  18.7151
  4.384  18.9211
  4.380  19.0859
  4.376  19.1889
  4.372  19.3228
  4.369  19.5391
  4.365  19.8069
  4.361  19.9614
  4.358  20.0644
  4.354  20.1674
  4.350  20.3219
  4.347  20.4558
  4.343  20.6000
  4.340  20.6515
  4.336  20.7545
  4.332  20.7957
  4.329  20.8369
  4.325  20.8678
  4.321  20.8678
  4.318  20.9193
  4.314  21.0223
  4.311  21.0532
  4.307  21.0223
  4.304  21.0223
  4.300  20.9811
  4.296  20.8575
  4.293  20.8884
  4.289  20.9811
  4.286  20.9914
  4.282  21.0017
  4.279  21.0532
  4.275  21.1459
  4.272  21.2798
  4.268  21.3004
  4.265  21.3210
  4.261  21.4755
  4.258  21.7845
  4.254  21.9390
  4.251  21.7845
  4.247  21.6094
  4.244  21.6300
  4.240  21.6506
  4.237  21.5785
  4.233  21.4755
  4.230  21.5167
  4.226  21.6197
  4.223  21.7433
  4.219  21.7948
  4.216  21.8669
  4.213  21.9390
  4.209  21.9905
  4.206  22.0832
  4.202  22.1862
  4.199  22.2583
  4.196  22.2789
  4.192  22.3201
  4.189  22.4231
  4.185  22.4437
  4.182  22.4540
  4.179  22.5055
  4.175  22.5158
  4.172  22.5467
  4.169  22.6394
  4.165  22.7424
  4.162  22.8145
  4.159  22.8248
  4.155  22.8351
  4.152  22.8557
  4.149  22.9072
  4.145  22.9278
  4.142  22.9381
  4.139  23.0102
  4.135  23.1029
  4.132  23.0926
  4.129  23.1544
  4.126  23.2883
  4.122  23.3295
  4.119  23.3295
  4.116  23.4016
  4.112  23.4531
  4.109  23.4222
  4.106  23.3913
  4.103  23.4840
  4.099  23.5046
  4.096  23.5252
  4.093  23.5458
  4.090  23.5973
  4.086  23.6900
  4.083  23.7724
  4.080  23.7930
  4.077  23.9063
  4.074  23.9784
  4.070  23.9990
  4.067  24.0608
  4.064  24.0608
  4.061  24.0505
  4.058  24.1329
  4.055  24.1123
  4.051  24.0505
  4.048  23.9578
  4.045  23.9269
  4.042  23.9578
  4.039  23.9784
  4.036  23.9681
  4.032  24.0402
  4.029  23.9784
  4.026  24.0093
  4.023  24.1226
  4.020  24.0814
  4.017  24.0505
  4.014  24.0608
  4.011  24.0402
  4.008  24.0505
  4.004  24.0299
  4.001  24.1432
  3.998  24.2359
  3.995  24.2874
  3.992  24.2256
  3.989  24.1844
  3.986  24.2359
  3.983  24.2462
  3.980  24.1226
  3.977  24.2256
  3.974  24.3904
  3.971  24.4831
  3.968  24.5037
  3.965  24.5037
  3.962  24.5140
  3.959  24.6273
  3.956  24.6788
  3.953  24.7097
  3.950  24.7509
  3.947  24.7612
  3.944  24.7818
  3.941  24.8333
  3.938  24.8848
  3.935  24.9672
  3.932  24.9363
  3.929  24.9775
  3.926  25.0187
  3.923  25.0496
  3.920  25.0702
  3.917  25.0084
  3.914  24.9569
  3.911  25.0496
  3.908  25.0908
  3.905  25.1217
  3.902  25.0908
  3.899  25.1320
  3.896  25.1217
  3.893  25.1114
  3.890  25.1835
  3.887  25.2144
  3.884  25.1423
  3.882  25.1423
  3.879  25.0290
  3.876  24.8745
  3.873  24.9569
  3.870  25.0393
  3.867  24.9672
  3.864  24.9569
  3.861  24.9363
  3.858  24.9054
  3.856  24.9157
  3.853  24.9981
  3.850  25.0702
  3.847  25.0908
  3.844  24.9775
  3.841  24.9569
  3.838  24.9775
  3.836  25.0290
  3.833  25.0702
  3.830  25.1526
  3.827  25.1320
  3.824  25.0702
  3.822  25.0908
  3.819  25.1423
  3.816  25.1320
  3.813  25.1526
  3.810  25.0702
  3.807  25.0702
  3.805  25.0908
  3.802  25.0908
  3.799  25.0599
  3.796  25.0496
  3.794  24.9981
  3.791  24.9981
  3.788  25.0290
  3.785  25.0290
  3.782  24.9363
  3.780  24.8848
  3.777  24.9363
  3.774  24.9363
  3.771  24.8436
  3.769  24.8127
  3.766  24.8024
  3.763  24.7818
  3.761  24.6479
  3.758  24.6788
  3.755  24.6582
  3.752  24.5449
  3.750  24.4625
  3.747  24.4213
  3.744  24.4522
  3.742  24.5140
  3.739  24.4625
  3.736  24.3698
  3.733  24.3286
  3.731  24.3080
  3.728  24.2153
  3.725  24.1741
  3.723  24.2668
  3.720  24.3080
  3.717  24.2359
  3.715  24.3183
  3.712  24.2565
  3.709  24.2256
  3.707  24.2359
  3.704  24.2462
  3.702  24.2153
  3.699  24.1123
  3.696  24.0814
  3.694  24.1226
  3.691  24.0402
  3.688  24.0402
  3.686  24.1123
  3.683  24.2668
  3.680  24.3080
  3.678  24.3389
  3.675  24.2668
  3.673  24.2256
  3.670  24.2668
  3.667  24.3492
  3.665  24.3080
  3.662  24.2153
  3.660  24.1329
  3.657  24.2050
  3.655  24.1947
  3.652  24.0917
  3.649  23.8960
  3.647  23.7827
  3.644  23.8548
  3.642  24.0505
  3.639  24.0608
  3.637  24.0196
  3.634  23.8960
  3.632  23.8033
  3.629  23.7106
  3.626  23.6694
  3.624  23.6179
  3.621  23.6076
  3.619  23.6591
  3.616  23.6797
  3.614  23.5664
  3.611  23.4634
  3.609  23.3913
  3.606  23.4531
  3.604  23.4119
  3.601  23.2883
  3.599  23.1750
  3.596  23.1647
  3.594  23.2059
  3.591  23.1647
  3.589  22.9896
  3.586  22.9690
  3.584  23.0102
