Name: Basanite
Type: Rock
Class: Igneous
Subclass: Mafic
Particle Size: Whole rock chips
Sample No.: Mewy327b
Owner: Lawrence Rowan, USGS Reston
Wavelength range: 0.40 - 14.05 um
Origin: Yizreel Valley, Middle East

Description: Basanite, cut surface





Measurement: Directional Hemispherical Reflectance
First Column: X
Second Column: Y
X Units: Wavelength (micrometers)
Y Units: Reflectance (percent)
First X Value: 14.05105
Last X Value: 0.40000
Number of X Values: 2231
Additional Information: mewy327ba.txt

 14.051   4.0273
 14.013   3.9140
 13.975   3.7492
 13.938   3.6874
 13.900   3.8007
 13.863   3.7492
 13.826   3.9037
 13.790   3.7698
 13.753   3.6256
 13.717   3.5844
 13.680   3.7698
 13.644   3.7801
 13.609   3.7492
 13.573   3.6977
 13.538   3.7389
 13.502   3.6462
 13.467   3.7595
 13.432   3.8728
 13.398   3.9346
 13.363   3.8934
 13.329   3.9861
 13.295   3.9037
 13.261   3.8831
 13.227   3.8110
 13.193   3.7492
 13.160   3.7183
 13.126   3.8728
 13.093   3.8213
 13.060   3.7389
 13.027   3.8007
 12.995   4.0067
 12.962   3.9861
 12.930   3.9552
 12.898   3.9140
 12.866   3.8522
 12.834   3.7904
 12.802   3.9449
 12.771   3.9449
 12.739   3.9758
 12.708   4.0479
 12.677   4.1509
 12.646   4.1612
 12.616   4.2127
 12.585   4.1921
 12.554   4.2848
 12.524   4.2539
 12.494   4.3672
 12.464   4.3672
 12.434   4.4805
 12.404   4.5320
 12.375   4.5732
 12.345   4.6247
 12.316   4.7174
 12.287   4.7174
 12.258   4.8719
 12.229   4.9028
 12.200   5.0470
 12.171   5.0985
 12.143   5.2015
 12.115   5.3663
 12.086   5.5620
 12.058   5.5517
 12.030   5.6341
 12.002   5.7680
 11.975   5.8813
 11.947   5.8813
 11.920   5.9946
 11.892   6.0152
 11.865   6.1903
 11.838   6.3036
 11.811   6.4375
 11.784   6.4375
 11.757   6.6023
 11.731   6.8186
 11.704   7.0040
 11.678   7.0967
 11.652   7.1997
 11.626   7.2615
 11.600   7.5808
 11.574   7.7250
 11.548   7.8486
 11.522   7.9722
 11.497   8.1782
 11.471   8.3121
 11.446   8.5078
 11.421   8.6314
 11.396   8.7653
 11.371   8.7550
 11.346   8.9198
 11.321   9.0743
 11.297   9.2700
 11.272   9.3627
 11.248   9.5378
 11.223   9.5790
 11.199   9.6820
 11.175   9.7438
 11.151   9.8365
 11.127   9.8468
 11.103   9.9704
 11.079  10.0528
 11.056  10.1764
 11.032  10.2897
 11.009  10.4854
 10.985  10.6090
 10.962  10.7017
 10.939  10.6708
 10.916  10.7532
 10.893  10.7944
 10.870  10.8562
 10.848  10.8150
 10.825  10.9077
 10.802  10.9592
 10.780  10.9386
 10.758  10.9077
 10.735  10.9798
 10.713  10.9695
 10.691  11.0416
 10.669  11.1240
 10.647  11.2476
 10.625  11.1961
 10.604  11.1652
 10.582  11.1961
 10.560  11.2167
 10.539  11.1240
 10.518  11.0828
 10.496  11.0210
 10.475  11.0931
 10.454  11.1240
 10.433  11.2064
 10.412  11.3403
 10.391  11.5463
 10.370  11.6493
 10.350  11.7523
 10.329  11.7420
 10.309  11.8347
 10.288  11.9068
 10.268  12.0201
 10.247  12.0819
 10.227  12.1128
 10.207  12.0304
 10.187  12.0304
 10.167  11.9789
 10.147  11.9377
 10.127  11.9892
 10.108  12.0304
 10.088  12.0407
 10.068  12.1746
 10.049  12.1540
 10.029  12.1437
 10.010  12.1849
  9.991  12.3703
  9.972  12.4939
  9.952  12.6175
  9.933  12.6072
  9.914  12.6278
  9.895  12.7617
  9.877  12.8544
  9.858  12.8132
  9.839  12.9574
  9.821  13.0604
  9.802  13.1222
  9.783  13.0810
  9.765  13.0913
  9.747  13.1840
  9.728  13.1840
  9.710  13.0707
  9.692  13.1325
  9.674  13.2149
  9.656  13.2767
  9.638  13.2664
  9.620  13.3282
  9.602  13.2767
  9.585  13.3076
  9.567  13.1943
  9.549  13.0707
  9.532  13.0192
  9.514  13.0295
  9.497  12.9677
  9.479  12.9677
  9.462  12.8544
  9.445  12.7720
  9.428  12.6072
  9.411  12.4115
  9.394  12.2261
  9.377  12.0922
  9.360  11.8759
  9.343  11.7420
  9.326  11.5257
  9.309  11.4227
  9.293  11.2785
  9.276  11.1034
  9.259  10.9592
  9.243  10.8562
  9.226  10.6914
  9.210  10.6193
  9.194  10.4442
  9.178  10.4339
  9.161  10.4545
  9.145  10.5472
  9.129  10.5266
  9.113  10.5575
  9.097  10.6605
  9.081  10.7635
  9.065  10.5987
  9.049  10.4236
  9.034  10.3515
  9.018  10.3309
  9.002  10.1249
  8.987  10.0013
  8.971   9.8777
  8.956   9.7129
  8.940   9.4760
  8.925   9.2494
  8.909   9.0331
  8.894   8.8786
  8.879   8.6520
  8.864   8.4769
  8.849   8.2709
  8.834   8.1164
  8.819   7.9722
  8.804   7.8589
  8.789   7.6735
  8.774   7.5705
  8.759   7.5087
  8.744   7.4881
  8.730   7.3336
  8.715   7.1997
  8.700   7.0143
  8.686   6.9731
  8.671   6.9113
  8.657   6.8495
  8.642   6.7362
  8.628   6.6538
  8.614   6.5199
  8.599   6.4272
  8.585   6.2830
  8.571   6.2006
  8.557   6.1594
  8.543   6.1800
  8.529   6.1388
  8.515   6.0873
  8.501   5.9328
  8.487   5.8504
  8.473   5.7268
  8.459   5.6650
  8.445   5.6238
  8.431   5.5311
  8.418   5.4075
  8.404   5.4178
  8.391   5.3663
  8.377   5.2324
  8.363   5.1294
  8.350   5.0882
  8.337   4.9234
  8.323   4.8410
  8.310   4.7792
  8.297   4.6247
  8.283   4.4496
  8.270   4.3054
  8.257   4.1406
  8.244   4.0376
  8.231   3.9140
  8.218   3.8007
  8.205   3.6050
  8.192   3.4917
  8.179   3.4299
  8.166   3.3990
  8.153   3.3372
  8.140   3.2857
  8.128   3.2239
  8.115   3.1930
  8.102   3.1621
  8.090   3.1621
  8.077   3.0900
  8.064   3.0694
  8.052   3.0694
  8.039   3.0385
  8.027   2.9561
  8.015   2.9458
  8.002   2.9355
  7.990   2.9767
  7.978   2.9767
  7.965   2.9973
  7.953   2.9870
  7.941   2.9973
  7.929   2.9767
  7.917   2.9870
  7.905   2.9973
  7.893   3.0694
  7.881   2.9870
  7.869   2.8943
  7.857   2.8943
  7.845   2.9149
  7.833   2.8737
  7.821   2.9458
  7.809   2.9458
  7.798   2.9458
  7.786   2.9355
  7.774   2.9767
  7.763   3.0385
  7.751   3.0694
  7.739   2.9561
  7.728   2.9767
  7.716   3.0179
  7.705   3.0179
  7.694   2.9870
  7.682   3.0179
  7.671   3.0179
  7.659   3.0179
  7.648   2.9767
  7.637   3.0488
  7.626   3.0488
  7.614   3.0591
  7.603   3.0694
  7.592   3.0694
  7.581   2.9870
  7.570   3.0179
  7.559   3.0591
  7.548   3.0591
  7.537   3.0488
  7.526   3.1106
  7.515   3.1209
  7.504   3.1415
  7.493   3.1621
  7.483   3.1621
  7.472   3.1106
  7.461   3.1518
  7.450   3.1930
  7.440   3.2033
  7.429   3.1621
  7.418   3.1621
  7.408   3.1827
  7.397   3.2136
  7.387   3.2136
  7.376   3.2342
  7.366   3.2342
  7.355   3.2239
  7.345   3.2136
  7.334   3.2548
  7.324   3.2651
  7.314   3.3269
  7.303   3.3475
  7.293   3.3475
  7.283   3.2857
  7.273   3.3063
  7.263   3.3166
  7.252   3.3063
  7.242   3.2857
  7.232   3.3269
  7.222   3.3578
  7.212   3.3681
  7.202   3.3063
  7.192   3.3166
  7.182   3.3269
  7.172   3.3578
  7.162   3.3578
  7.152   3.3887
  7.143   3.3990
  7.133   3.3887
  7.123   3.2857
  7.113   3.3372
  7.103   3.4196
  7.094   3.4711
  7.084   3.4402
  7.074   3.4402
  7.065   3.4196
  7.055   3.4196
  7.046   3.4093
  7.036   3.3887
  7.026   3.3784
  7.017   3.4402
  7.007   3.3990
  6.998   3.4196
  6.989   3.4917
  6.979   3.4917
  6.970   3.4402
  6.960   3.4814
  6.951   3.4814
  6.942   3.4917
  6.932   3.4917
  6.923   3.5226
  6.914   3.4917
  6.905   3.4917
  6.896   3.5329
  6.886   3.5329
  6.877   3.4402
  6.868   3.4505
  6.859   3.4917
  6.850   3.5020
  6.841   3.4814
  6.832   3.4814
  6.823   3.4608
  6.814   3.4093
  6.805   3.3681
  6.796   3.4299
  6.787   3.4402
  6.778   3.5020
  6.770   3.5123
  6.761   3.5020
  6.752   3.4299
  6.743   3.4608
  6.734   3.5020
  6.726   3.4917
  6.717   3.4814
  6.708   3.4917
  6.700   3.5020
  6.691   3.4917
  6.682   3.4299
  6.674   3.4608
  6.665   3.4917
  6.657   3.5432
  6.648   3.5638
  6.640   3.4917
  6.631   3.4402
  6.623   3.5020
  6.614   3.4608
  6.606   3.4299
  6.597   3.4711
  6.589   3.5432
  6.581   3.5226
  6.572   3.5226
  6.564   3.4917
  6.556   3.4505
  6.547   3.4299
  6.539   3.5329
  6.531   3.5844
  6.523   3.4711
  6.514   3.3784
  6.506   3.4196
  6.498   3.4505
  6.490   3.4917
  6.482   3.5123
  6.474   3.5123
  6.466   3.4711
  6.458   3.4608
  6.450   3.4814
  6.442   3.5123
  6.434   3.4917
  6.426   3.4814
  6.418   3.4505
  6.410   3.4608
  6.402   3.4608
  6.394   3.5020
  6.386   3.4917
  6.378   3.4917
  6.370   3.5123
  6.363   3.4917
  6.355   3.4402
  6.347   3.4505
  6.339   3.4505
  6.332   3.4196
  6.324   3.3887
  6.316   3.4505
  6.308   3.4814
  6.301   3.4505
  6.293   3.4299
  6.286   3.4299
  6.278   3.3990
  6.270   3.4402
  6.263   3.4505
  6.255   3.4505
  6.248   3.4608
  6.240   3.4299
  6.233   3.3681
  6.225   3.3372
  6.218   3.3372
  6.210   3.4093
  6.203   3.3269
  6.195   3.2754
  6.188   3.3166
  6.181   3.3578
  6.173   3.3063
  6.166   3.2754
  6.159   3.2548
  6.151   3.1930
  6.144   3.2033
  6.137   3.2136
  6.130   3.1518
  6.122   3.1621
  6.115   3.1518
  6.108   3.1930
  6.101   3.1724
  6.094   3.1827
  6.086   3.1827
  6.079   3.1827
  6.072   3.1724
  6.065   3.2033
  6.058   3.1827
  6.051   3.1518
  6.044   3.1312
  6.037   3.1621
  6.030   3.1415
  6.023   3.1621
  6.016   3.1724
  6.009   3.2033
  6.002   3.2342
  5.995   3.2445
  5.988   3.2754
  5.981   3.3475
  5.974   3.3475
  5.967   3.3269
  5.960   3.3166
  5.954   3.3166
  5.947   3.3166
  5.940   3.3887
  5.933   3.4093
  5.926   3.3990
  5.920   3.4299
  5.913   3.4608
  5.906   3.4299
  5.899   3.4711
  5.893   3.5020
  5.886   3.5432
  5.879   3.5844
  5.873   3.6256
  5.866   3.6359
  5.859   3.6050
  5.853   3.5844
  5.846   3.6462
  5.840   3.6874
  5.833   3.6977
  5.827   3.7286
  5.820   3.7801
  5.813   3.7492
  5.807   3.7698
  5.800   3.7801
  5.794   3.7389
  5.788   3.7801
  5.781   3.8007
  5.775   3.7286
  5.768   3.7595
  5.762   3.8110
  5.755   3.8213
  5.749   3.7801
  5.743   3.8316
  5.736   3.8625
  5.730   3.8728
  5.724   3.9037
  5.717   3.8934
  5.711   3.8625
  5.705   3.9037
  5.698   3.8419
  5.692   3.8110
  5.686   3.8316
  5.680   3.8728
  5.674   3.9140
  5.667   3.9758
  5.661   3.9346
  5.655   3.9346
  5.649   3.9655
  5.643   3.9449
  5.637   3.9140
  5.630   3.9449
  5.624   3.9449
  5.618   3.9964
  5.612   4.0067
  5.606   3.9758
  5.600   3.9346
  5.594   3.9552
  5.588   3.9449
  5.582   3.9964
  5.576   4.0376
  5.570   4.0479
  5.564   3.9964
  5.558   3.9346
  5.552   3.9449
  5.546   3.9861
  5.540   4.0170
  5.534   4.0273
  5.528   4.0376
  5.523   4.0788
  5.517   4.1406
  5.511   4.1097
  5.505   4.0479
  5.499   4.0685
  5.493   4.0788
  5.487   4.0891
  5.482   4.1097
  5.476   4.1200
  5.470   4.1097
  5.464   4.1097
  5.459   4.1509
  5.453   4.1509
  5.447   4.1200
  5.441   4.1303
  5.436   4.1406
  5.430   4.1715
  5.424   4.1715
  5.419   4.1921
  5.413   4.2127
  5.407   4.1612
  5.402   4.1303
  5.396   4.1818
  5.390   4.1818
  5.385   4.2024
  5.379   4.1921
  5.374   4.1715
  5.368   4.2333
  5.363   4.2436
  5.357   4.2127
  5.352   4.2024
  5.346   4.1921
  5.341   4.2745
  5.335   4.3054
  5.330   4.2642
  5.324   4.2230
  5.319   4.2436
  5.313   4.2333
  5.308   4.2333
  5.302   4.2539
  5.297   4.2539
  5.291   4.2230
  5.286   4.2436
  5.281   4.2436
  5.275   4.2436
  5.270   4.2745
  5.265   4.2642
  5.259   4.2333
  5.254   4.2848
  5.249   4.3363
  5.243   4.3054
  5.238   4.2951
  5.233   4.2951
  5.227   4.2539
  5.222   4.2642
  5.217   4.3363
  5.212   4.3466
  5.206   4.3260
  5.201   4.3363
  5.196   4.3157
  5.191   4.3054
  5.186   4.3054
  5.180   4.3054
  5.175   4.3363
  5.170   4.3363
  5.165   4.3157
  5.160   4.2951
  5.155   4.2951
  5.150   4.3260
  5.145   4.3466
  5.139   4.3569
  5.134   4.3672
  5.129   4.3981
  5.124   4.3981
  5.119   4.3775
  5.114   4.3260
  5.109   4.3260
  5.104   4.3775
  5.099   4.3878
  5.094   4.3569
  5.089   4.3157
  5.084   4.3363
  5.079   4.3878
  5.074   4.3775
  5.069   4.3569
  5.064   4.3363
  5.059   4.3569
  5.054   4.4393
  5.049   4.4805
  5.044   4.4496
  5.040   4.4599
  5.035   4.4496
  5.030   4.3878
  5.025   4.3260
  5.020   4.3672
  5.015   4.3981
  5.010   4.3569
  5.005   4.3363
  5.001   4.3672
  4.996   4.4393
  4.991   4.4805
  4.986   4.4290
  4.981   4.3569
  4.977   4.3260
  4.972   4.3260
  4.967   4.3363
  4.962   4.3878
  4.958   4.4290
  4.953   4.4599
  4.948   4.4496
  4.943   4.4496
  4.939   4.4496
  4.934   4.4187
  4.929   4.4599
  4.925   4.4805
  4.920   4.4599
  4.915   4.4805
  4.911   4.4805
  4.906   4.5114
  4.901   4.5114
  4.897   4.4393
  4.892   4.4290
  4.888   4.4290
  4.883   4.3981
  4.878   4.4393
  4.874   4.5217
  4.869   4.5217
  4.865   4.4599
  4.860   4.4393
  4.856   4.4908
  4.851   4.5423
  4.846   4.5423
  4.842   4.5217
  4.837   4.4187
  4.833   4.4187
  4.828   4.4805
  4.824   4.5320
  4.819   4.5320
  4.815   4.5011
  4.810   4.4599
  4.806   4.4908
  4.802   4.5320
  4.797   4.5320
  4.793   4.5835
  4.788   4.6247
  4.784   4.5526
  4.779   4.4805
  4.775   4.5217
  4.771   4.5423
  4.766   4.4805
  4.762   4.4496
  4.758   4.4908
  4.753   4.5732
  4.749   4.5732
  4.744   4.5423
  4.740   4.5938
  4.736   4.6247
  4.731   4.5835
  4.727   4.5732
  4.723   4.5938
  4.719   4.5629
  4.714   4.5217
  4.710   4.5217
  4.706   4.5732
  4.701   4.5835
  4.697   4.6350
  4.693   4.6247
  4.689   4.5629
  4.684   4.5732
  4.680   4.6144
  4.676   4.6041
  4.672   4.6659
  4.668   4.6968
  4.663   4.6865
  4.659   4.6453
  4.655   4.6144
  4.651   4.5732
  4.647   4.6041
  4.643   4.7071
  4.638   4.7277
  4.634   4.6247
  4.630   4.6144
  4.626   4.6659
  4.622   4.6865
  4.618   4.6762
  4.614   4.7071
  4.610   4.7071
  4.605   4.7071
  4.601   4.7380
  4.597   4.7174
  4.593   4.6865
  4.589   4.6865
  4.585   4.7277
  4.581   4.7586
  4.577   4.7483
  4.573   4.7586
  4.569   4.7380
  4.565   4.7586
  4.561   4.7895
  4.557   4.7380
  4.553   4.6865
  4.549   4.6968
  4.545   4.6762
  4.541   4.7277
  4.537   4.7483
  4.533   4.7174
  4.529   4.7689
  4.525   4.7998
  4.521   4.7277
  4.517   4.7586
  4.513   4.7586
  4.509   4.7586
  4.505   4.7895
  4.502   4.8204
  4.498   4.8513
  4.494   4.8513
  4.490   4.8410
  4.486   4.8616
  4.482   4.8513
  4.478   4.8822
  4.474   4.8822
  4.470   4.7895
  4.467   4.7174
  4.463   4.7071
  4.459   4.7071
  4.455   4.7792
  4.451   4.8925
  4.447   4.8616
  4.444   4.7998
  4.440   4.7895
  4.436   4.8204
  4.432   4.8410
  4.428   4.9131
  4.425   4.9131
  4.421   4.8822
  4.417   4.9028
  4.413   4.8410
  4.410   4.7689
  4.406   4.8410
  4.402   4.8925
  4.398   4.7998
  4.395   4.7792
  4.391   4.7689
  4.387   4.7998
  4.384   4.8101
  4.380   4.8616
  4.376   4.8616
  4.372   4.8719
  4.369   4.8925
  4.365   4.9337
  4.361   4.9131
  4.358   4.8410
  4.354   4.8719
  4.350   4.8101
  4.347   4.7586
  4.343   4.7895
  4.340   4.8925
  4.336   4.9131
  4.332   4.8616
  4.329   4.8822
  4.325   4.9028
  4.321   4.8307
  4.318   4.8204
  4.314   4.8719
  4.311   4.8410
  4.307   4.8719
  4.304   4.7895
  4.300   4.7277
  4.296   4.7689
  4.293   4.8719
  4.289   4.8719
  4.286   4.8204
  4.282   4.8101
  4.279   4.8307
  4.275   4.7792
  4.272   4.7483
  4.268   4.7895
  4.265   4.8822
  4.261   4.9234
  4.258   4.8719
  4.254   4.8822
  4.251   4.8822
  4.247   4.8513
  4.244   4.8719
  4.240   4.8513
  4.237   4.8307
  4.233   4.8101
  4.230   4.8513
  4.226   4.8925
  4.223   4.8925
  4.219   4.9028
  4.216   4.9028
  4.213   4.8513
  4.209   4.8719
  4.206   4.9028
  4.202   4.9337
  4.199   4.9131
  4.196   4.9440
  4.192   4.9646
  4.189   4.9543
  4.185   4.9028
  4.182   4.8616
  4.179   4.8410
  4.175   4.8719
  4.172   4.9131
  4.169   4.9440
  4.165   4.9234
  4.162   4.8719
  4.159   4.8616
  4.155   4.9440
  4.152   4.9440
  4.149   4.9131
  4.145   4.9646
  4.142   5.0058
  4.139   4.9440
  4.135   4.9131
  4.132   4.9028
  4.129   4.9337
  4.126   4.9234
  4.122   4.8513
  4.119   4.8513
  4.116   4.8616
  4.112   4.9028
  4.109   4.9749
  4.106   4.9131
  4.103   4.8307
  4.099   4.8307
  4.096   4.8410
  4.093   4.8307
  4.090   4.8513
  4.086   4.8410
  4.083   4.8822
  4.080   4.9337
  4.077   4.9028
  4.074   4.8513
  4.070   4.9131
  4.067   4.8822
  4.064   4.8513
  4.061   4.8616
  4.058   4.8513
  4.055   4.8513
  4.051   4.8822
  4.048   4.8822
  4.045   4.9440
  4.042   4.9440
  4.039   4.8925
  4.036   4.8204
  4.032   4.8410
  4.029   4.9337
  4.026   4.9852
  4.023   4.9131
  4.020   4.9028
  4.017   4.8616
  4.014   4.8101
  4.011   4.8101
  4.008   4.9234
  4.004   4.9646
  4.001   4.9543
  3.998   4.9852
  3.995   4.9440
  3.992   4.9440
  3.989   5.0264
  3.986   4.8822
  3.983   4.7998
  3.980   4.7792
  3.977   4.8513
  3.974   4.9234
  3.971   4.9749
  3.968   4.9646
  3.965   4.9234
  3.962   4.8513
  3.959   4.8307
  3.956   4.9131
  3.953   4.8616
  3.950   4.7998
  3.947   4.9543
  3.944   4.9955
  3.941   4.8925
  3.938   4.8307
  3.935   4.8925
  3.932   4.8822
  3.929   4.8719
  3.926   4.8513
  3.923   4.8719
  3.920   4.9028
  3.917   4.9749
  3.914   4.9749
  3.911   4.9543
  3.908   4.9337
  3.905   4.9440
  3.902   4.8925
  3.899   4.8822
  3.896   4.8204
  3.893   4.7895
  3.890   4.8925
  3.887   4.9234
  3.884   4.9028
  3.882   4.9131
  3.879   4.9131
  3.876   4.9852
  3.873   4.9749
  3.870   4.8822
  3.867   4.8307
  3.864   4.9131
  3.861   5.0058
  3.858   4.9955
  3.856   4.9234
  3.853   4.9543
  3.850   4.9028
  3.847   4.8204
  3.844   4.8307
  3.841   4.8513
  3.838   4.8307
  3.836   4.8616
  3.833   4.8307
  3.830   4.9028
  3.827   5.0161
  3.824   4.9852
  3.822   4.9234
  3.819   4.9337
  3.816   4.8822
  3.813   4.8925
  3.810   4.8719
  3.807   4.8513
  3.805   4.8616
  3.802   4.9234
  3.799   4.8925
  3.796   4.8616
  3.794   4.8616
  3.791   4.8410
  3.788   4.8204
  3.785   4.8616
  3.782   4.9028
  3.780   4.9440
  3.777   4.9543
  3.774   4.8925
  3.771   4.9131
  3.769   4.9852
  3.766   4.9543
  3.763   5.0161
  3.761   5.0161
  3.758   5.0161
  3.755   4.9749
  3.752   4.8925
  3.750   4.8410
  3.747   4.8410
  3.744   4.8616
  3.742   4.8925
  3.739   4.9131
  3.736   4.9234
  3.733   4.8307
  3.731   4.7586
  3.728   4.7895
  3.725   4.8822
  3.723   4.8719
  3.720   4.8307
  3.717   4.8101
  3.715   4.8307
  3.712   4.8513
  3.709   4.8410
  3.707   4.8204
  3.704   4.8410
  3.702   4.8925
  3.699   4.9440
  3.696   4.9543
  3.694   4.9646
  3.691   4.9234
  3.688   4.8204
  3.686   4.8410
  3.683   4.9234
  3.680   4.9131
  3.678   4.8410
  3.675   4.8101
  3.673   4.9234
  3.670   4.8719
  3.667   4.8513
  3.665   4.8204
  3.662   4.8822
  3.660   4.9337
  3.657   4.8925
  3.655   4.8410
  3.652   4.7792
  3.649   4.6968
  3.647   4.7586
  3.644   4.8822
  3.642   4.9131
  3.639   4.8410
  3.637   4.7998
  3.634   4.8719
  3.632   4.9028
  3.629   4.8616
  3.626   4.8822
  3.624   4.8204
  3.621   4.8204
  3.619   4.8925
  3.616   4.8925
  3.614   4.8513
  3.611   4.9543
  3.609   4.9131
  3.606   4.8307
  3.604   4.7380
  3.601   4.7277
  3.599   4.7483
  3.596   4.8513
  3.594   4.9131
  3.591   4.9440
  3.589   4.9028
  3.586   4.8822
  3.584   4.8513
  3.581   4.8513
  3.579   4.7586
