Name: Rhyolite
Type: Rock
Class: Igneous
Subclass: Felsic
Particle Size: Whole Rock Chips
Sample No.: AP-936-194
Owner: United States Geological Survey, L. C. Rowan
Wavelength range: 0.405 - 14.05 um
Origin: Iberian Pyrite Belt, Spain

Description: Rhyolite, fresh





Measurement: Directional Hemispherical Reflectance
First Column: X
Second Column: Y
X Units: Wavelength (micrometers)
Y Units: Reflectance (percent)
First X Value: 14.05105
Last X Value: 0.40500
Number of X Values: 2530
Additional Information: rhy194a.txt

 14.051   1.4523
 14.013   1.3493
 13.975   1.4008
 13.938   1.1742
 13.900   1.1021
 13.863   1.2360
 13.826   1.4214
 13.790   1.2978
 13.753   1.3596
 13.717   1.4008
 13.680   1.4111
 13.644   1.2257
 13.609   1.2875
 13.573   1.3699
 13.538   1.4626
 13.502   1.4626
 13.467   1.5244
 13.432   1.5038
 13.398   1.6377
 13.363   1.5965
 13.329   1.5450
 13.295   1.6068
 13.261   1.6377
 13.227   1.5656
 13.193   1.5965
 13.160   1.5244
 13.126   1.5656
 13.093   1.5244
 13.060   1.6171
 13.027   1.6686
 12.995   1.7098
 12.962   1.6789
 12.930   1.7922
 12.898   1.8437
 12.866   1.9776
 12.834   1.9673
 12.802   2.0188
 12.771   1.9261
 12.739   1.9158
 12.708   1.8334
 12.677   1.8025
 12.646   1.7407
 12.616   1.8334
 12.585   1.7407
 12.554   1.7613
 12.524   1.7510
 12.494   1.7613
 12.464   1.7716
 12.434   1.8231
 12.404   1.6583
 12.375   1.6686
 12.345   1.6995
 12.316   1.7304
 12.287   1.7098
 12.258   1.7716
 12.229   1.8643
 12.200   1.9879
 12.171   1.9261
 12.143   1.9982
 12.115   2.0806
 12.086   2.1115
 12.058   2.0291
 12.030   2.1115
 12.002   2.1115
 11.975   2.1733
 11.947   2.2351
 11.920   2.3381
 11.892   2.3175
 11.865   2.3793
 11.838   2.4205
 11.811   2.5441
 11.784   2.5750
 11.757   2.5750
 11.731   2.5235
 11.704   2.5956
 11.678   2.6368
 11.652   2.6574
 11.626   2.7604
 11.600   2.8634
 11.574   2.7604
 11.548   2.7501
 11.522   2.7501
 11.497   2.9046
 11.471   2.9664
 11.446   3.0797
 11.421   3.0900
 11.396   3.1003
 11.371   3.0179
 11.346   2.9458
 11.321   2.9252
 11.297   3.0282
 11.272   3.1003
 11.248   3.1930
 11.223   3.2445
 11.199   3.3681
 11.175   3.3784
 11.151   3.4814
 11.127   3.5844
 11.103   3.7286
 11.079   3.8007
 11.056   3.8522
 11.032   3.9655
 11.009   4.1715
 10.985   4.2436
 10.962   4.3775
 10.939   4.3569
 10.916   4.2333
 10.893   3.9964
 10.870   3.8110
 10.848   3.5329
 10.825   3.3578
 10.802   3.1415
 10.780   3.0797
 10.758   2.9767
 10.735   2.9355
 10.713   2.8943
 10.691   2.8840
 10.669   2.7398
 10.647   2.7089
 10.625   2.6986
 10.604   2.7398
 10.582   2.7398
 10.560   2.6986
 10.539   2.6368
 10.518   2.6574
 10.496   2.6574
 10.475   2.6883
 10.454   2.6677
 10.433   2.8222
 10.412   2.9252
 10.391   3.0591
 10.370   3.1209
 10.350   3.1930
 10.329   3.2754
 10.309   3.4608
 10.288   3.5432
 10.268   3.6874
 10.247   3.7904
 10.227   3.9243
 10.207   4.0685
 10.187   4.2230
 10.167   4.3260
 10.147   4.5011
 10.127   4.6247
 10.108   4.8307
 10.088   5.0161
 10.068   5.1603
 10.049   5.3972
 10.029   5.7783
 10.010   6.0770
  9.991   6.4375
  9.972   6.7259
  9.952   7.0761
  9.933   7.3439
  9.914   7.6735
  9.895   7.9825
  9.877   7.9928
  9.858   7.7147
  9.839   7.5602
  9.821   7.3233
  9.802   7.1070
  9.783   6.9319
  9.765   7.1276
  9.747   7.4881
  9.728   7.9310
  9.710   8.4872
  9.692   9.2082
  9.674   9.8880
  9.656  10.3824
  9.638  10.7223
  9.620  11.0622
  9.602  11.3815
  9.585  11.7317
  9.567  11.9789
  9.549  12.2055
  9.532  12.3394
  9.514  12.5969
  9.497  12.7926
  9.479  12.8956
  9.462  12.9471
  9.445  13.1016
  9.428  13.1943
  9.411  13.3282
  9.394  13.3591
  9.377  13.4209
  9.360  13.4106
  9.343  13.4209
  9.326  13.3900
  9.309  13.2870
  9.293  13.1222
  9.276  13.0398
  9.259  12.8956
  9.243  12.7617
  9.226  12.5557
  9.210  12.3497
  9.194  12.0304
  9.178  11.6802
  9.161  11.2270
  9.145  10.8356
  9.129  10.3618
  9.113   9.7747
  9.097   9.1464
  9.081   8.4666
  9.065   7.6632
  9.049   6.8598
  9.034   6.1903
  9.018   5.6650
  9.002   5.0882
  8.987   4.8513
  8.971   4.8513
  8.956   5.1706
  8.940   5.5517
  8.925   6.0770
  8.909   6.5405
  8.894   6.9113
  8.879   7.1894
  8.864   7.5499
  8.849   7.7868
  8.834   7.8589
  8.819   7.8486
  8.804   7.8898
  8.789   7.7559
  8.774   7.6735
  8.759   7.4778
  8.744   7.2924
  8.730   7.0246
  8.715   6.7259
  8.700   6.3448
  8.686   6.0255
  8.671   5.7062
  8.657   5.4075
  8.642   5.0985
  8.628   4.8410
  8.614   4.5835
  8.599   4.5114
  8.585   4.4805
  8.571   4.5526
  8.557   4.5423
  8.543   4.4805
  8.529   4.4908
  8.515   4.5011
  8.501   4.4187
  8.487   4.3363
  8.473   4.2127
  8.459   4.1097
  8.445   4.0479
  8.431   4.0273
  8.418   4.0067
  8.404   4.0479
  8.391   4.0067
  8.377   3.9552
  8.363   3.9243
  8.350   3.8934
  8.337   3.8110
  8.323   3.7904
  8.310   3.7698
  8.297   3.7904
  8.283   3.7595
  8.270   3.7492
  8.257   3.6874
  8.244   3.6874
  8.231   3.6771
  8.218   3.7492
  8.205   3.7698
  8.192   3.7801
  8.179   3.6874
  8.166   3.6565
  8.153   3.6050
  8.140   3.4711
  8.128   3.3475
  8.115   3.2445
  8.102   3.0385
  8.090   2.8943
  8.077   2.6986
  8.064   2.5235
  8.052   2.4308
  8.039   2.4102
  8.027   2.3072
  8.015   2.2763
  8.002   2.2042
  7.990   2.1527
  7.978   2.0085
  7.965   1.9158
  7.953   1.8128
  7.941   1.7510
  7.929   1.6274
  7.917   1.6686
  7.905   1.7098
  7.893   1.6789
  7.881   1.5450
  7.869   1.5141
  7.857   1.4523
  7.845   1.4420
  7.833   1.4214
  7.821   1.4008
  7.809   1.3802
  7.798   1.3905
  7.786   1.4008
  7.774   1.4420
  7.763   1.4420
  7.751   1.4523
  7.739   1.3699
  7.728   1.3287
  7.716   1.3596
  7.705   1.4111
  7.694   1.4008
  7.682   1.3905
  7.671   1.3802
  7.659   1.4214
  7.648   1.3699
  7.637   1.3596
  7.626   1.3596
  7.614   1.3699
  7.603   1.2875
  7.592   1.3184
  7.581   1.3802
  7.570   1.3699
  7.559   1.3802
  7.548   1.4729
  7.537   1.4008
  7.526   1.3596
  7.515   1.3699
  7.504   1.4523
  7.493   1.5244
  7.483   1.5038
  7.472   1.3802
  7.461   1.3390
  7.450   1.3905
  7.440   1.4523
  7.429   1.4214
  7.418   1.4420
  7.408   1.4729
  7.397   1.4935
  7.387   1.4729
  7.376   1.5038
  7.366   1.5141
  7.355   1.5038
  7.345   1.4523
  7.334   1.4523
  7.324   1.4626
  7.314   1.4832
  7.303   1.5038
  7.293   1.5965
  7.283   1.5759
  7.273   1.5553
  7.263   1.6274
  7.252   1.6377
  7.242   1.5656
  7.232   1.6274
  7.222   1.6686
  7.212   1.6274
  7.202   1.6480
  7.192   1.6686
  7.182   1.6583
  7.172   1.6995
  7.162   1.7510
  7.152   1.7922
  7.143   1.7819
  7.133   1.7716
  7.123   1.7098
  7.113   1.7098
  7.103   1.7819
  7.094   1.8849
  7.084   1.8540
  7.074   1.8128
  7.065   1.7716
  7.055   1.7922
  7.046   1.7922
  7.036   1.8231
  7.026   1.8952
  7.017   1.9364
  7.007   1.8849
  6.998   1.8540
  6.989   1.8540
  6.979   1.8952
  6.970   1.8746
  6.960   1.8643
  6.951   1.8643
  6.942   1.9467
  6.932   1.9158
  6.923   1.9261
  6.914   1.9879
  6.905   2.0394
  6.896   2.0085
  6.886   2.0188
  6.877   2.0291
  6.868   2.0291
  6.859   2.1115
  6.850   2.1630
  6.841   2.1012
  6.832   2.0600
  6.823   2.0497
  6.814   2.1733
  6.805   2.2248
  6.796   2.2557
  6.787   2.3072
  6.778   2.3690
  6.770   2.4411
  6.761   2.5235
  6.752   2.4617
  6.743   2.4617
  6.734   2.4720
  6.726   2.5750
  6.717   2.6265
  6.708   2.6265
  6.700   2.6265
  6.691   2.6677
  6.682   2.6677
  6.674   2.6677
  6.665   2.6368
  6.657   2.7089
  6.648   2.7604
  6.640   2.7501
  6.631   2.7501
  6.623   2.7913
  6.614   2.7913
  6.606   2.8119
  6.597   2.7913
  6.589   2.8016
  6.581   2.8119
  6.572   2.8222
  6.564   2.8119
  6.556   2.8119
  6.547   2.7604
  6.539   2.7707
  6.531   2.8222
  6.523   2.8222
  6.514   2.8016
  6.506   2.8119
  6.498   2.7913
  6.490   2.7913
  6.482   2.7707
  6.474   2.8428
  6.466   2.8737
  6.458   2.8531
  6.450   2.8119
  6.442   2.8325
  6.434   2.8428
  6.426   2.8840
  6.418   2.8943
  6.410   2.8840
  6.402   2.8428
  6.394   2.8428
  6.386   2.8428
  6.378   2.8737
  6.370   2.8531
  6.363   2.8531
  6.355   2.7810
  6.347   2.7398
  6.339   2.7604
  6.332   2.7501
  6.324   2.7295
  6.316   2.6986
  6.308   2.6368
  6.301   2.6162
  6.293   2.6368
  6.286   2.6059
  6.278   2.5956
  6.270   2.5956
  6.263   2.5338
  6.255   2.5132
  6.248   2.5132
  6.240   2.5132
  6.233   2.4205
  6.225   2.3999
  6.218   2.4102
  6.210   2.2969
  6.203   2.1939
  6.195   2.1836
  6.188   2.1733
  6.181   2.1630
  6.173   2.1527
  6.166   2.1630
  6.159   2.1527
  6.151   2.1836
  6.144   2.1218
  6.137   2.1218
  6.130   2.0806
  6.122   2.0291
  6.115   2.0085
  6.108   2.0497
  6.101   2.0703
  6.094   2.0497
  6.086   2.0085
  6.079   2.0291
  6.072   2.0085
  6.065   1.9879
  6.058   2.0291
  6.051   2.0497
  6.044   2.0497
  6.037   2.1115
  6.030   2.1218
  6.023   2.1939
  6.016   2.2763
  6.009   2.3072
  6.002   2.2763
  5.995   2.2763
  5.988   2.3587
  5.981   2.4617
  5.974   2.5235
  5.967   2.5338
  5.960   2.4720
  5.954   2.5132
  5.947   2.5544
  5.940   2.5235
  5.933   2.5647
  5.926   2.6574
  5.920   2.6883
  5.913   2.7089
  5.906   2.7810
  5.899   2.8531
  5.893   2.8840
  5.886   2.9252
  5.879   2.9870
  5.873   3.0488
  5.866   3.0797
  5.859   3.1724
  5.853   3.2136
  5.846   3.2239
  5.840   3.2548
  5.833   3.2857
  5.827   3.2754
  5.820   3.3372
  5.813   3.3887
  5.807   3.4093
  5.800   3.4402
  5.794   3.4917
  5.788   3.4917
  5.781   3.5638
  5.775   3.5844
  5.768   3.5947
  5.762   3.6771
  5.755   3.7389
  5.749   3.7389
  5.743   3.7595
  5.736   3.7801
  5.730   3.7595
  5.724   3.7492
  5.717   3.8007
  5.711   3.8522
  5.705   3.8934
  5.698   3.8831
  5.692   3.8934
  5.686   3.9861
  5.680   4.0376
  5.674   4.0479
  5.667   4.0685
  5.661   4.0582
  5.655   4.0994
  5.649   4.1303
  5.643   4.1200
  5.637   4.1200
  5.630   4.1612
  5.624   4.1715
  5.618   4.1715
  5.612   4.2024
  5.606   4.2539
  5.600   4.2745
  5.594   4.2951
  5.588   4.2848
  5.582   4.2848
  5.576   4.2745
  5.570   4.2642
  5.564   4.2951
  5.558   4.3054
  5.552   4.2436
  5.546   4.2333
  5.540   4.2127
  5.534   4.1406
  5.528   4.0685
  5.523   4.0170
  5.517   3.9655
  5.511   3.9346
  5.505   3.9346
  5.499   3.8625
  5.493   3.7904
  5.487   3.7904
  5.482   3.8110
  5.476   3.8316
  5.470   3.8316
  5.464   3.9037
  5.459   3.9758
  5.453   4.0067
  5.447   4.0273
  5.441   4.0891
  5.436   4.1303
  5.430   4.1509
  5.424   4.2230
  5.419   4.3054
  5.413   4.2951
  5.407   4.3054
  5.402   4.2848
  5.396   4.2642
  5.390   4.2848
  5.385   4.2745
  5.379   4.3157
  5.374   4.3981
  5.368   4.4084
  5.363   4.3775
  5.357   4.3981
  5.352   4.4599
  5.346   4.5114
  5.341   4.5217
  5.335   4.5629
  5.330   4.6144
  5.324   4.6041
  5.319   4.6350
  5.313   4.6659
  5.308   4.7483
  5.302   4.7792
  5.297   4.7689
  5.291   4.7483
  5.286   4.7277
  5.281   4.7380
  5.275   4.7792
  5.270   4.7998
  5.265   4.8307
  5.259   4.8925
  5.254   4.9131
  5.249   4.8925
  5.243   4.8925
  5.238   4.9440
  5.233   5.0470
  5.227   5.0573
  5.222   5.0058
  5.217   5.0264
  5.212   5.0779
  5.206   5.0882
  5.201   5.0882
  5.196   5.1191
  5.191   5.1088
  5.186   5.0779
  5.180   5.0779
  5.175   5.1603
  5.170   5.2324
  5.165   5.2324
  5.160   5.2324
  5.155   5.2633
  5.150   5.3045
  5.145   5.3560
  5.139   5.4075
  5.134   5.4384
  5.129   5.4796
  5.124   5.5826
  5.119   5.7062
  5.114   5.8092
  5.109   5.9122
  5.104   6.0461
  5.099   6.1182
  5.094   6.1182
  5.089   6.1697
  5.084   6.2521
  5.079   6.3551
  5.074   6.4272
  5.069   6.4890
  5.064   6.5920
  5.059   6.7053
  5.054   6.8083
  5.049   6.9010
  5.044   6.9422
  5.040   7.0349
  5.035   7.0967
  5.030   7.1688
  5.025   7.2615
  5.020   7.4057
  5.015   7.4778
  5.010   7.4984
  5.005   7.5499
  5.001   7.6735
  4.996   7.7559
  4.991   7.8280
  4.986   7.9413
  4.981   8.0546
  4.977   8.1988
  4.972   8.2606
  4.967   8.3224
  4.962   8.4254
  4.958   8.5078
  4.953   8.6108
  4.948   8.7447
  4.943   8.8374
  4.939   8.8992
  4.934   8.9404
  4.929   8.9198
  4.925   9.0022
  4.920   9.0846
  4.915   9.1567
  4.911   9.2597
  4.906   9.4039
  4.901   9.5481
  4.897   9.6717
  4.892   9.7850
  4.888   9.9189
  4.883  10.0837
  4.878  10.1970
  4.874  10.2588
  4.869  10.3824
  4.865  10.5163
  4.860  10.6502
  4.856  10.8047
  4.851  10.9180
  4.846  10.9901
  4.842  11.0828
  4.837  11.1755
  4.833  11.1549
  4.828  11.2167
  4.824  11.3712
  4.819  11.4639
  4.815  11.5360
  4.810  11.6184
  4.806  11.6905
  4.802  11.7832
  4.797  11.8965
  4.793  11.9686
  4.788  11.9480
  4.784  12.0098
  4.779  12.1746
  4.775  12.2673
  4.771  12.2879
  4.766  12.3703
  4.762  12.4527
  4.758  12.4527
  4.753  12.4733
  4.749  12.5454
  4.744  12.6072
  4.740  12.6587
  4.736  12.7514
  4.731  12.7617
  4.727  12.7411
  4.723  12.7926
  4.719  12.8338
  4.714  12.7926
  4.710  12.7411
  4.706  12.7102
  4.701  12.6484
  4.697  12.7102
  4.693  12.7720
  4.689  12.7720
  4.684  12.7617
  4.680  12.8029
  4.676  12.8132
  4.672  12.7823
  4.668  12.8853
  4.663  13.0398
  4.659  13.1016
  4.655  13.1737
  4.651  13.2870
  4.647  13.4209
  4.643  13.5548
  4.638  13.6475
  4.634  13.7196
  4.630  13.8432
  4.626  13.9462
  4.622  14.0801
  4.618  14.2346
  4.614  14.3582
  4.610  14.4921
  4.605  14.6054
  4.601  14.7084
  4.597  14.8526
  4.593  14.9659
  4.589  15.1101
  4.585  15.2543
  4.581  15.3367
  4.577  15.3882
  4.573  15.4397
  4.569  15.5324
  4.565  15.6766
  4.561  15.8105
  4.557  15.8517
  4.553  15.8826
  4.549  15.9959
  4.545  16.0371
  4.541  16.0577
  4.537  16.1092
  4.533  16.1607
  4.529  16.1916
  4.525  16.1813
  4.521  16.1916
  4.517  16.1916
  4.513  16.1607
  4.509  16.1710
  4.505  16.1813
  4.502  16.1710
  4.498  16.1813
  4.494  16.2328
  4.490  16.2431
  4.486  16.2225
  4.482  16.2328
  4.478  16.3255
  4.474  16.4285
  4.470  16.5315
  4.467  16.6551
  4.463  16.7581
  4.459  16.8302
  4.455  16.8405
  4.451  16.9023
  4.447  17.1083
  4.444  17.3143
  4.440  17.4276
  4.436  17.5203
  4.432  17.5512
  4.428  17.5821
  4.425  17.7057
  4.421  17.7881
  4.417  17.9220
  4.413  18.0353
  4.410  18.1692
  4.406  18.3237
  4.402  18.3649
  4.398  18.3340
  4.395  18.4679
  4.391  18.6224
  4.387  18.7254
  4.384  18.8181
  4.380  18.9314
  4.376  19.0962
  4.372  19.2404
  4.369  19.3537
  4.365  19.4361
  4.361  19.4567
  4.358  19.5494
  4.354  19.7142
  4.350  19.7863
  4.347  19.8584
  4.343  20.0026
  4.340  20.0644
  4.336  20.1262
  4.332  20.3219
  4.329  20.4558
  4.325  20.4455
  4.321  20.5176
  4.318  20.6000
  4.314  20.6412
  4.311  20.7030
  4.307  20.8987
  4.304  20.9914
  4.300  21.0120
  4.296  21.0326
  4.293  21.1459
  4.289  21.3107
  4.286  21.3931
  4.282  21.3519
  4.279  21.4034
  4.275  21.4652
  4.272  21.5270
  4.268  21.6094
  4.265  21.7639
  4.261  21.7639
  4.258  21.8360
  4.254  21.8875
  4.251  21.8257
  4.247  21.9287
  4.244  22.1038
  4.240  22.1553
  4.237  22.2274
  4.233  22.2583
  4.230  22.2686
  4.226  22.2686
  4.223  22.3407
  4.219  22.3819
  4.216  22.3201
  4.213  22.3098
  4.209  22.2892
  4.206  22.2686
  4.202  22.3201
  4.199  22.3922
  4.196  22.3922
  4.192  22.3510
  4.189  22.3510
  4.185  22.4334
  4.182  22.4952
  4.179  22.5158
  4.175  22.5158
  4.172  22.5879
  4.169  22.6394
  4.165  22.6806
  4.162  22.7733
  4.159  22.8248
  4.155  22.8248
  4.152  22.8145
  4.149  22.8145
  4.145  22.8660
  4.142  22.9690
  4.139  22.9999
  4.135  23.0514
  4.132  23.0823
  4.129  23.0926
  4.126  23.1132
  4.122  23.0823
  4.119  23.1544
  4.116  23.2780
  4.112  23.2574
  4.109  23.2471
  4.106  23.3089
  4.103  23.3604
  4.099  23.4325
  4.096  23.4737
  4.093  23.4943
  4.090  23.5149
  4.086  23.4325
  4.083  23.4943
  4.080  23.6076
  4.077  23.6282
  4.074  23.6076
  4.070  23.6694
  4.067  23.7209
  4.064  23.7003
  4.061  23.6797
  4.058  23.7209
  4.055  23.7518
  4.051  23.7724
  4.048  23.7724
  4.045  23.7621
  4.042  23.7518
  4.039  23.7621
  4.036  23.7827
  4.032  23.7930
  4.029  23.7930
  4.026  23.7827
  4.023  23.8239
  4.020  23.9475
  4.017  23.9269
  4.014  23.8342
  4.011  23.8651
  4.008  23.9475
  4.004  23.9269
  4.001  23.9887
  3.998  24.0196
  3.995  24.0711
  3.992  24.0196
  3.989  23.9372
  3.986  23.9269
  3.983  24.0093
  3.980  24.0196
  3.977  24.0093
  3.974  24.0711
  3.971  24.1329
  3.968  24.0814
  3.965  24.0402
  3.962  24.1226
  3.959  24.1638
  3.956  24.1329
  3.953  24.1741
  3.950  24.2462
  3.947  24.2050
  3.944  24.1638
  3.941  24.2565
  3.938  24.2771
  3.935  24.2874
  3.932  24.2359
  3.929  24.2668
  3.926  24.2668
  3.923  24.2668
  3.920  24.2256
  3.917  24.2050
  3.914  24.2874
  3.911  24.3801
  3.908  24.2874
  3.905  24.2668
  3.902  24.2771
  3.899  24.1741
  3.896  24.1020
  3.893  24.0917
  3.890  24.0608
  3.887  24.1123
  3.884  24.1638
  3.882  24.1947
  3.879  24.1638
  3.876  24.0711
  3.873  24.0505
  3.870  24.0608
  3.867  24.0608
  3.864  24.0505
  3.861  23.9681
  3.858  23.9475
  3.856  23.9063
  3.853  23.8136
  3.850  23.8136
  3.847  23.8857
  3.844  23.8239
  3.841  23.8033
  3.838  23.8548
  3.836  23.8960
  3.833  23.9269
  3.830  23.8960
  3.827  23.7621
  3.824  23.7312
  3.822  23.7209
  3.819  23.7312
  3.816  23.7415
  3.813  23.6385
  3.810  23.5252
  3.807  23.5870
  3.805  23.5767
  3.802  23.5046
  3.799  23.4943
  3.796  23.4531
  3.794  23.3192
  3.791  23.3398
  3.788  23.3810
  3.785  23.3398
  3.782  23.1956
  3.780  23.1544
  3.777  23.0823
  3.774  23.0823
  3.771  23.1029
  3.769  23.1029
  3.766  22.9896
  3.763  22.8969
  3.761  22.8660
  3.758  22.7733
  3.755  22.7115
  3.752  22.7630
  3.750  22.6600
  3.747  22.4952
  3.744  22.4231
  3.742  22.2892
  3.739  22.1553
  3.736  22.2274
  3.733  22.2995
  3.731  22.2480
  3.728  22.0935
  3.725  22.0626
  3.723  22.0420
  3.720  21.9493
  3.717  21.9081
  3.715  21.8566
  3.712  21.7227
  3.709  21.6506
  3.707  21.5064
  3.704  21.3519
  3.702  21.1871
  3.699  21.0120
  3.696  20.9193
  3.694  20.9296
  3.691  20.8781
  3.688  20.9090
  3.686  20.8575
  3.683  20.7648
  3.680  20.8369
  3.678  20.9090
  3.675  20.8060
  3.673  20.8987
  3.670  20.9296
  3.667  20.8987
  3.665  20.9502
  3.662  20.9914
  3.660  20.9193
  3.657  20.8884
  3.655  20.8060
  3.652  20.7442
  3.649  20.7442
  3.647  20.7339
  3.644  20.6206
  3.642  20.6309
  3.639  20.6515
  3.637  20.6206
  3.634  20.4970
  3.632  20.5691
  3.629  20.5073
  3.626  20.3322
  3.624  20.3116
  3.621  20.2601
  3.619  20.1674
  3.616  20.1468
  3.614  20.0953
  3.611  20.0232
  3.609  19.8790
  3.606  19.7863
  3.604  19.6936
  3.601  19.6833
  3.599  19.6421
  3.596  19.5803
  3.594  19.4670
  3.591  19.4567
  3.589  19.3537
  3.586  19.3331
  3.584  19.2610
  3.581  19.1271
