Name: Rhyolite
Type: Rock
Class: Igneous
Subclass: Felsic
Particle Size: Whole Rock Chips
Sample No.: AP-937-100
Owner: United States Geological Survey, L. C. Rowan
Wavelength range: 0.405 - 14.05 um
Origin: Iberian Pyrite Belt, Spain

Description: Rhyolite, white, argillized





Measurement: Directional Hemispherical Reflectance
First Column: X
Second Column: Y
X Units: Wavelength (micrometers)
Y Units: Reflectance (percent)
First X Value: 14.05105
Last X Value: 0.40500
Number of X Values: 2530
Additional Information: rhy100a.txt

 14.051   1.8334
 14.013   1.9261
 13.975   2.2042
 13.938   2.1527
 13.900   2.2248
 13.863   2.2145
 13.826   2.3175
 13.790   2.2042
 13.753   2.1733
 13.717   2.1424
 13.680   2.2660
 13.644   2.3175
 13.609   2.4411
 13.573   2.4411
 13.538   2.5750
 13.502   2.3999
 13.467   2.4308
 13.432   2.5235
 13.398   2.5956
 13.363   2.6265
 13.329   2.7913
 13.295   2.7295
 13.261   2.7089
 13.227   2.7501
 13.193   2.8325
 13.160   2.7707
 13.126   2.7810
 13.093   2.7501
 13.060   2.9355
 13.027   3.0282
 12.995   3.0900
 12.962   3.0282
 12.930   3.1003
 12.898   3.1518
 12.866   3.2033
 12.834   3.1415
 12.802   3.2548
 12.771   3.2136
 12.739   3.1415
 12.708   2.9664
 12.677   2.9767
 12.646   2.9870
 12.616   3.0282
 12.585   3.0076
 12.554   3.0694
 12.524   3.0076
 12.494   3.0282
 12.464   2.9252
 12.434   2.8737
 12.404   2.8634
 12.375   2.8119
 12.345   2.6162
 12.316   2.5544
 12.287   2.5647
 12.258   2.6574
 12.229   2.5853
 12.200   2.5441
 12.171   2.5441
 12.143   2.5338
 12.115   2.5029
 12.086   2.6677
 12.058   2.5750
 12.030   2.5750
 12.002   2.5750
 11.975   2.6677
 11.947   2.6471
 11.920   2.6986
 11.892   2.6471
 11.865   2.6986
 11.838   2.7501
 11.811   2.8119
 11.784   2.8325
 11.757   2.8943
 11.731   2.8119
 11.704   2.8016
 11.678   2.7295
 11.652   2.8325
 11.626   2.9561
 11.600   3.0282
 11.574   3.0076
 11.548   3.0900
 11.522   3.1003
 11.497   3.1621
 11.471   3.2239
 11.446   3.3166
 11.421   3.2342
 11.396   3.2136
 11.371   3.1312
 11.346   3.2136
 11.321   3.1415
 11.297   3.1312
 11.272   3.1209
 11.248   3.2548
 11.223   3.3269
 11.199   3.3166
 11.175   3.2754
 11.151   3.3990
 11.127   3.3681
 11.103   3.3578
 11.079   3.3681
 11.056   3.4196
 11.032   3.4299
 11.009   3.5432
 10.985   3.5226
 10.962   3.5535
 10.939   3.4917
 10.916   3.4402
 10.893   3.2857
 10.870   3.2239
 10.848   3.0900
 10.825   3.1003
 10.802   3.0694
 10.780   3.0694
 10.758   3.0179
 10.735   3.0591
 10.713   3.0488
 10.691   3.0385
 10.669   3.0282
 10.647   3.1415
 10.625   3.1106
 10.604   3.1518
 10.582   3.1621
 10.560   3.2342
 10.539   3.2445
 10.518   3.2651
 10.496   3.2033
 10.475   3.3063
 10.454   3.4505
 10.433   3.6359
 10.412   3.6256
 10.391   3.6565
 10.370   3.7904
 10.350   3.9346
 10.329   3.9655
 10.309   4.0994
 10.288   4.1715
 10.268   4.3260
 10.247   4.4290
 10.227   4.5423
 10.207   4.6041
 10.187   4.8307
 10.167   4.9852
 10.147   5.1603
 10.127   5.2324
 10.108   5.4590
 10.088   5.6238
 10.068   5.8298
 10.049   5.9843
 10.029   6.1903
 10.010   6.3860
  9.991   6.6229
  9.972   6.7156
  9.952   6.7877
  9.933   6.8598
  9.914   6.9731
  9.895   7.0246
  9.877   7.0761
  9.858   7.0040
  9.839   7.0040
  9.821   6.9731
  9.802   7.0967
  9.783   7.1585
  9.765   7.1997
  9.747   7.2718
  9.728   7.5190
  9.710   7.7765
  9.692   8.0237
  9.674   8.1473
  9.656   8.3018
  9.638   8.3842
  9.620   8.4769
  9.602   8.4460
  9.585   8.4769
  9.567   8.4048
  9.549   8.3739
  9.532   8.3224
  9.514   8.2915
  9.497   8.2297
  9.479   8.1164
  9.462   8.0134
  9.445   8.1473
  9.428   8.0958
  9.411   8.0031
  9.394   7.9207
  9.377   7.9619
  9.360   7.9207
  9.343   7.9619
  9.326   7.9413
  9.309   7.9516
  9.293   7.9825
  9.276   8.0443
  9.259   7.9928
  9.243   7.9825
  9.226   7.9310
  9.210   7.8589
  9.194   7.7147
  9.178   7.6941
  9.161   7.5602
  9.145   7.5808
  9.129   7.4469
  9.113   7.2924
  9.097   7.1688
  9.081   7.0658
  9.065   6.8598
  9.049   6.7362
  9.034   6.6023
  9.018   6.4684
  9.002   6.3036
  8.987   6.2315
  8.971   6.1594
  8.956   6.2109
  8.940   6.2212
  8.925   6.2624
  8.909   6.2315
  8.894   6.2933
  8.879   6.2109
  8.864   6.0667
  8.849   5.9225
  8.834   5.9019
  8.819   5.8195
  8.804   5.7474
  8.789   5.6959
  8.774   5.6341
  8.759   5.4796
  8.744   5.3560
  8.730   5.3251
  8.715   5.3869
  8.700   5.2530
  8.686   5.0882
  8.671   5.0470
  8.657   5.0161
  8.642   4.8616
  8.628   4.6968
  8.614   4.5217
  8.599   4.6041
  8.585   4.7174
  8.571   4.8410
  8.557   4.8719
  8.543   4.8925
  8.529   4.7998
  8.515   4.8719
  8.501   4.8925
  8.487   4.9028
  8.473   4.8101
  8.459   4.8204
  8.445   4.8101
  8.431   4.7998
  8.418   4.7895
  8.404   4.8513
  8.391   4.8822
  8.377   4.8616
  8.363   4.8616
  8.350   4.8822
  8.337   4.8101
  8.323   4.8307
  8.310   4.7895
  8.297   4.8101
  8.283   4.8513
  8.270   4.9131
  8.257   4.8822
  8.244   4.8513
  8.231   4.8925
  8.218   4.9749
  8.205   4.9852
  8.192   5.0367
  8.179   5.0779
  8.166   5.1088
  8.153   5.0367
  8.140   4.9543
  8.128   4.8513
  8.115   4.7586
  8.102   4.6556
  8.090   4.6453
  8.077   4.6350
  8.064   4.6453
  8.052   4.6041
  8.039   4.5938
  8.027   4.5011
  8.015   4.4805
  8.002   4.4290
  7.990   4.4599
  7.978   4.4496
  7.965   4.3775
  7.953   4.2848
  7.941   4.2951
  7.929   4.2333
  7.917   4.2024
  7.905   4.1715
  7.893   4.1715
  7.881   4.0994
  7.869   3.9964
  7.857   3.9861
  7.845   4.0067
  7.833   3.9449
  7.821   3.9140
  7.809   3.8728
  7.798   3.8625
  7.786   3.8213
  7.774   3.8110
  7.763   3.7904
  7.751   3.7595
  7.739   3.7286
  7.728   3.8007
  7.716   3.7801
  7.705   3.7080
  7.694   3.6977
  7.682   3.7492
  7.671   3.7183
  7.659   3.6565
  7.648   3.6153
  7.637   3.5844
  7.626   3.5226
  7.614   3.5432
  7.603   3.5741
  7.592   3.5432
  7.581   3.5123
  7.570   3.4814
  7.559   3.3784
  7.548   3.4093
  7.537   3.3990
  7.526   3.3887
  7.515   3.3990
  7.504   3.4299
  7.493   3.4608
  7.483   3.4711
  7.472   3.3578
  7.461   3.3063
  7.450   3.3166
  7.440   3.2857
  7.429   3.2239
  7.418   3.2136
  7.408   3.2239
  7.397   3.2754
  7.387   3.2136
  7.376   3.1621
  7.366   3.1827
  7.355   3.2136
  7.345   3.1724
  7.334   3.1518
  7.324   3.1209
  7.314   3.1003
  7.303   3.1621
  7.293   3.2548
  7.283   3.1724
  7.273   3.1106
  7.263   3.1209
  7.252   3.1518
  7.242   3.1209
  7.232   3.1312
  7.222   3.1827
  7.212   3.2033
  7.202   3.1209
  7.192   3.1209
  7.182   3.1209
  7.172   3.1518
  7.162   3.1106
  7.152   3.0797
  7.143   3.0591
  7.133   3.0900
  7.123   3.0900
  7.113   3.1003
  7.103   3.0591
  7.094   3.0797
  7.084   3.0591
  7.074   3.0385
  7.065   3.0385
  7.055   3.0797
  7.046   3.0488
  7.036   3.0385
  7.026   3.0282
  7.017   3.0385
  7.007   2.9973
  6.998   3.0076
  6.989   3.0694
  6.979   3.0694
  6.970   2.9973
  6.960   3.0282
  6.951   3.0385
  6.942   3.0797
  6.932   3.0591
  6.923   3.0694
  6.914   3.0385
  6.905   3.0179
  6.896   2.9561
  6.886   3.0076
  6.877   3.0797
  6.868   3.1209
  6.859   3.1209
  6.850   3.1518
  6.841   3.1003
  6.832   3.0900
  6.823   3.0591
  6.814   3.0488
  6.805   3.0797
  6.796   3.1003
  6.787   3.0797
  6.778   3.1209
  6.770   3.0797
  6.761   3.0385
  6.752   3.1209
  6.743   3.2239
  6.734   3.2033
  6.726   3.1621
  6.717   3.1106
  6.708   3.1415
  6.700   3.1312
  6.691   3.1003
  6.682   3.1003
  6.674   3.1518
  6.665   3.1621
  6.657   3.1930
  6.648   3.1827
  6.640   3.1724
  6.631   3.1106
  6.623   3.1106
  6.614   3.1003
  6.606   3.1003
  6.597   3.0797
  6.589   3.1312
  6.581   3.1106
  6.572   3.0694
  6.564   3.0591
  6.556   3.0694
  6.547   3.0179
  6.539   3.0076
  6.531   3.0282
  6.523   3.0488
  6.514   3.0797
  6.506   3.1106
  6.498   3.0694
  6.490   3.0694
  6.482   3.0282
  6.474   3.0488
  6.466   3.1209
  6.458   3.1003
  6.450   2.9973
  6.442   2.9664
  6.434   2.9870
  6.426   3.0282
  6.418   3.0282
  6.410   3.0179
  6.402   2.9767
  6.394   2.9664
  6.386   2.9355
  6.378   2.9561
  6.370   2.9561
  6.363   2.9664
  6.355   2.9149
  6.347   2.8531
  6.339   2.8531
  6.332   2.9252
  6.324   2.8943
  6.316   2.8325
  6.308   2.8016
  6.301   2.8531
  6.293   2.8428
  6.286   2.8325
  6.278   2.8531
  6.270   2.8222
  6.263   2.7398
  6.255   2.7501
  6.248   2.7810
  6.240   2.7398
  6.233   2.6471
  6.225   2.6162
  6.218   2.6368
  6.210   2.7295
  6.203   2.7707
  6.195   2.6986
  6.188   2.6677
  6.181   2.6883
  6.173   2.6883
  6.166   2.6780
  6.159   2.6780
  6.151   2.7295
  6.144   2.7398
  6.137   2.6574
  6.130   2.6265
  6.122   2.6162
  6.115   2.5647
  6.108   2.6162
  6.101   2.5956
  6.094   2.6162
  6.086   2.6368
  6.079   2.6162
  6.072   2.5853
  6.065   2.5956
  6.058   2.6265
  6.051   2.6368
  6.044   2.6162
  6.037   2.6265
  6.030   2.6162
  6.023   2.5956
  6.016   2.5956
  6.009   2.5956
  6.002   2.6368
  5.995   2.6574
  5.988   2.6574
  5.981   2.6471
  5.974   2.5647
  5.967   2.5647
  5.960   2.6265
  5.954   2.6471
  5.947   2.6265
  5.940   2.6780
  5.933   2.7192
  5.926   2.7295
  5.920   2.7810
  5.913   2.7913
  5.906   2.7810
  5.899   2.8325
  5.893   2.8325
  5.886   2.8428
  5.879   2.8737
  5.873   2.9046
  5.866   2.9252
  5.859   2.8840
  5.853   2.8943
  5.846   2.9767
  5.840   2.9870
  5.833   3.0076
  5.827   3.0179
  5.820   3.0385
  5.813   3.0179
  5.807   3.0385
  5.800   3.1312
  5.794   3.2033
  5.788   3.1827
  5.781   3.1312
  5.775   3.1209
  5.768   3.1621
  5.762   3.2239
  5.755   3.2239
  5.749   3.2239
  5.743   3.2445
  5.736   3.2342
  5.730   3.1930
  5.724   3.1621
  5.717   3.2239
  5.711   3.2857
  5.705   3.3063
  5.698   3.2960
  5.692   3.3166
  5.686   3.3063
  5.680   3.2857
  5.674   3.2857
  5.667   3.3063
  5.661   3.3166
  5.655   3.3063
  5.649   3.2754
  5.643   3.2342
  5.637   3.2239
  5.630   3.2651
  5.624   3.2960
  5.618   3.2857
  5.612   3.2342
  5.606   3.2239
  5.600   3.2445
  5.594   3.2651
  5.588   3.2548
  5.582   3.2651
  5.576   3.2857
  5.570   3.2651
  5.564   3.2548
  5.558   3.2651
  5.552   3.2445
  5.546   3.2548
  5.540   3.2754
  5.534   3.3166
  5.528   3.3784
  5.523   3.3681
  5.517   3.3784
  5.511   3.4093
  5.505   3.3887
  5.499   3.3887
  5.493   3.3990
  5.487   3.3990
  5.482   3.3990
  5.476   3.3990
  5.470   3.4299
  5.464   3.4711
  5.459   3.4608
  5.453   3.4608
  5.447   3.5226
  5.441   3.5432
  5.436   3.5123
  5.430   3.5123
  5.424   3.5123
  5.419   3.5020
  5.413   3.4917
  5.407   3.4917
  5.402   3.5123
  5.396   3.5123
  5.390   3.4505
  5.385   3.4505
  5.379   3.4608
  5.374   3.4402
  5.368   3.4196
  5.363   3.4299
  5.357   3.4299
  5.352   3.4093
  5.346   3.4299
  5.341   3.4505
  5.335   3.4299
  5.330   3.4505
  5.324   3.4299
  5.319   3.4608
  5.313   3.5226
  5.308   3.5020
  5.302   3.5123
  5.297   3.5432
  5.291   3.5020
  5.286   3.5020
  5.281   3.5432
  5.275   3.5638
  5.270   3.5741
  5.265   3.5638
  5.259   3.5638
  5.254   3.6256
  5.249   3.6359
  5.243   3.6668
  5.238   3.7183
  5.233   3.7183
  5.227   3.7492
  5.222   3.8213
  5.217   3.8316
  5.212   3.8419
  5.206   3.8316
  5.201   3.8522
  5.196   3.8934
  5.191   3.9037
  5.186   3.9140
  5.180   3.9552
  5.175   3.9861
  5.170   3.9449
  5.165   3.8934
  5.160   3.9140
  5.155   3.9552
  5.150   3.9552
  5.145   3.9861
  5.139   4.0376
  5.134   4.0067
  5.129   3.9140
  5.124   3.8728
  5.119   3.8728
  5.114   3.9552
  5.109   4.0067
  5.104   4.0067
  5.099   4.0376
  5.094   3.9861
  5.089   3.9243
  5.084   3.9449
  5.079   3.9861
  5.074   3.9449
  5.069   3.9449
  5.064   3.9346
  5.059   3.9037
  5.054   3.9243
  5.049   3.9758
  5.044   3.9758
  5.040   3.9861
  5.035   4.0273
  5.030   4.0582
  5.025   4.0376
  5.020   4.0170
  5.015   4.0170
  5.010   4.0067
  5.005   3.9758
  5.001   4.0170
  4.996   4.0273
  4.991   4.0067
  4.986   4.0788
  4.981   4.1612
  4.977   4.1406
  4.972   4.0994
  4.967   4.1097
  4.962   4.1715
  4.958   4.1921
  4.953   4.2333
  4.948   4.2333
  4.943   4.2848
  4.939   4.3466
  4.934   4.3569
  4.929   4.2951
  4.925   4.3260
  4.920   4.4599
  4.915   4.5114
  4.911   4.4702
  4.906   4.4805
  4.901   4.5526
  4.897   4.6659
  4.892   4.7483
  4.888   4.7998
  4.883   4.7998
  4.878   4.8822
  4.874   4.9543
  4.869   4.9749
  4.865   4.9749
  4.860   4.9955
  4.856   5.0264
  4.851   5.0161
  4.846   5.0161
  4.842   5.0779
  4.837   5.0985
  4.833   5.0676
  4.828   5.1088
  4.824   5.2633
  4.819   5.3560
  4.815   5.3045
  4.810   5.2633
  4.806   5.2427
  4.802   5.2633
  4.797   5.3251
  4.793   5.3148
  4.788   5.2427
  4.784   5.3045
  4.779   5.3663
  4.775   5.3869
  4.771   5.4178
  4.766   5.4075
  4.762   5.3869
  4.758   5.3972
  4.753   5.4281
  4.749   5.4590
  4.744   5.4075
  4.740   5.4281
  4.736   5.4693
  4.731   5.5105
  4.727   5.5311
  4.723   5.5105
  4.719   5.5414
  4.714   5.5929
  4.710   5.5929
  4.706   5.6444
  4.701   5.6547
  4.697   5.5414
  4.693   5.5208
  4.689   5.5414
  4.684   5.5208
  4.680   5.5311
  4.676   5.6238
  4.672   5.7371
  4.668   5.7165
  4.663   5.6753
  4.659   5.6547
  4.655   5.6856
  4.651   5.6856
  4.647   5.7371
  4.643   5.8298
  4.638   5.8710
  4.634   5.8710
  4.630   5.8813
  4.626   5.9534
  4.622   6.0049
  4.618   6.0461
  4.614   6.0564
  4.610   5.9843
  4.605   5.9843
  4.601   6.0564
  4.597   6.0976
  4.593   6.0564
  4.589   6.0667
  4.585   6.1491
  4.581   6.2006
  4.577   6.1697
  4.573   6.0976
  4.569   6.0976
  4.565   6.2006
  4.561   6.2521
  4.557   6.2418
  4.553   6.2521
  4.549   6.2521
  4.545   6.2418
  4.541   6.2830
  4.537   6.2727
  4.533   6.3139
  4.529   6.3448
  4.525   6.3242
  4.521   6.2727
  4.517   6.2212
  4.513   6.0976
  4.509   6.1079
  4.505   6.2521
  4.502   6.2624
  4.498   6.2006
  4.494   6.1594
  4.490   6.1388
  4.486   6.1800
  4.482   6.1594
  4.478   6.1697
  4.474   6.2418
  4.470   6.2418
  4.467   6.2006
  4.463   6.1800
  4.459   6.1697
  4.455   6.2418
  4.451   6.3448
  4.447   6.3036
  4.444   6.2521
  4.440   6.2418
  4.436   6.2933
  4.432   6.3757
  4.428   6.4066
  4.425   6.4787
  4.421   6.4684
  4.417   6.4787
  4.413   6.6023
  4.410   6.6332
  4.406   6.6229
  4.402   6.5920
  4.398   6.5508
  4.395   6.6538
  4.391   6.7053
  4.387   6.7053
  4.384   6.7259
  4.380   6.7362
  4.376   6.7568
  4.372   6.7568
  4.369   6.7465
  4.365   6.8495
  4.361   6.9113
  4.358   6.9319
  4.354   6.9010
  4.350   6.8701
  4.347   6.8907
  4.343   6.8701
  4.340   6.8495
  4.336   6.9319
  4.332   7.0143
  4.329   7.0555
  4.325   7.0143
  4.321   6.9628
  4.318   7.0143
  4.314   7.1379
  4.311   7.1585
  4.307   7.1482
  4.304   7.1173
  4.300   7.1173
  4.296   7.1894
  4.293   7.2409
  4.289   7.1482
  4.286   7.1791
  4.282   7.2924
  4.279   7.2512
  4.275   7.1894
  4.272   7.2203
  4.268   7.2203
  4.265   7.2306
  4.261   7.1688
  4.258   7.2203
  4.254   7.2409
  4.251   7.2615
  4.247   7.2821
  4.244   7.2306
  4.240   7.2821
  4.237   7.4366
  4.233   7.4572
  4.230   7.4469
  4.226   7.4881
  4.223   7.4881
  4.219   7.4160
  4.216   7.3748
  4.213   7.3130
  4.209   7.2409
  4.206   7.2821
  4.202   7.3645
  4.199   7.3954
  4.196   7.3336
  4.192   7.3027
  4.189   7.3130
  4.185   7.2821
  4.182   7.3130
  4.179   7.3851
  4.175   7.3748
  4.172   7.3130
  4.169   7.3233
  4.165   7.3645
  4.162   7.3851
  4.159   7.3233
  4.155   7.3645
  4.152   7.4572
  4.149   7.4778
  4.145   7.3954
  4.142   7.3954
  4.139   7.4057
  4.135   7.3748
  4.132   7.2821
  4.129   7.3542
  4.126   7.4675
  4.122   7.4984
  4.119   7.4778
  4.116   7.4572
  4.112   7.4160
  4.109   7.3748
  4.106   7.3645
  4.103   7.3851
  4.099   7.3748
  4.096   7.4469
  4.093   7.4881
  4.090   7.4778
  4.086   7.4778
  4.083   7.5602
  4.080   7.5087
  4.077   7.3851
  4.074   7.3954
  4.070   7.4572
  4.067   7.4675
  4.064   7.4366
  4.061   7.4881
  4.058   7.5602
  4.055   7.4675
  4.051   7.4572
  4.048   7.5190
  4.045   7.5499
  4.042   7.5396
  4.039   7.4778
  4.036   7.4984
  4.032   7.5396
  4.029   7.4160
  4.026   7.2821
  4.023   7.2821
  4.020   7.3542
  4.017   7.3851
  4.014   7.4160
  4.011   7.4057
  4.008   7.3645
  4.004   7.3851
  4.001   7.4572
  3.998   7.4778
  3.995   7.5190
  3.992   7.4778
  3.989   7.3851
  3.986   7.3542
  3.983   7.3542
  3.980   7.3027
  3.977   7.3233
  3.974   7.3851
  3.971   7.4057
  3.968   7.3233
  3.965   7.3027
  3.962   7.3233
  3.959   7.2821
  3.956   7.3027
  3.953   7.3851
  3.950   7.3233
  3.947   7.2409
  3.944   7.1894
  3.941   7.2924
  3.938   7.3336
  3.935   7.2409
  3.932   7.1791
  3.929   7.2306
  3.926   7.2306
  3.923   7.1997
  3.920   7.2306
  3.917   7.1894
  3.914   7.1070
  3.911   7.1482
  3.908   7.2409
  3.905   7.2409
  3.902   7.1379
  3.899   7.0967
  3.896   7.1276
  3.893   7.0967
  3.890   7.0658
  3.887   7.0761
  3.884   7.0143
  3.882   7.0143
  3.879   7.0246
  3.876   7.0349
  3.873   6.9731
  3.870   6.9319
  3.867   6.9937
  3.864   7.0246
  3.861   6.9216
  3.858   6.8495
  3.856   6.9113
  3.853   6.9319
  3.850   6.8495
  3.847   6.8186
  3.844   6.8392
  3.841   6.7980
  3.838   6.7156
  3.836   6.7568
  3.833   6.7259
  3.830   6.7774
  3.827   6.8083
  3.824   6.7671
  3.822   6.6950
  3.819   6.6641
  3.816   6.6744
  3.813   6.5920
  3.810   6.5508
  3.807   6.5817
  3.805   6.6126
  3.802   6.6229
  3.799   6.6023
  3.796   6.5611
  3.794   6.4787
  3.791   6.5405
  3.788   6.5817
  3.785   6.5611
  3.782   6.4272
  3.780   6.4272
  3.777   6.3860
  3.774   6.4066
  3.771   6.4169
  3.769   6.3860
  3.766   6.3448
  3.763   6.4169
  3.761   6.4375
  3.758   6.3860
  3.755   6.3448
  3.752   6.3139
  3.750   6.2109
  3.747   6.2109
  3.744   6.1285
  3.742   6.0255
  3.739   6.0873
  3.736   6.0976
  3.733   6.0152
  3.731   6.1182
  3.728   6.0461
  3.725   5.9019
  3.723   5.9019
  3.720   5.9534
  3.717   5.9637
  3.715   6.0049
  3.712   6.0255
  3.709   5.9328
  3.707   5.8607
  3.704   5.9019
  3.702   5.9637
  3.699   5.9637
  3.696   5.8607
  3.694   5.7577
  3.691   5.6959
  3.688   5.7474
  3.686   5.7989
  3.683   5.7165
  3.680   5.6238
  3.678   5.5826
  3.675   5.5311
  3.673   5.5414
  3.670   5.5517
  3.667   5.6135
  3.665   5.6341
  3.662   5.6341
  3.660   5.6341
  3.657   5.5517
  3.655   5.4487
  3.652   5.5105
  3.649   5.5311
  3.647   5.5311
  3.644   5.5826
  3.642   5.5414
  3.639   5.3457
  3.637   5.2530
  3.634   5.3148
  3.632   5.4281
  3.629   5.3148
  3.626   5.3354
  3.624   5.4178
  3.621   5.3251
  3.619   5.2427
  3.616   5.2633
  3.614   5.2118
  3.611   5.1706
  3.609   5.1397
  3.606   5.1603
  3.604   5.1603
  3.601   5.1809
  3.599   5.0882
  3.596   5.0573
  3.594   5.1088
  3.591   5.1809
  3.589   5.1603
  3.586   5.1191
  3.584   5.0058
