Name: Basanite
Type: Rock
Class: Igneous
Subclass: Mafic
Particle Size: Whole rock chips
Sample No.: Mewy327
Owner: Lawrence Rowan, USGS Reston
Wavelength range: 0.40 - 14.05 um
Origin: Yizriel Valley, Middle East

Description: Basanite, cut surface, Middle Miocene





Measurement: Directional Hemispherical Reflectance
First Column: X
Second Column: Y
X Units: Wavelength (micrometers)
Y Units: Reflectance (percent)
First X Value: 14.05105
Last X Value: 0.40000
Number of X Values: 2231
Additional Information: mewy327a.txt

 14.051   3.4814
 14.013   3.4505
 13.975   3.5741
 13.938   3.5947
 13.900   3.7080
 13.863   3.7080
 13.826   3.7698
 13.790   3.6771
 13.753   3.6462
 13.717   3.6153
 13.680   3.6565
 13.644   3.5741
 13.609   3.6462
 13.573   3.6977
 13.538   3.8625
 13.502   3.7801
 13.467   3.7080
 13.432   3.5741
 13.398   3.6977
 13.363   3.7389
 13.329   3.7904
 13.295   3.8522
 13.261   3.9037
 13.227   3.7595
 13.193   3.7801
 13.160   3.9037
 13.126   3.9655
 13.093   3.8625
 13.060   3.9037
 13.027   3.8934
 12.995   3.9758
 12.962   3.9552
 12.930   4.0994
 12.898   4.0582
 12.866   4.0170
 12.834   4.0582
 12.802   4.0788
 12.771   4.0376
 12.739   4.0685
 12.708   4.0582
 12.677   4.1406
 12.646   4.0994
 12.616   4.1612
 12.585   4.1509
 12.554   4.2024
 12.524   4.2436
 12.494   4.3672
 12.464   4.3672
 12.434   4.4290
 12.404   4.4805
 12.375   4.6762
 12.345   4.7792
 12.316   4.8410
 12.287   4.8307
 12.258   4.8822
 12.229   4.9955
 12.200   5.2118
 12.171   5.2324
 12.143   5.3869
 12.115   5.4693
 12.086   5.6238
 12.058   5.7371
 12.030   5.9122
 12.002   5.9843
 11.975   6.0152
 11.947   5.9946
 11.920   6.1594
 11.892   6.2315
 11.865   6.3242
 11.838   6.3448
 11.811   6.4890
 11.784   6.6126
 11.757   6.7671
 11.731   6.8907
 11.704   7.0864
 11.678   7.2306
 11.652   7.3439
 11.626   7.4160
 11.600   7.7559
 11.574   7.9928
 11.548   8.1473
 11.522   8.3121
 11.497   8.5799
 11.471   8.7344
 11.446   8.8683
 11.421   8.9404
 11.396   9.0949
 11.371   9.2494
 11.346   9.4451
 11.321   9.6099
 11.297   9.8571
 11.272   9.8571
 11.248   9.8674
 11.223  10.0837
 11.199  10.2794
 11.175  10.1867
 11.151  10.2794
 11.127  10.4339
 11.103  10.6296
 11.079  10.7841
 11.056  10.8356
 11.032  10.8459
 11.009  11.0416
 10.985  11.1137
 10.962  11.2476
 10.939  11.3609
 10.916  11.5154
 10.893  11.5154
 10.870  11.5978
 10.848  11.6390
 10.825  11.5875
 10.802  11.5463
 10.780  11.6184
 10.758  11.6287
 10.735  11.7214
 10.713  11.7214
 10.691  11.7523
 10.669  11.7420
 10.647  11.8244
 10.625  11.8141
 10.604  11.8244
 10.582  11.7935
 10.560  11.8347
 10.539  11.8656
 10.518  11.7523
 10.496  11.5875
 10.475  11.6493
 10.454  11.7008
 10.433  11.8244
 10.412  11.8862
 10.391  12.0716
 10.370  12.2673
 10.350  12.4012
 10.329  12.4733
 10.309  12.5660
 10.288  12.6484
 10.268  12.7102
 10.247  12.6793
 10.227  12.6999
 10.207  12.6690
 10.187  12.7205
 10.167  12.6793
 10.147  12.6690
 10.127  12.6278
 10.108  12.6690
 10.088  12.7205
 10.068  12.7823
 10.049  12.8544
 10.029  13.0398
 10.010  13.1428
  9.991  13.2149
  9.972  13.2149
  9.952  13.2767
  9.933  13.3488
  9.914  13.4209
  9.895  13.4724
  9.877  13.5857
  9.858  13.7093
  9.839  13.8226
  9.821  13.8329
  9.802  13.8535
  9.783  13.8947
  9.765  13.9668
  9.747  13.9771
  9.728  14.0801
  9.710  14.1213
  9.692  14.1831
  9.674  14.1419
  9.656  14.1007
  9.638  14.1419
  9.620  14.2037
  9.602  14.1316
  9.585  14.1625
  9.567  14.1213
  9.549  14.0080
  9.532  13.8638
  9.514  13.7917
  9.497  13.7917
  9.479  13.7402
  9.462  13.5033
  9.445  13.4209
  9.428  13.2664
  9.411  13.1222
  9.394  12.8956
  9.377  12.7102
  9.360  12.5042
  9.343  12.2261
  9.326  11.9377
  9.309  11.8553
  9.293  11.7832
  9.276  11.6596
  9.259  11.4124
  9.243  11.2270
  9.226  11.0107
  9.210  10.9283
  9.194  10.8150
  9.178  10.7841
  9.161  10.8459
  9.145  10.9901
  9.129  11.0313
  9.113  11.0725
  9.097  11.0416
  9.081  11.0931
  9.065  10.9901
  9.049  10.9386
  9.034  10.9180
  9.018  10.9592
  9.002  10.7532
  8.987  10.4648
  8.971  10.2588
  8.956  10.2073
  8.940  10.0425
  8.925   9.8983
  8.909   9.7026
  8.894   9.4863
  8.879   9.1258
  8.864   8.8065
  8.849   8.6623
  8.834   8.5284
  8.819   8.3224
  8.804   8.1988
  8.789   8.0340
  8.774   7.9928
  8.759   7.9825
  8.744   7.9619
  8.730   7.8074
  8.715   7.6426
  8.700   7.4469
  8.686   7.4778
  8.671   7.3954
  8.657   7.2512
  8.642   7.0864
  8.628   7.0452
  8.614   7.0349
  8.599   6.9216
  8.585   6.7980
  8.571   6.7671
  8.557   6.6847
  8.543   6.6332
  8.529   6.5199
  8.515   6.4581
  8.501   6.4169
  8.487   6.2624
  8.473   6.1697
  8.459   6.1800
  8.445   6.0152
  8.431   5.9225
  8.418   5.9328
  8.404   5.9122
  8.391   5.7062
  8.377   5.5826
  8.363   5.4693
  8.350   5.4590
  8.337   5.3663
  8.323   5.2118
  8.310   4.9955
  8.297   4.7380
  8.283   4.5114
  8.270   4.4908
  8.257   4.3466
  8.244   4.1715
  8.231   4.0170
  8.218   3.8522
  8.205   3.6565
  8.192   3.6050
  8.179   3.5123
  8.166   3.4711
  8.153   3.3475
  8.140   3.2445
  8.128   3.1518
  8.115   3.0797
  8.102   2.9561
  8.090   2.9458
  8.077   2.9664
  8.064   3.0076
  8.052   3.1003
  8.039   3.0694
  8.027   2.9664
  8.015   3.0076
  8.002   2.9458
  7.990   2.8119
  7.978   2.7604
  7.965   2.8531
  7.953   2.9252
  7.941   2.9355
  7.929   2.8634
  7.917   2.8325
  7.905   2.8428
  7.893   2.9355
  7.881   2.9252
  7.869   2.9046
  7.857   2.9046
  7.845   2.9252
  7.833   2.9149
  7.821   2.9046
  7.809   2.8325
  7.798   2.8531
  7.786   2.8325
  7.774   2.8634
  7.763   2.9561
  7.751   2.9870
  7.739   2.9458
  7.728   2.9252
  7.716   2.9149
  7.705   2.9561
  7.694   2.9664
  7.682   2.9664
  7.671   2.9149
  7.659   2.8943
  7.648   2.9046
  7.637   2.9355
  7.626   2.9458
  7.614   2.9870
  7.603   2.9355
  7.592   2.9149
  7.581   2.9458
  7.570   3.0179
  7.559   2.9767
  7.548   2.9767
  7.537   2.9767
  7.526   3.0591
  7.515   3.0797
  7.504   3.0900
  7.493   3.0591
  7.483   3.1106
  7.472   3.0797
  7.461   3.0694
  7.450   3.0591
  7.440   3.1106
  7.429   3.1621
  7.418   3.2239
  7.408   3.1930
  7.397   3.1621
  7.387   3.1724
  7.376   3.1724
  7.366   3.1209
  7.355   3.1724
  7.345   3.1518
  7.334   3.1621
  7.324   3.1518
  7.314   3.2033
  7.303   3.2342
  7.293   3.2445
  7.283   3.1827
  7.273   3.1930
  7.263   3.2136
  7.252   3.2651
  7.242   3.2033
  7.232   3.1724
  7.222   3.1621
  7.212   3.2033
  7.202   3.2445
  7.192   3.2857
  7.182   3.3475
  7.172   3.4402
  7.162   3.3784
  7.152   3.3063
  7.143   3.2857
  7.133   3.3269
  7.123   3.3578
  7.113   3.3681
  7.103   3.3372
  7.094   3.3578
  7.084   3.3990
  7.074   3.4093
  7.065   3.4299
  7.055   3.4505
  7.046   3.4505
  7.036   3.3990
  7.026   3.3887
  7.017   3.4505
  7.007   3.4608
  6.998   3.4917
  6.989   3.3887
  6.979   3.3990
  6.970   3.4711
  6.960   3.4711
  6.951   3.3990
  6.942   3.4402
  6.932   3.4814
  6.923   3.4299
  6.914   3.4196
  6.905   3.4505
  6.896   3.4505
  6.886   3.4917
  6.877   3.4711
  6.868   3.5226
  6.859   3.6256
  6.850   3.5741
  6.841   3.4299
  6.832   3.4505
  6.823   3.4402
  6.814   3.4402
  6.805   3.4196
  6.796   3.5226
  6.787   3.6050
  6.778   3.5844
  6.770   3.4814
  6.761   3.5329
  6.752   3.4814
  6.743   3.4608
  6.734   3.4402
  6.726   3.4505
  6.717   3.4711
  6.708   3.4814
  6.700   3.4608
  6.691   3.4196
  6.682   3.4505
  6.674   3.5432
  6.665   3.5020
  6.657   3.4917
  6.648   3.5123
  6.640   3.6153
  6.631   3.6462
  6.623   3.5535
  6.614   3.5123
  6.606   3.5123
  6.597   3.4917
  6.589   3.5741
  6.581   3.5741
  6.572   3.6050
  6.564   3.6153
  6.556   3.5432
  6.547   3.5123
  6.539   3.5020
  6.531   3.5020
  6.523   3.5329
  6.514   3.5432
  6.506   3.5020
  6.498   3.4814
  6.490   3.5432
  6.482   3.5638
  6.474   3.5741
  6.466   3.4608
  6.458   3.4299
  6.450   3.4917
  6.442   3.4917
  6.434   3.5123
  6.426   3.5329
  6.418   3.5020
  6.410   3.6462
  6.402   3.5844
  6.394   3.4299
  6.386   3.3990
  6.378   3.4505
  6.370   3.4917
  6.363   3.4608
  6.355   3.3887
  6.347   3.4196
  6.339   3.4814
  6.332   3.5123
  6.324   3.4917
  6.316   3.4299
  6.308   3.3784
  6.301   3.4093
  6.293   3.3681
  6.286   3.3681
  6.278   3.4093
  6.270   3.4093
  6.263   3.3269
  6.255   3.3063
  6.248   3.3063
  6.240   3.3269
  6.233   3.3372
  6.225   3.3475
  6.218   3.3269
  6.210   3.3166
  6.203   3.3372
  6.195   3.2960
  6.188   3.2445
  6.181   3.2445
  6.173   3.1724
  6.166   3.1827
  6.159   3.2239
  6.151   3.2033
  6.144   3.1312
  6.137   3.1827
  6.130   3.1724
  6.122   3.1106
  6.115   3.1518
  6.108   3.2136
  6.101   3.2033
  6.094   3.1724
  6.086   3.1106
  6.079   3.0591
  6.072   3.1106
  6.065   3.1209
  6.058   3.0591
  6.051   3.1930
  6.044   3.3681
  6.037   3.2342
  6.030   3.1106
  6.023   3.1209
  6.016   3.1621
  6.009   3.1415
  6.002   3.1312
  5.995   3.2136
  5.988   3.2445
  5.981   3.2548
  5.974   3.2239
  5.967   3.2651
  5.960   3.3063
  5.954   3.3063
  5.947   3.3269
  5.940   3.3990
  5.933   3.5226
  5.926   3.5329
  5.920   3.4196
  5.913   3.4196
  5.906   3.4608
  5.899   3.5535
  5.893   3.6462
  5.886   3.6050
  5.879   3.6462
  5.873   3.6462
  5.866   3.5123
  5.859   3.5844
  5.853   3.6462
  5.846   3.6668
  5.840   3.6977
  5.833   3.7389
  5.827   3.7595
  5.820   3.8007
  5.813   3.7492
  5.807   3.7389
  5.800   3.7183
  5.794   3.6977
  5.788   3.6771
  5.781   3.7595
  5.775   3.8316
  5.768   3.8419
  5.762   3.8419
  5.755   3.8007
  5.749   3.7595
  5.743   3.8522
  5.736   3.8728
  5.730   3.8213
  5.724   3.7801
  5.717   3.8110
  5.711   3.8316
  5.705   3.8625
  5.698   3.8522
  5.692   3.8213
  5.686   3.8316
  5.680   3.8522
  5.674   3.8831
  5.667   3.8934
  5.661   3.8625
  5.655   3.9037
  5.649   3.8831
  5.643   3.8419
  5.637   3.9140
  5.630   3.9552
  5.624   3.9140
  5.618   3.8625
  5.612   3.8728
  5.606   3.9243
  5.600   3.9037
  5.594   3.8934
  5.588   3.8728
  5.582   3.8831
  5.576   3.9140
  5.570   3.9758
  5.564   3.9655
  5.558   3.9552
  5.552   3.9346
  5.546   3.9346
  5.540   3.9861
  5.534   3.9964
  5.528   4.0273
  5.523   4.0479
  5.517   4.0273
  5.511   3.9964
  5.505   3.9655
  5.499   3.9964
  5.493   4.0067
  5.487   3.9964
  5.482   4.0376
  5.476   4.0891
  5.470   4.0891
  5.464   4.0994
  5.459   4.1097
  5.453   4.1097
  5.447   4.0994
  5.441   4.0891
  5.436   4.0582
  5.430   4.0582
  5.424   4.0685
  5.419   4.1200
  5.413   4.1612
  5.407   4.1200
  5.402   4.0994
  5.396   4.1303
  5.390   4.1818
  5.385   4.2230
  5.379   4.1509
  5.374   4.1097
  5.368   4.1406
  5.363   4.1303
  5.357   4.1612
  5.352   4.1715
  5.346   4.1612
  5.341   4.1612
  5.335   4.1406
  5.330   4.1818
  5.324   4.2230
  5.319   4.2436
  5.313   4.2436
  5.308   4.2539
  5.302   4.2127
  5.297   4.1509
  5.291   4.1200
  5.286   4.1715
  5.281   4.1509
  5.275   4.1303
  5.270   4.2230
  5.265   4.2539
  5.259   4.2436
  5.254   4.2230
  5.249   4.2024
  5.243   4.1921
  5.238   4.2436
  5.233   4.2951
  5.227   4.2951
  5.222   4.3363
  5.217   4.3260
  5.212   4.2951
  5.206   4.2333
  5.201   4.1715
  5.196   4.2024
  5.191   4.2230
  5.186   4.2230
  5.180   4.2333
  5.175   4.2745
  5.170   4.2951
  5.165   4.2848
  5.160   4.2951
  5.155   4.3054
  5.150   4.2951
  5.145   4.2848
  5.139   4.2951
  5.134   4.3157
  5.129   4.2642
  5.124   4.2024
  5.119   4.2951
  5.114   4.3569
  5.109   4.2848
  5.104   4.2642
  5.099   4.3157
  5.094   4.3569
  5.089   4.3054
  5.084   4.2951
  5.079   4.3260
  5.074   4.3054
  5.069   4.2745
  5.064   4.2848
  5.059   4.3054
  5.054   4.3157
  5.049   4.3157
  5.044   4.2951
  5.040   4.2642
  5.035   4.2745
  5.030   4.3054
  5.025   4.3466
  5.020   4.3157
  5.015   4.3054
  5.010   4.3363
  5.005   4.3569
  5.001   4.3672
  4.996   4.3569
  4.991   4.3260
  4.986   4.3054
  4.981   4.3054
  4.977   4.3260
  4.972   4.3466
  4.967   4.3569
  4.962   4.3569
  4.958   4.3260
  4.953   4.3260
  4.948   4.3260
  4.943   4.3363
  4.939   4.3363
  4.934   4.3569
  4.929   4.3878
  4.925   4.4290
  4.920   4.3775
  4.915   4.3981
  4.911   4.4187
  4.906   4.3569
  4.901   4.3569
  4.897   4.3466
  4.892   4.3260
  4.888   4.3466
  4.883   4.3878
  4.878   4.4496
  4.874   4.4393
  4.869   4.4290
  4.865   4.4187
  4.860   4.4290
  4.856   4.4702
  4.851   4.4805
  4.846   4.4702
  4.842   4.4599
  4.837   4.4290
  4.833   4.3981
  4.828   4.3878
  4.824   4.3981
  4.819   4.4599
  4.815   4.5217
  4.810   4.5011
  4.806   4.4084
  4.802   4.3363
  4.797   4.3466
  4.793   4.4393
  4.788   4.4599
  4.784   4.4805
  4.779   4.4805
  4.775   4.4290
  4.771   4.4393
  4.766   4.4805
  4.762   4.4805
  4.758   4.4702
  4.753   4.4908
  4.749   4.4805
  4.744   4.4702
  4.740   4.5011
  4.736   4.5011
  4.731   4.5114
  4.727   4.5011
  4.723   4.5320
  4.719   4.5526
  4.714   4.5011
  4.710   4.4393
  4.706   4.4393
  4.701   4.5011
  4.697   4.5114
  4.693   4.5114
  4.689   4.5011
  4.684   4.4908
  4.680   4.4599
  4.676   4.5011
  4.672   4.6041
  4.668   4.6453
  4.663   4.5320
  4.659   4.5423
  4.655   4.5938
  4.651   4.5629
  4.647   4.5526
  4.643   4.6041
  4.638   4.6762
  4.634   4.6453
  4.630   4.6350
  4.626   4.5732
  4.622   4.5217
  4.618   4.5526
  4.614   4.5320
  4.610   4.5835
  4.605   4.6350
  4.601   4.5732
  4.597   4.5835
  4.593   4.5938
  4.589   4.5629
  4.585   4.6041
  4.581   4.6144
  4.577   4.6144
  4.573   4.6453
  4.569   4.6350
  4.565   4.5732
  4.561   4.5732
  4.557   4.6144
  4.553   4.6556
  4.549   4.6350
  4.545   4.5526
  4.541   4.6041
  4.537   4.6968
  4.533   4.6453
  4.529   4.7483
  4.525   4.9131
  4.521   4.8101
  4.517   4.6762
  4.513   4.6762
  4.509   4.6968
  4.505   4.6968
  4.502   4.7174
  4.498   4.7277
  4.494   4.6762
  4.490   4.6865
  4.486   4.6762
  4.482   4.7277
  4.478   4.7998
  4.474   4.7586
  4.470   4.7689
  4.467   4.8101
  4.463   4.7277
  4.459   4.6762
  4.455   4.7792
  4.451   4.8307
  4.447   4.7380
  4.444   4.6865
  4.440   4.6865
  4.436   4.6659
  4.432   4.7071
  4.428   4.7174
  4.425   4.7174
  4.421   4.8101
  4.417   4.8513
  4.413   4.8101
  4.410   4.8204
  4.406   4.8101
  4.402   4.8204
  4.398   4.7998
  4.395   4.7792
  4.391   4.7483
  4.387   4.7380
  4.384   4.7689
  4.380   4.7071
  4.376   4.6865
  4.372   4.8513
  4.369   4.8513
  4.365   4.7071
  4.361   4.6968
  4.358   4.7689
  4.354   4.7689
  4.350   4.7689
  4.347   4.7792
  4.343   4.7895
  4.340   4.7483
  4.336   4.7792
  4.332   4.8616
  4.329   4.8307
  4.325   4.6968
  4.321   4.6968
  4.318   4.7998
  4.314   4.8513
  4.311   4.8307
  4.307   4.7483
  4.304   4.6968
  4.300   4.7380
  4.296   4.8719
  4.293   4.9440
  4.289   4.8925
  4.286   4.7895
  4.282   4.7792
  4.279   4.8101
  4.275   4.7998
  4.272   4.7998
  4.268   4.8925
  4.265   4.9543
  4.261   4.9646
  4.258   4.8925
  4.254   4.7895
  4.251   4.7895
  4.247   4.7380
  4.244   4.7380
  4.240   4.8101
  4.237   4.8513
  4.233   4.8101
  4.230   4.8719
  4.226   4.9749
  4.223   4.9543
  4.219   4.9028
  4.216   4.8616
  4.213   4.8307
  4.209   4.8719
  4.206   4.9234
  4.202   4.9131
  4.199   4.8307
  4.196   4.7483
  4.192   4.7380
  4.189   4.7380
  4.185   4.7998
  4.182   4.8204
  4.179   4.7689
  4.175   4.7998
  4.172   4.8101
  4.169   4.8410
  4.165   4.9234
  4.162   4.9646
  4.159   4.8925
  4.155   4.8307
  4.152   4.7998
  4.149   4.7998
  4.145   4.7586
  4.142   4.7483
  4.139   4.7689
  4.135   4.7792
  4.132   4.8410
  4.129   4.8307
  4.126   4.7689
  4.122   4.7689
  4.119   4.7998
  4.116   4.8410
  4.112   4.7998
  4.109   4.7586
  4.106   4.7071
  4.103   4.7998
  4.099   4.8719
  4.096   4.7689
  4.093   4.7380
  4.090   4.7792
  4.086   4.7998
  4.083   4.8204
  4.080   4.8410
  4.077   4.8307
  4.074   4.9234
  4.070   4.9749
  4.067   4.8925
  4.064   4.9028
  4.061   4.8616
  4.058   4.8410
  4.055   4.7792
  4.051   4.7998
  4.048   4.8204
  4.045   4.8101
  4.042   4.7998
  4.039   4.8410
  4.036   4.8513
  4.032   4.8925
  4.029   4.9955
  4.026   4.9131
  4.023   4.7792
  4.020   4.7792
  4.017   4.7895
  4.014   4.7586
  4.011   4.7277
  4.008   4.8204
  4.004   4.9028
  4.001   4.9234
  3.998   4.8822
  3.995   4.7895
  3.992   4.7277
  3.989   4.7277
  3.986   4.7895
  3.983   4.8822
  3.980   4.8925
  3.977   4.8307
  3.974   4.8410
  3.971   4.8822
  3.968   4.8410
  3.965   4.8307
  3.962   4.8410
  3.959   4.8616
  3.956   4.8204
  3.953   4.8616
  3.950   4.8204
  3.947   4.6968
  3.944   4.6968
  3.941   4.8513
  3.938   4.9543
  3.935   4.9440
  3.932   4.8204
  3.929   4.7071
  3.926   4.6968
  3.923   4.8101
  3.920   4.9234
  3.917   4.9543
  3.914   4.9234
  3.911   4.9131
  3.908   4.7380
  3.905   4.6453
  3.902   4.7895
  3.899   4.8616
  3.896   4.7380
  3.893   4.8513
  3.890   4.9131
  3.887   4.7689
  3.884   4.7277
  3.882   4.7174
  3.879   4.7380
  3.876   4.8410
  3.873   4.9028
  3.870   4.8307
  3.867   4.7895
  3.864   4.7895
  3.861   4.7483
  3.858   4.7380
  3.856   4.6968
  3.853   4.7792
  3.850   4.7895
  3.847   4.7689
  3.844   4.7998
  3.841   4.8204
  3.838   4.7895
  3.836   4.8204
  3.833   4.7895
  3.830   4.7586
  3.827   4.7792
  3.824   4.8101
  3.822   4.7792
  3.819   4.7380
  3.816   4.7071
  3.813   4.7277
  3.810   4.8101
  3.807   4.7895
  3.805   4.7071
  3.802   4.6762
  3.799   4.6556
  3.796   4.6762
  3.794   4.7586
  3.791   4.9131
  3.788   4.9543
  3.785   4.8719
  3.782   4.8410
  3.780   4.8925
  3.777   4.8410
  3.774   4.6865
  3.771   4.7071
  3.769   4.8513
  3.766   4.8513
  3.763   4.7277
  3.761   4.6865
  3.758   4.7895
  3.755   4.7998
  3.752   4.8101
  3.750   4.7689
  3.747   4.7792
  3.744   4.8719
  3.742   4.8925
  3.739   4.7792
  3.736   4.7071
  3.733   4.6865
  3.731   4.7483
  3.728   4.7483
  3.725   4.7586
  3.723   4.8101
  3.720   4.7998
  3.717   4.7998
  3.715   4.8101
  3.712   4.7586
  3.709   4.7174
  3.707   4.7380
  3.704   4.7998
  3.702   4.7792
  3.699   4.8410
  3.696   4.8307
  3.694   4.7277
  3.691   4.7792
  3.688   4.7998
  3.686   4.8101
  3.683   4.7380
  3.680   4.7174
  3.678   4.7174
  3.675   4.6865
  3.673   4.6865
  3.670   4.7174
  3.667   4.7998
  3.665   4.8101
  3.662   4.7586
  3.660   4.7277
  3.657   4.7689
  3.655   4.7998
  3.652   4.8307
  3.649   4.8410
  3.647   4.8101
  3.644   4.7483
  3.642   4.7586
  3.639   4.7689
  3.637   4.7277
  3.634   4.6144
  3.632   4.6453
  3.629   4.7483
  3.626   4.8410
  3.624   4.8616
  3.621   4.8410
  3.619   4.6865
  3.616   4.5835
  3.614   4.6144
  3.611   4.7174
  3.609   4.7174
  3.606   4.8101
  3.604   4.8616
  3.601   4.7483
  3.599   4.6659
  3.596   4.6762
  3.594   4.7586
  3.591   4.9131
  3.589   4.7895
  3.586   4.6865
  3.584   4.6659
  3.581   4.6350
