Name: Rhyolite
Type: Rock
Class: Igneous
Subclass: Felsic
Particle Size: Whole Rock Chips
Sample No.: AP-938-90
Owner: United States Geological Survey, L. C. Rowan
Wavelength range: 0.405 - 14.05 um
Origin: Iberian Pyrite Belt, Spain

Description: Rhyolite, fine silicified





Measurement: Directional Hemispherical Reflectance
First Column: X
Second Column: Y
X Units: Wavelength (micrometers)
Y Units: Reflectance (percent)
First X Value: 14.05105
Last X Value: 0.40500
Number of X Values: 2530
Additional Information: rhy90a.txt

 14.051   1.7201
 14.013   1.6892
 13.975   1.7613
 13.938   1.7098
 13.900   1.6995
 13.863   1.8334
 13.826   1.9570
 13.790   1.9055
 13.753   2.0291
 13.717   2.0497
 13.680   2.0600
 13.644   1.9982
 13.609   1.9673
 13.573   1.9879
 13.538   2.1424
 13.502   2.2351
 13.467   2.3690
 13.432   2.3484
 13.398   2.2763
 13.363   2.1527
 13.329   2.1733
 13.295   2.1321
 13.261   2.1012
 13.227   2.1115
 13.193   2.2660
 13.160   2.3484
 13.126   2.3484
 13.093   2.2763
 13.060   2.2866
 13.027   2.2866
 12.995   2.4308
 12.962   2.5132
 12.930   2.4720
 12.898   2.4617
 12.866   2.5750
 12.834   2.5235
 12.802   2.5441
 12.771   2.5647
 12.739   2.5956
 12.708   2.4823
 12.677   2.4720
 12.646   2.4411
 12.616   2.4411
 12.585   2.3278
 12.554   2.2969
 12.524   2.3175
 12.494   2.4411
 12.464   2.4205
 12.434   2.4102
 12.404   2.2969
 12.375   2.3175
 12.345   2.2660
 12.316   2.2248
 12.287   2.1321
 12.258   2.1012
 12.229   2.1115
 12.200   2.2969
 12.171   2.3999
 12.143   2.4926
 12.115   2.4823
 12.086   2.5441
 12.058   2.6265
 12.030   2.7192
 12.002   2.6574
 11.975   2.7089
 11.947   2.8428
 11.920   2.9458
 11.892   2.9458
 11.865   3.0694
 11.838   3.1312
 11.811   3.1827
 11.784   3.1518
 11.757   3.2857
 11.731   3.3269
 11.704   3.3578
 11.678   3.3990
 11.652   3.4608
 11.626   3.4402
 11.600   3.5432
 11.574   3.5432
 11.548   3.5844
 11.522   3.6153
 11.497   3.7080
 11.471   3.7389
 11.446   3.7801
 11.421   3.7595
 11.396   3.8110
 11.371   3.7286
 11.346   3.8007
 11.321   3.8522
 11.297   3.8831
 11.272   3.9140
 11.248   4.0479
 11.223   4.1200
 11.199   4.2333
 11.175   4.2436
 11.151   4.2642
 11.127   4.2642
 11.103   4.3878
 11.079   4.4599
 11.056   4.5320
 11.032   4.5732
 11.009   4.5732
 10.985   4.6865
 10.962   4.7277
 10.939   4.6144
 10.916   4.4805
 10.893   4.2951
 10.870   4.1406
 10.848   4.0067
 10.825   3.9552
 10.802   3.8316
 10.780   3.7492
 10.758   3.6359
 10.735   3.7080
 10.713   3.7492
 10.691   3.7698
 10.669   3.8007
 10.647   3.7595
 10.625   3.7183
 10.604   3.7698
 10.582   3.7698
 10.560   3.8522
 10.539   3.8625
 10.518   3.9552
 10.496   4.0376
 10.475   4.0685
 10.454   4.0891
 10.433   4.2539
 10.412   4.4084
 10.391   4.5320
 10.370   4.5835
 10.350   4.6968
 10.329   4.8410
 10.309   4.9646
 10.288   5.0779
 10.268   5.2942
 10.247   5.4384
 10.227   5.6753
 10.207   5.8401
 10.187   5.9843
 10.167   6.1182
 10.147   6.3036
 10.127   6.3757
 10.108   6.4993
 10.088   6.6435
 10.068   6.9422
 10.049   7.2615
 10.029   7.5396
 10.010   7.6529
  9.991   7.8898
  9.972   8.1370
  9.952   8.3945
  9.933   8.5902
  9.914   8.7035
  9.895   8.7138
  9.877   8.7138
  9.858   8.6005
  9.839   8.4254
  9.821   8.2606
  9.802   8.1988
  9.783   8.2194
  9.765   8.4254
  9.747   8.7241
  9.728   9.1258
  9.710   9.5893
  9.692  10.0219
  9.674  10.3824
  9.656  10.7326
  9.638  11.1343
  9.620  11.5257
  9.602  11.5772
  9.585  11.6596
  9.567  11.7420
  9.549  11.7729
  9.532  11.7420
  9.514  11.6802
  9.497  11.6390
  9.479  11.6596
  9.462  11.5257
  9.445  11.3197
  9.428  11.1137
  9.411  10.9798
  9.394  10.8768
  9.377  10.8150
  9.360  10.6502
  9.343  10.5884
  9.326  10.4957
  9.309  10.3103
  9.293  10.0631
  9.276  10.0116
  9.259   9.8880
  9.243   9.7129
  9.226   9.4863
  9.210   9.3009
  9.194   9.1464
  9.178   8.9610
  9.161   8.7550
  9.145   8.6211
  9.129   8.2915
  9.113   7.9516
  9.097   7.6838
  9.081   7.4366
  9.065   7.0658
  9.049   6.7774
  9.034   6.3963
  9.018   6.1182
  9.002   5.9637
  8.987   5.9431
  8.971   5.9637
  8.956   6.1491
  8.940   6.3963
  8.925   6.6435
  8.909   6.8083
  8.894   7.0246
  8.879   7.0246
  8.864   7.0040
  8.849   6.9113
  8.834   6.7877
  8.819   6.6023
  8.804   6.4684
  8.789   6.3139
  8.774   6.1285
  8.759   5.8298
  8.744   5.6753
  8.730   5.4590
  8.715   5.3663
  8.700   5.1809
  8.686   4.9955
  8.671   4.8719
  8.657   4.6865
  8.642   4.4187
  8.628   4.2745
  8.614   4.1509
  8.599   4.1715
  8.585   4.3157
  8.571   4.4496
  8.557   4.4393
  8.543   4.4702
  8.529   4.4290
  8.515   4.3775
  8.501   4.3569
  8.487   4.3878
  8.473   4.3157
  8.459   4.3157
  8.445   4.3569
  8.431   4.3775
  8.418   4.3054
  8.404   4.3672
  8.391   4.3775
  8.377   4.3775
  8.363   4.3054
  8.350   4.3466
  8.337   4.3569
  8.323   4.4084
  8.310   4.4496
  8.297   4.4496
  8.283   4.3466
  8.270   4.3672
  8.257   4.4187
  8.244   4.4805
  8.231   4.4702
  8.218   4.5011
  8.205   4.5114
  8.192   4.5217
  8.179   4.4908
  8.166   4.4290
  8.153   4.2436
  8.140   4.2024
  8.128   4.0994
  8.115   3.9243
  8.102   3.7492
  8.090   3.5741
  8.077   3.4093
  8.064   3.3475
  8.052   3.2548
  8.039   3.2136
  8.027   3.1106
  8.015   3.0076
  8.002   2.9458
  7.990   2.9149
  7.978   2.8325
  7.965   2.7707
  7.953   2.6780
  7.941   2.6059
  7.929   2.5441
  7.917   2.5029
  7.905   2.3999
  7.893   2.3381
  7.881   2.2248
  7.869   2.1733
  7.857   2.1321
  7.845   2.0909
  7.833   2.0188
  7.821   2.0085
  7.809   1.9982
  7.798   2.0394
  7.786   2.0188
  7.774   2.0188
  7.763   2.0188
  7.751   1.9879
  7.739   1.8746
  7.728   1.8231
  7.716   1.7922
  7.705   1.8540
  7.694   1.9158
  7.682   1.8540
  7.671   1.7407
  7.659   1.7407
  7.648   1.7201
  7.637   1.7819
  7.626   1.8025
  7.614   1.7716
  7.603   1.6995
  7.592   1.6789
  7.581   1.6480
  7.570   1.6377
  7.559   1.5759
  7.548   1.6068
  7.537   1.5656
  7.526   1.5450
  7.515   1.5347
  7.504   1.5656
  7.493   1.5759
  7.483   1.6171
  7.472   1.5965
  7.461   1.5965
  7.450   1.5965
  7.440   1.5759
  7.429   1.5450
  7.418   1.5450
  7.408   1.5038
  7.397   1.5656
  7.387   1.6171
  7.376   1.5965
  7.366   1.5141
  7.355   1.4832
  7.345   1.5244
  7.334   1.5862
  7.324   1.5656
  7.314   1.4935
  7.303   1.4523
  7.293   1.4935
  7.283   1.5347
  7.273   1.5553
  7.263   1.5759
  7.252   1.6171
  7.242   1.5450
  7.232   1.5038
  7.222   1.5450
  7.212   1.5965
  7.202   1.5759
  7.192   1.5862
  7.182   1.5553
  7.172   1.5553
  7.162   1.5141
  7.152   1.5347
  7.143   1.5759
  7.133   1.6171
  7.123   1.5862
  7.113   1.5862
  7.103   1.5656
  7.094   1.5553
  7.084   1.5347
  7.074   1.5862
  7.065   1.5347
  7.055   1.5038
  7.046   1.4832
  7.036   1.5141
  7.026   1.5347
  7.017   1.5656
  7.007   1.5141
  6.998   1.5038
  6.989   1.4832
  6.979   1.5347
  6.970   1.5965
  6.960   1.5862
  6.951   1.5038
  6.942   1.5347
  6.932   1.5347
  6.923   1.5862
  6.914   1.5450
  6.905   1.5553
  6.896   1.5450
  6.886   1.5759
  6.877   1.5759
  6.868   1.5965
  6.859   1.6171
  6.850   1.6789
  6.841   1.6789
  6.832   1.6892
  6.823   1.6892
  6.814   1.6995
  6.805   1.7098
  6.796   1.7407
  6.787   1.7510
  6.778   1.7819
  6.770   1.8025
  6.761   1.8437
  6.752   1.8334
  6.743   1.8643
  6.734   1.8849
  6.726   1.9158
  6.717   1.9261
  6.708   1.9673
  6.700   1.9261
  6.691   1.9055
  6.682   1.8952
  6.674   1.9158
  6.665   1.9364
  6.657   2.0085
  6.648   2.0188
  6.640   2.0188
  6.631   1.9673
  6.623   1.9982
  6.614   1.9776
  6.606   1.9982
  6.597   1.9673
  6.589   1.9879
  6.581   2.0600
  6.572   2.0909
  6.564   2.0188
  6.556   1.9467
  6.547   1.9055
  6.539   1.9570
  6.531   1.9158
  6.523   1.9364
  6.514   1.9982
  6.506   2.0085
  6.498   2.0291
  6.490   2.0291
  6.482   2.0085
  6.474   2.0291
  6.466   2.0188
  6.458   2.0291
  6.450   2.0291
  6.442   2.0497
  6.434   2.0394
  6.426   2.0497
  6.418   2.0703
  6.410   2.1012
  6.402   2.1424
  6.394   2.1836
  6.386   2.1321
  6.378   2.0909
  6.370   2.1012
  6.363   2.1321
  6.355   2.1012
  6.347   2.1115
  6.339   2.1424
  6.332   2.1321
  6.324   2.1218
  6.316   2.1218
  6.308   2.0394
  6.301   2.0909
  6.293   2.1424
  6.286   2.1939
  6.278   2.1939
  6.270   2.1527
  6.263   2.0497
  6.255   2.0394
  6.248   2.0703
  6.240   2.0703
  6.233   2.0600
  6.225   2.0703
  6.218   1.9982
  6.210   1.9467
  6.203   1.9467
  6.195   1.9879
  6.188   1.9673
  6.181   1.9261
  6.173   1.8952
  6.166   1.9364
  6.159   1.9364
  6.151   1.8849
  6.144   1.8128
  6.137   1.8849
  6.130   1.9158
  6.122   1.8952
  6.115   1.8540
  6.108   1.8334
  6.101   1.7716
  6.094   1.8128
  6.086   1.8334
  6.079   1.8437
  6.072   1.8128
  6.065   1.7922
  6.058   1.7510
  6.051   1.7510
  6.044   1.7613
  6.037   1.8540
  6.030   1.8334
  6.023   1.8334
  6.016   1.8334
  6.009   1.8334
  6.002   1.8437
  5.995   1.9055
  5.988   1.8952
  5.981   1.8952
  5.974   1.8952
  5.967   1.9261
  5.960   1.9776
  5.954   1.9982
  5.947   1.9982
  5.940   1.9776
  5.933   1.9673
  5.926   1.9879
  5.920   1.9879
  5.913   2.0291
  5.906   2.0909
  5.899   2.1424
  5.893   2.1733
  5.886   2.2557
  5.879   2.2454
  5.873   2.2454
  5.866   2.2969
  5.859   2.3484
  5.853   2.3690
  5.846   2.3587
  5.840   2.3175
  5.833   2.3484
  5.827   2.4308
  5.820   2.4926
  5.813   2.4617
  5.807   2.4823
  5.800   2.5029
  5.794   2.5441
  5.788   2.5853
  5.781   2.5338
  5.775   2.5029
  5.768   2.6059
  5.762   2.6368
  5.755   2.5853
  5.749   2.5853
  5.743   2.6574
  5.736   2.6780
  5.730   2.6986
  5.724   2.7192
  5.717   2.7501
  5.711   2.7192
  5.705   2.7398
  5.698   2.8222
  5.692   2.9252
  5.686   2.9252
  5.680   2.9252
  5.674   2.9252
  5.667   2.9458
  5.661   2.9561
  5.655   2.9664
  5.649   2.9561
  5.643   3.0076
  5.637   3.0282
  5.630   3.0385
  5.624   2.9870
  5.618   3.0282
  5.612   3.0385
  5.606   3.0591
  5.600   3.0282
  5.594   3.0076
  5.588   3.0179
  5.582   3.0385
  5.576   3.0282
  5.570   3.0900
  5.564   3.1209
  5.558   3.1106
  5.552   3.0797
  5.546   3.1106
  5.540   3.1415
  5.534   3.1415
  5.528   3.1003
  5.523   3.1003
  5.517   3.1209
  5.511   3.1621
  5.505   3.1724
  5.499   3.1827
  5.493   3.1930
  5.487   3.2342
  5.482   3.2136
  5.476   3.2445
  5.470   3.2548
  5.464   3.3063
  5.459   3.3475
  5.453   3.4093
  5.447   3.3887
  5.441   3.3578
  5.436   3.3475
  5.430   3.4093
  5.424   3.3990
  5.419   3.3681
  5.413   3.3887
  5.407   3.4299
  5.402   3.3990
  5.396   3.3990
  5.390   3.3784
  5.385   3.3681
  5.379   3.3578
  5.374   3.3681
  5.368   3.3475
  5.363   3.3269
  5.357   3.2960
  5.352   3.3269
  5.346   3.3372
  5.341   3.3578
  5.335   3.3578
  5.330   3.3784
  5.324   3.3784
  5.319   3.3887
  5.313   3.3990
  5.308   3.4505
  5.302   3.4917
  5.297   3.5020
  5.291   3.4917
  5.286   3.5432
  5.281   3.5329
  5.275   3.5020
  5.270   3.5020
  5.265   3.5947
  5.259   3.6359
  5.254   3.6565
  5.249   3.6874
  5.243   3.6977
  5.238   3.6977
  5.233   3.7492
  5.227   3.7801
  5.222   3.8419
  5.217   3.8728
  5.212   3.9449
  5.206   3.9243
  5.201   3.9655
  5.196   3.9964
  5.191   3.9449
  5.186   3.9655
  5.180   4.0170
  5.175   4.0067
  5.170   4.0376
  5.165   4.0582
  5.160   4.0582
  5.155   4.0273
  5.150   4.0685
  5.145   4.1097
  5.139   4.1509
  5.134   4.1715
  5.129   4.2024
  5.124   4.1921
  5.119   4.1715
  5.114   4.1818
  5.109   4.1612
  5.104   4.1921
  5.099   4.2745
  5.094   4.3054
  5.089   4.3569
  5.084   4.3466
  5.079   4.3466
  5.074   4.3157
  5.069   4.2951
  5.064   4.2848
  5.059   4.3260
  5.054   4.3672
  5.049   4.3775
  5.044   4.3569
  5.040   4.3775
  5.035   4.3775
  5.030   4.4496
  5.025   4.4599
  5.020   4.4805
  5.015   4.5217
  5.010   4.5217
  5.005   4.5217
  5.001   4.5526
  4.996   4.5423
  4.991   4.6144
  4.986   4.6556
  4.981   4.6762
  4.977   4.7071
  4.972   4.7483
  4.967   4.7998
  4.962   4.9131
  4.958   4.9852
  4.953   5.0367
  4.948   5.0264
  4.943   5.0161
  4.939   5.0058
  4.934   5.1500
  4.929   5.2324
  4.925   5.2633
  4.920   5.2736
  4.915   5.2530
  4.911   5.2839
  4.906   5.3560
  4.901   5.4899
  4.897   5.6444
  4.892   5.6753
  4.888   5.6959
  4.883   5.8298
  4.878   5.9946
  4.874   6.0667
  4.869   6.1182
  4.865   6.1800
  4.860   6.2933
  4.856   6.3654
  4.851   6.4066
  4.846   6.4684
  4.842   6.5405
  4.837   6.5714
  4.833   6.6641
  4.828   6.7156
  4.824   6.7774
  4.819   6.7980
  4.815   6.8907
  4.810   6.9216
  4.806   6.9010
  4.802   6.9216
  4.797   6.9216
  4.793   6.9010
  4.788   6.9216
  4.784   6.8907
  4.779   6.9113
  4.775   6.9525
  4.771   6.9834
  4.766   7.0040
  4.762   7.1070
  4.758   7.1379
  4.753   7.1482
  4.749   7.1585
  4.744   7.2718
  4.740   7.3027
  4.736   7.3748
  4.731   7.4366
  4.727   7.4984
  4.723   7.4984
  4.719   7.5499
  4.714   7.5190
  4.710   7.5087
  4.706   7.5808
  4.701   7.7044
  4.697   7.6941
  4.693   7.6941
  4.689   7.6529
  4.684   7.6323
  4.680   7.5911
  4.676   7.6220
  4.672   7.7147
  4.668   7.7765
  4.663   7.7868
  4.659   7.8589
  4.655   7.9104
  4.651   8.0546
  4.647   8.1576
  4.643   8.2091
  4.638   8.2400
  4.634   8.3121
  4.630   8.4048
  4.626   8.5284
  4.622   8.6211
  4.618   8.7241
  4.614   8.7550
  4.610   8.8889
  4.605   8.9610
  4.601   9.0022
  4.597   9.0640
  4.593   9.1773
  4.589   9.2288
  4.585   9.2700
  4.581   9.3318
  4.577   9.4245
  4.573   9.4451
  4.569   9.4863
  4.565   9.5584
  4.561   9.6614
  4.557   9.6408
  4.553   9.6408
  4.549   9.6511
  4.545   9.6820
  4.541   9.7335
  4.537   9.7232
  4.533   9.7335
  4.529   9.8056
  4.525   9.7850
  4.521   9.7541
  4.517   9.7026
  4.513   9.6511
  4.509   9.5893
  4.505   9.5687
  4.502   9.5584
  4.498   9.5481
  4.494   9.5275
  4.490   9.5172
  4.486   9.4657
  4.482   9.4863
  4.478   9.4451
  4.474   9.4451
  4.470   9.5275
  4.467   9.5378
  4.463   9.5378
  4.459   9.5687
  4.455   9.5996
  4.451   9.6511
  4.447   9.8159
  4.444   9.9704
  4.440  10.0528
  4.436  10.1352
  4.432  10.1970
  4.428  10.2588
  4.425  10.3309
  4.421  10.4648
  4.417  10.5575
  4.413  10.5987
  4.410  10.6090
  4.406  10.6811
  4.402  10.7944
  4.398  11.0004
  4.395  11.1240
  4.391  11.1549
  4.387  11.2579
  4.384  11.3609
  4.380  11.4227
  4.376  11.6390
  4.372  11.8141
  4.369  11.9686
  4.365  12.0201
  4.361  12.0716
  4.358  12.2364
  4.354  12.3806
  4.350  12.4630
  4.347  12.5866
  4.343  12.6793
  4.340  12.7205
  4.336  12.7823
  4.332  12.8853
  4.329  12.9059
  4.325  13.0192
  4.321  13.1222
  4.318  13.2149
  4.314  13.2973
  4.311  13.3282
  4.307  13.3076
  4.304  13.3694
  4.300  13.4312
  4.296  13.5754
  4.293  13.6269
  4.289  13.6269
  4.286  13.6475
  4.282  13.7505
  4.279  13.7814
  4.275  13.8329
  4.272  13.8947
  4.268  13.9565
  4.265  13.9668
  4.261  14.0389
  4.258  14.0904
  4.254  14.1831
  4.251  14.2655
  4.247  14.3479
  4.244  14.3994
  4.240  14.4921
  4.237  14.5745
  4.233  14.6775
  4.230  14.7187
  4.226  14.7599
  4.223  14.6775
  4.219  14.6981
  4.216  14.7599
  4.213  14.7908
  4.209  14.7084
  4.206  14.6569
  4.202  14.6157
  4.199  14.5951
  4.196  14.6157
  4.192  14.6775
  4.189  14.7702
  4.185  14.9247
  4.182  14.9968
  4.179  15.0483
  4.175  15.0483
  4.172  15.0895
  4.169  15.1410
  4.165  15.1925
  4.162  15.2543
  4.159  15.3264
  4.155  15.2955
  4.152  15.2646
  4.149  15.3264
  4.145  15.4088
  4.142  15.4603
  4.139  15.5530
  4.135  15.5633
  4.132  15.5942
  4.129  15.5736
  4.126  15.6560
  4.122  15.7693
  4.119  15.8414
  4.116  15.9032
  4.112  15.9547
  4.109  15.9856
  4.106  16.0371
  4.103  16.0783
  4.099  16.1710
  4.096  16.1710
  4.093  16.1710
  4.090  16.2328
  4.086  16.2637
  4.083  16.2843
  4.080  16.3358
  4.077  16.3976
  4.074  16.5109
  4.070  16.5418
  4.067  16.5521
  4.064  16.5418
  4.061  16.5830
  4.058  16.5212
  4.055  16.5521
  4.051  16.5624
  4.048  16.5830
  4.045  16.5933
  4.042  16.5933
  4.039  16.5315
  4.036  16.5624
  4.032  16.5830
  4.029  16.6345
  4.026  16.6757
  4.023  16.6757
  4.020  16.5521
  4.017  16.5212
  4.014  16.5212
  4.011  16.5830
  4.008  16.6139
  4.004  16.6757
  4.001  16.6551
  3.998  16.6036
  3.995  16.6448
  3.992  16.6654
  3.989  16.6036
  3.986  16.6242
  3.983  16.6551
  3.980  16.7478
  3.977  16.7581
  3.974  16.8508
  3.971  16.9229
  3.968  16.9641
  3.965  16.8817
  3.962  16.7890
  3.959  16.7890
  3.956  16.9435
  3.953  17.0568
  3.950  16.9950
  3.947  16.9332
  3.944  17.0568
  3.941  17.1289
  3.938  17.1907
  3.935  17.2010
  3.932  17.1701
  3.929  17.1289
  3.926  17.1598
  3.923  17.1907
  3.920  17.2834
  3.917  17.2628
  3.914  17.2525
  3.911  17.2216
  3.908  17.1804
  3.905  17.1701
  3.902  17.1804
  3.899  17.1598
  3.896  17.1598
  3.893  17.1186
  3.890  17.1495
  3.887  17.1598
  3.884  17.1495
  3.882  16.9847
  3.879  16.9641
  3.876  17.0362
  3.873  17.0671
  3.870  17.0259
  3.867  17.0774
  3.864  16.9950
  3.861  16.9023
  3.858  16.9332
  3.856  16.9435
  3.853  16.9023
  3.850  16.8920
  3.847  16.8199
  3.844  16.7478
  3.841  16.7272
  3.838  16.8405
  3.836  16.7993
  3.833  16.7169
  3.830  16.7272
  3.827  16.7993
  3.824  16.8096
  3.822  16.7787
  3.819  16.6963
  3.816  16.6757
  3.813  16.7066
  3.810  16.7272
  3.807  16.6860
  3.805  16.6036
  3.802  16.5624
  3.799  16.5624
  3.796  16.5006
  3.794  16.4491
  3.791  16.4079
  3.788  16.4594
  3.785  16.3976
  3.782  16.4079
  3.780  16.2946
  3.777  16.2843
  3.774  16.2843
  3.771  16.2328
  3.769  16.0989
  3.766  16.0165
  3.763  15.9856
  3.761  15.9444
  3.758  15.8826
  3.755  15.8620
  3.752  15.8105
  3.750  15.8414
  3.747  15.7693
  3.744  15.6869
  3.742  15.6251
  3.739  15.5530
  3.736  15.3985
  3.733  15.3882
  3.731  15.3676
  3.728  15.3573
  3.725  15.3367
  3.723  15.3779
  3.720  15.3367
  3.717  15.2337
  3.715  15.1101
  3.712  15.0998
  3.709  15.1204
  3.707  15.1101
  3.704  15.0071
  3.702  14.9350
  3.699  14.8835
  3.696  14.8835
  3.694  14.8732
  3.691  14.8732
  3.688  14.8114
  3.686  14.7393
  3.683  14.7187
  3.680  14.7599
  3.678  14.6775
  3.675  14.6260
  3.673  14.6054
  3.670  14.5436
  3.667  14.4509
  3.665  14.4303
  3.662  14.4303
  3.660  14.4200
  3.657  14.2758
  3.655  14.1728
  3.652  14.1625
  3.649  14.0801
  3.647  14.0492
  3.644  14.1419
  3.642  14.0801
  3.639  13.9462
  3.637  13.8432
  3.634  13.8638
  3.632  13.8741
  3.629  13.7711
  3.626  13.7196
  3.624  13.7299
  3.621  13.6166
  3.619  13.5136
  3.616  13.3797
  3.614  13.3488
  3.611  13.2355
  3.609  13.1016
  3.606  13.0295
  3.604  13.0089
  3.601  12.9162
  3.599  12.8956
  3.596  12.7720
  3.594  12.6793
  3.591  12.7102
  3.589  12.7823
  3.586  12.6896
  3.584  12.4836
