Name: Rhyolite
Type: Rock
Class: Igneous
Subclass: Felsic
Particle Size: Whole Rock Chips
Sample No.: AP-936-186
Owner: United States Geological Survey, L. C. Rowan
Wavelength range: 0.405 - 14.05 um
Origin: Iberian Pyrite Belt, Spain

Description: Rhyolite, chloritic, fine





Measurement: Directional Hemispherical Reflectance
First Column: X
Second Column: Y
X Units: Wavelength (micrometers)
Y Units: Reflectance (percent)
First X Value: 14.05105
Last X Value: 0.40500
Number of X Values: 2530
Additional Information: rhy186a.txt

 14.051   1.8437
 14.013   1.5965
 13.975   1.8437
 13.938   2.0085
 13.900   2.0703
 13.863   2.0188
 13.826   2.1218
 13.790   2.0703
 13.753   2.2660
 13.717   2.1733
 13.680   2.2351
 13.644   2.1836
 13.609   2.2763
 13.573   2.3175
 13.538   2.4205
 13.502   2.3175
 13.467   2.4102
 13.432   2.4411
 13.398   2.5235
 13.363   2.4926
 13.329   2.5956
 13.295   2.5956
 13.261   2.6059
 13.227   2.4926
 13.193   2.6059
 13.160   2.6265
 13.126   2.7707
 13.093   2.7810
 13.060   2.7295
 13.027   2.7295
 12.995   2.8531
 12.962   2.8634
 12.930   2.9458
 12.898   2.9561
 12.866   3.0591
 12.834   3.1209
 12.802   3.1827
 12.771   3.1209
 12.739   3.1621
 12.708   3.1312
 12.677   3.2239
 12.646   3.2136
 12.616   3.2651
 12.585   3.2033
 12.554   3.2136
 12.524   3.2136
 12.494   3.2754
 12.464   3.1312
 12.434   3.0900
 12.404   3.0900
 12.375   3.1724
 12.345   3.1930
 12.316   3.2445
 12.287   3.2342
 12.258   3.3578
 12.229   3.3784
 12.200   3.4711
 12.171   3.5638
 12.143   3.6462
 12.115   3.6256
 12.086   3.7080
 12.058   3.7286
 12.030   3.8213
 12.002   3.9037
 11.975   4.0273
 11.947   4.0788
 11.920   4.1200
 11.892   4.0994
 11.865   4.1715
 11.838   4.2127
 11.811   4.3260
 11.784   4.4084
 11.757   4.5629
 11.731   4.5732
 11.704   4.6762
 11.678   4.6865
 11.652   4.7586
 11.626   4.7895
 11.600   4.9028
 11.574   4.8719
 11.548   4.9337
 11.522   5.0161
 11.497   5.1706
 11.471   5.2221
 11.446   5.2942
 11.421   5.2736
 11.396   5.3148
 11.371   5.2839
 11.346   5.3869
 11.321   5.4693
 11.297   5.6135
 11.272   5.7268
 11.248   5.9019
 11.223   5.9534
 11.199   5.9946
 11.175   6.0564
 11.151   6.2624
 11.127   6.3139
 11.103   6.4478
 11.079   6.6538
 11.056   6.9010
 11.032   7.1070
 11.009   7.2512
 10.985   7.2409
 10.962   7.2203
 10.939   6.9834
 10.916   6.6950
 10.893   6.3242
 10.870   5.9122
 10.848   5.4693
 10.825   5.2015
 10.802   4.9955
 10.780   4.8719
 10.758   4.7689
 10.735   4.7689
 10.713   4.7483
 10.691   4.8410
 10.669   4.7174
 10.647   4.6762
 10.625   4.7483
 10.604   4.8410
 10.582   4.8719
 10.560   5.0161
 10.539   5.0882
 10.518   5.2015
 10.496   5.2324
 10.475   5.3766
 10.454   5.5208
 10.433   5.7371
 10.412   5.8504
 10.391   6.0564
 10.370   6.2727
 10.350   6.5302
 10.329   6.7465
 10.309   6.9937
 10.288   7.2821
 10.268   7.5911
 10.247   7.7765
 10.227   8.0649
 10.207   8.3636
 10.187   8.6829
 10.167   8.9713
 10.147   9.3524
 10.127   9.6820
 10.108  10.1249
 10.088  10.5369
 10.068  10.9386
 10.049  11.2991
 10.029  11.8347
 10.010  12.3291
  9.991  12.7926
  9.972  13.1016
  9.952  13.3385
  9.933  13.4518
  9.914  13.5033
  9.895  13.3797
  9.877  13.1943
  9.858  12.8853
  9.839  12.6072
  9.821  12.3703
  9.802  12.2467
  9.783  12.3909
  9.765  12.9265
  9.747  13.4209
  9.728  14.0801
  9.710  14.8423
  9.692  15.6457
  9.674  16.4697
  9.656  17.2113
  9.638  17.7057
  9.620  18.2104
  9.602  18.6430
  9.585  18.9108
  9.567  19.0550
  9.549  19.2507
  9.532  19.2507
  9.514  19.2095
  9.497  18.9726
  9.479  18.7460
  9.462  18.5194
  9.445  18.2516
  9.428  17.7057
  9.411  17.1289
  9.394  16.5624
  9.377  15.9856
  9.360  15.2852
  9.343  14.6981
  9.326  14.0595
  9.309  13.3179
  9.293  12.5042
  9.276  11.8450
  9.259  11.1549
  9.243  10.5163
  9.226   9.8468
  9.210   9.2906
  9.194   8.7653
  9.178   8.3224
  9.161   7.7662
  9.145   7.2409
  9.129   6.6950
  9.113   6.2418
  9.097   5.8092
  9.081   5.2942
  9.065   4.8410
  9.049   4.5938
  9.034   4.2745
  9.018   4.0170
  9.002   3.9552
  8.987   4.1303
  8.971   4.4290
  8.956   4.8925
  8.940   5.3148
  8.925   5.6238
  8.909   5.8813
  8.894   6.2212
  8.879   6.2830
  8.864   6.1903
  8.849   5.9946
  8.834   5.7989
  8.819   5.5311
  8.804   5.4075
  8.789   5.0985
  8.774   4.7483
  8.759   4.4496
  8.744   4.2333
  8.730   3.9758
  8.715   3.8007
  8.700   3.6462
  8.686   3.4814
  8.671   3.2857
  8.657   3.1003
  8.642   2.9149
  8.628   2.8840
  8.614   2.7913
  8.599   2.8119
  8.585   2.8531
  8.571   2.8840
  8.557   2.8943
  8.543   3.0076
  8.529   2.9870
  8.515   2.9561
  8.501   2.9870
  8.487   3.0488
  8.473   3.0385
  8.459   3.1518
  8.445   3.2651
  8.431   3.2960
  8.418   3.3475
  8.404   3.4196
  8.391   3.4814
  8.377   3.5638
  8.363   3.6256
  8.350   3.7904
  8.337   3.8213
  8.323   3.8625
  8.310   3.8831
  8.297   3.9243
  8.283   3.9861
  8.270   4.0994
  8.257   4.0891
  8.244   4.1612
  8.231   4.1715
  8.218   4.2230
  8.205   4.2745
  8.192   4.2436
  8.179   4.1715
  8.166   4.2230
  8.153   4.1818
  8.140   4.1303
  8.128   4.0582
  8.115   4.0067
  8.102   3.8831
  8.090   3.7595
  8.077   3.7080
  8.064   3.6462
  8.052   3.5020
  8.039   3.4711
  8.027   3.3372
  8.015   3.2239
  8.002   3.2342
  7.990   3.2651
  7.978   3.2239
  7.965   3.2033
  7.953   3.0797
  7.941   3.0694
  7.929   3.0797
  7.917   3.0694
  7.905   3.0282
  7.893   2.9458
  7.881   2.9046
  7.869   2.9561
  7.857   2.8840
  7.845   2.8840
  7.833   2.8531
  7.821   2.8222
  7.809   2.8016
  7.798   2.8531
  7.786   2.8943
  7.774   2.9561
  7.763   2.9252
  7.751   2.9355
  7.739   2.9561
  7.728   2.9355
  7.716   2.8531
  7.705   2.8943
  7.694   2.8840
  7.682   2.8737
  7.671   2.8943
  7.659   2.9664
  7.648   2.9458
  7.637   2.9664
  7.626   2.9046
  7.614   2.8634
  7.603   2.8222
  7.592   2.8531
  7.581   2.8840
  7.570   2.8943
  7.559   2.8119
  7.548   2.8634
  7.537   2.8634
  7.526   2.8840
  7.515   2.9252
  7.504   2.9664
  7.493   2.9561
  7.483   2.9252
  7.472   2.8737
  7.461   2.8943
  7.450   2.9149
  7.440   2.9870
  7.429   2.9767
  7.418   2.9355
  7.408   2.9046
  7.397   2.8840
  7.387   2.8428
  7.376   2.8737
  7.366   2.8634
  7.355   2.9458
  7.345   2.9973
  7.334   2.9870
  7.324   2.9767
  7.314   2.9870
  7.303   2.9355
  7.293   2.9561
  7.283   3.0179
  7.273   3.0591
  7.263   3.0694
  7.252   3.0694
  7.242   2.9870
  7.232   2.9870
  7.222   3.0488
  7.212   3.0900
  7.202   3.0694
  7.192   3.1003
  7.182   3.0591
  7.172   3.0488
  7.162   3.0385
  7.152   3.0488
  7.143   3.0591
  7.133   3.1003
  7.123   3.1106
  7.113   3.1312
  7.103   3.1415
  7.094   3.1209
  7.084   3.1003
  7.074   3.1106
  7.065   3.0900
  7.055   3.1003
  7.046   3.0797
  7.036   3.0488
  7.026   2.9973
  7.017   3.1209
  7.007   3.2445
  6.998   3.2239
  6.989   3.1415
  6.979   3.1312
  6.970   3.1312
  6.960   3.1930
  6.951   3.2033
  6.942   3.2754
  6.932   3.2445
  6.923   3.1827
  6.914   3.2136
  6.905   3.2960
  6.896   3.3063
  6.886   3.3166
  6.877   3.2445
  6.868   3.2342
  6.859   3.2651
  6.850   3.3475
  6.841   3.3681
  6.832   3.3887
  6.823   3.4093
  6.814   3.4814
  6.805   3.4711
  6.796   3.4402
  6.787   3.3990
  6.778   3.4505
  6.770   3.5123
  6.761   3.5020
  6.752   3.5432
  6.743   3.5844
  6.734   3.6256
  6.726   3.7080
  6.717   3.7183
  6.708   3.7389
  6.700   3.7801
  6.691   3.7492
  6.682   3.7080
  6.674   3.7286
  6.665   3.7183
  6.657   3.6977
  6.648   3.7080
  6.640   3.7183
  6.631   3.7080
  6.623   3.7801
  6.614   3.7389
  6.606   3.6977
  6.597   3.6565
  6.589   3.6668
  6.581   3.7080
  6.572   3.7183
  6.564   3.6565
  6.556   3.6771
  6.547   3.6668
  6.539   3.6462
  6.531   3.6256
  6.523   3.6153
  6.514   3.6153
  6.506   3.6359
  6.498   3.6771
  6.490   3.6462
  6.482   3.6565
  6.474   3.6565
  6.466   3.5947
  6.458   3.5741
  6.450   3.5123
  6.442   3.5226
  6.434   3.5535
  6.426   3.5432
  6.418   3.5226
  6.410   3.5226
  6.402   3.4608
  6.394   3.4402
  6.386   3.4608
  6.378   3.4505
  6.370   3.3887
  6.363   3.3681
  6.355   3.3784
  6.347   3.3990
  6.339   3.3887
  6.332   3.3578
  6.324   3.2651
  6.316   3.2548
  6.308   3.2342
  6.301   3.2548
  6.293   3.2754
  6.286   3.2239
  6.278   3.1621
  6.270   3.1724
  6.263   3.1930
  6.255   3.2136
  6.248   3.1930
  6.240   3.2136
  6.233   3.1930
  6.225   3.1209
  6.218   3.0900
  6.210   3.1209
  6.203   3.1106
  6.195   3.1415
  6.188   3.1312
  6.181   3.0797
  6.173   3.0488
  6.166   3.0797
  6.159   3.1106
  6.151   3.1003
  6.144   3.0282
  6.137   2.9870
  6.130   2.9767
  6.122   3.0385
  6.115   3.0179
  6.108   3.0282
  6.101   3.0282
  6.094   3.0488
  6.086   3.0488
  6.079   3.0797
  6.072   3.0900
  6.065   3.0591
  6.058   3.0591
  6.051   3.0797
  6.044   3.0694
  6.037   3.1106
  6.030   3.1518
  6.023   3.1621
  6.016   3.1518
  6.009   3.1415
  6.002   3.1312
  5.995   3.2033
  5.988   3.2651
  5.981   3.2754
  5.974   3.2239
  5.967   3.2445
  5.960   3.2651
  5.954   3.3475
  5.947   3.3990
  5.940   3.4196
  5.933   3.4299
  5.926   3.4711
  5.920   3.5020
  5.913   3.5226
  5.906   3.5123
  5.899   3.4917
  5.893   3.5535
  5.886   3.6153
  5.879   3.6050
  5.873   3.6668
  5.866   3.7080
  5.859   3.7389
  5.853   3.8007
  5.846   3.8522
  5.840   3.8625
  5.833   3.8728
  5.827   3.9346
  5.820   4.0067
  5.813   4.0067
  5.807   4.0067
  5.800   4.0582
  5.794   4.1097
  5.788   4.0891
  5.781   4.1612
  5.775   4.2333
  5.768   4.2539
  5.762   4.3157
  5.755   4.3672
  5.749   4.3878
  5.743   4.3878
  5.736   4.4084
  5.730   4.4393
  5.724   4.4187
  5.717   4.4187
  5.711   4.4496
  5.705   4.5011
  5.698   4.5114
  5.692   4.5217
  5.686   4.5732
  5.680   4.5835
  5.674   4.5732
  5.667   4.5732
  5.661   4.5835
  5.655   4.6556
  5.649   4.6556
  5.643   4.6968
  5.637   4.6659
  5.630   4.6453
  5.624   4.6659
  5.618   4.6762
  5.612   4.6968
  5.606   4.7380
  5.600   4.7174
  5.594   4.6762
  5.588   4.6453
  5.582   4.6865
  5.576   4.6556
  5.570   4.6350
  5.564   4.6556
  5.558   4.6762
  5.552   4.6865
  5.546   4.6865
  5.540   4.6968
  5.534   4.6968
  5.528   4.6865
  5.523   4.6865
  5.517   4.6247
  5.511   4.6041
  5.505   4.6247
  5.499   4.6556
  5.493   4.6556
  5.487   4.6865
  5.482   4.7071
  5.476   4.7277
  5.470   4.7277
  5.464   4.7483
  5.459   4.6968
  5.453   4.7071
  5.447   4.7586
  5.441   4.7998
  5.436   4.8101
  5.430   4.8307
  5.424   4.8719
  5.419   4.9028
  5.413   4.9131
  5.407   4.9131
  5.402   4.8822
  5.396   4.8719
  5.390   4.9028
  5.385   4.9028
  5.379   4.8822
  5.374   4.8925
  5.368   4.9028
  5.363   4.8925
  5.357   4.8822
  5.352   4.8822
  5.346   4.9337
  5.341   4.9646
  5.335   5.0058
  5.330   5.0161
  5.324   4.9955
  5.319   5.0367
  5.313   5.0470
  5.308   5.0161
  5.302   5.0367
  5.297   5.1088
  5.291   5.1191
  5.286   5.1397
  5.281   5.1500
  5.275   5.1397
  5.270   5.1500
  5.265   5.1809
  5.259   5.2324
  5.254   5.2839
  5.249   5.2633
  5.243   5.2427
  5.238   5.3045
  5.233   5.3457
  5.227   5.3251
  5.222   5.3560
  5.217   5.3457
  5.212   5.3560
  5.206   5.3869
  5.201   5.4281
  5.196   5.4281
  5.191   5.3766
  5.186   5.4075
  5.180   5.4487
  5.175   5.4796
  5.170   5.4899
  5.165   5.5002
  5.160   5.5208
  5.155   5.5620
  5.150   5.5517
  5.145   5.5208
  5.139   5.5311
  5.134   5.5929
  5.129   5.6135
  5.124   5.6135
  5.119   5.6135
  5.114   5.6032
  5.109   5.6547
  5.104   5.6856
  5.099   5.6856
  5.094   5.6753
  5.089   5.7062
  5.084   5.7680
  5.079   5.8092
  5.074   5.8092
  5.069   5.8092
  5.064   5.8195
  5.059   5.8401
  5.054   5.8092
  5.049   5.8195
  5.044   5.8813
  5.040   5.9431
  5.035   5.9740
  5.030   5.9431
  5.025   5.9431
  5.020   5.9843
  5.015   5.9946
  5.010   5.9637
  5.005   5.9637
  5.001   5.9740
  4.996   6.0049
  4.991   6.0358
  4.986   6.0461
  4.981   6.0873
  4.977   6.1388
  4.972   6.1697
  4.967   6.1697
  4.962   6.1182
  4.958   6.2212
  4.953   6.3345
  4.948   6.2933
  4.943   6.2830
  4.939   6.3139
  4.934   6.3963
  4.929   6.4169
  4.925   6.4066
  4.920   6.4272
  4.915   6.4684
  4.911   6.4890
  4.906   6.4993
  4.901   6.5199
  4.897   6.5302
  4.892   6.5199
  4.888   6.5508
  4.883   6.5714
  4.878   6.6023
  4.874   6.6847
  4.869   6.7465
  4.865   6.7671
  4.860   6.7877
  4.856   6.7980
  4.851   6.8083
  4.846   6.8392
  4.842   6.8495
  4.837   6.8392
  4.833   6.8186
  4.828   6.8495
  4.824   6.8701
  4.819   6.8392
  4.815   6.8598
  4.810   6.9216
  4.806   6.9422
  4.802   6.9525
  4.797   6.9731
  4.793   6.9319
  4.788   6.9216
  4.784   6.9937
  4.779   7.0349
  4.775   7.0349
  4.771   6.9731
  4.766   6.9525
  4.762   6.9834
  4.758   7.0143
  4.753   7.0349
  4.749   7.0555
  4.744   7.0349
  4.740   7.0040
  4.736   7.0246
  4.731   7.0658
  4.727   7.0555
  4.723   7.0864
  4.719   7.1482
  4.714   7.1997
  4.710   7.1894
  4.706   7.1585
  4.701   7.1379
  4.697   7.1379
  4.693   7.1585
  4.689   7.1173
  4.684   7.1173
  4.680   7.1585
  4.676   7.2203
  4.672   7.2615
  4.668   7.1894
  4.663   7.1791
  4.659   7.2100
  4.655   7.2718
  4.651   7.3439
  4.647   7.3336
  4.643   7.3851
  4.638   7.4263
  4.634   7.4057
  4.630   7.3851
  4.626   7.4057
  4.622   7.4469
  4.618   7.4469
  4.614   7.4572
  4.610   7.4984
  4.605   7.5293
  4.601   7.5705
  4.597   7.6014
  4.593   7.5808
  4.589   7.6014
  4.585   7.5808
  4.581   7.5705
  4.577   7.6426
  4.573   7.6941
  4.569   7.6529
  4.565   7.6220
  4.561   7.6426
  4.557   7.6632
  4.553   7.6323
  4.549   7.6014
  4.545   7.6323
  4.541   7.7353
  4.537   7.7559
  4.533   7.7559
  4.529   7.6941
  4.525   7.7044
  4.521   7.6735
  4.517   7.6838
  4.513   7.7353
  4.509   7.7662
  4.505   7.7456
  4.502   7.7147
  4.498   7.7971
  4.494   7.8280
  4.490   7.7662
  4.486   7.7147
  4.482   7.7353
  4.478   7.7868
  4.474   7.8589
  4.470   7.8383
  4.467   7.7559
  4.463   7.8177
  4.459   7.8692
  4.455   7.8795
  4.451   7.8692
  4.447   7.8898
  4.444   7.9001
  4.440   7.9001
  4.436   7.9310
  4.432   7.9104
  4.428   7.9207
  4.425   7.9310
  4.421   7.9516
  4.417   7.9722
  4.413   7.9413
  4.410   7.9516
  4.406   7.9928
  4.402   8.0649
  4.398   8.0752
  4.395   8.0134
  4.391   8.0443
  4.387   8.1576
  4.384   8.1576
  4.380   8.0752
  4.376   8.0546
  4.372   8.1473
  4.369   8.1370
  4.365   8.1679
  4.361   8.1782
  4.358   8.1679
  4.354   8.2400
  4.350   8.2503
  4.347   8.2606
  4.343   8.2297
  4.340   8.1576
  4.336   8.1679
  4.332   8.2091
  4.329   8.2297
  4.325   8.2709
  4.321   8.3224
  4.318   8.3224
  4.314   8.3327
  4.311   8.3327
  4.307   8.3327
  4.304   8.3327
  4.300   8.2709
  4.296   8.1782
  4.293   8.2606
  4.289   8.3430
  4.286   8.3739
  4.282   8.3224
  4.279   8.3224
  4.275   8.3739
  4.272   8.3636
  4.268   8.3018
  4.265   8.3121
  4.261   8.3533
  4.258   8.3842
  4.254   8.4151
  4.251   8.4563
  4.247   8.4563
  4.244   8.4254
  4.240   8.3430
  4.237   8.3327
  4.233   8.3430
  4.230   8.3636
  4.226   8.3945
  4.223   8.4048
  4.219   8.4357
  4.216   8.5078
  4.213   8.5078
  4.209   8.4872
  4.206   8.4872
  4.202   8.5593
  4.199   8.5593
  4.196   8.5181
  4.192   8.4872
  4.189   8.5284
  4.185   8.6005
  4.182   8.6314
  4.179   8.5490
  4.175   8.5181
  4.172   8.5593
  4.169   8.5696
  4.165   8.5902
  4.162   8.6726
  4.159   8.7035
  4.155   8.6005
  4.152   8.5284
  4.149   8.5490
  4.145   8.5284
  4.142   8.5593
  4.139   8.6211
  4.135   8.6005
  4.132   8.6108
  4.129   8.6726
  4.126   8.6314
  4.122   8.5490
  4.119   8.5696
  4.116   8.5902
  4.112   8.5593
  4.109   8.5799
  4.106   8.5902
  4.103   8.6726
  4.099   8.6726
  4.096   8.6726
  4.093   8.6932
  4.090   8.6829
  4.086   8.6314
  4.083   8.6211
  4.080   8.5387
  4.077   8.5902
  4.074   8.7035
  4.070   8.6932
  4.067   8.6417
  4.064   8.6829
  4.061   8.7138
  4.058   8.6932
  4.055   8.6932
  4.051   8.7138
  4.048   8.6932
  4.045   8.7035
  4.042   8.6932
  4.039   8.7138
  4.036   8.7344
  4.032   8.7756
  4.029   8.7447
  4.026   8.6417
  4.023   8.6005
  4.020   8.6211
  4.017   8.5799
  4.014   8.6314
  4.011   8.6932
  4.008   8.7344
  4.004   8.6932
  4.001   8.6623
  3.998   8.7035
  3.995   8.7447
  3.992   8.7344
  3.989   8.6932
  3.986   8.6211
  3.983   8.6520
  3.980   8.6726
  3.977   8.7035
  3.974   8.7550
  3.971   8.7653
  3.968   8.7138
  3.965   8.6932
  3.962   8.6623
  3.959   8.6623
  3.956   8.6829
  3.953   8.7447
  3.950   8.6829
  3.947   8.6314
  3.944   8.6005
  3.941   8.5387
  3.938   8.6211
  3.935   8.7344
  3.932   8.7344
  3.929   8.7447
  3.926   8.7138
  3.923   8.6314
  3.920   8.5902
  3.917   8.6005
  3.914   8.6314
  3.911   8.6005
  3.908   8.4975
  3.905   8.4975
  3.902   8.6314
  3.899   8.7447
  3.896   8.7035
  3.893   8.6520
  3.890   8.6211
  3.887   8.5593
  3.884   8.5078
  3.882   8.5284
  3.879   8.5078
  3.876   8.4769
  3.873   8.4872
  3.870   8.5902
  3.867   8.6829
  3.864   8.6108
  3.861   8.4666
  3.858   8.4769
  3.856   8.5284
  3.853   8.5078
  3.850   8.4666
  3.847   8.4769
  3.844   8.4151
  3.841   8.4151
  3.838   8.4460
  3.836   8.5181
  3.833   8.5593
  3.830   8.5387
  3.827   8.4460
  3.824   8.4254
  3.822   8.3533
  3.819   8.3636
  3.816   8.3327
  3.813   8.3739
  3.810   8.4666
  3.807   8.4872
  3.805   8.3636
  3.802   8.3430
  3.799   8.3224
  3.796   8.2812
  3.794   8.3430
  3.791   8.3533
  3.788   8.3018
  3.785   8.2812
  3.782   8.1679
  3.780   8.1267
  3.777   8.1576
  3.774   8.2194
  3.771   8.2297
  3.769   8.1988
  3.766   8.1473
  3.763   8.1164
  3.761   8.0855
  3.758   8.0752
  3.755   8.0958
  3.752   8.1267
  3.750   8.0443
  3.747   7.9928
  3.744   8.0340
  3.742   8.1061
  3.739   8.1061
  3.736   8.0134
  3.733   8.0855
  3.731   8.1473
  3.728   8.0134
  3.725   7.9001
  3.723   7.7971
  3.720   7.7868
  3.717   7.7765
  3.715   7.8074
  3.712   7.7765
  3.709   7.7353
  3.707   7.7662
  3.704   7.8177
  3.702   7.8074
  3.699   7.8383
  3.696   7.8074
  3.694   7.7250
  3.691   7.7868
  3.688   7.7868
  3.686   7.6735
  3.683   7.6529
  3.680   7.6735
  3.678   7.6323
  3.675   7.5293
  3.673   7.5293
  3.670   7.6323
  3.667   7.6426
  3.665   7.5911
  3.662   7.6117
  3.660   7.5705
  3.657   7.4984
  3.655   7.4984
  3.652   7.5705
  3.649   7.4675
  3.647   7.4366
  3.644   7.4675
  3.642   7.4366
  3.639   7.4572
  3.637   7.4572
  3.634   7.4160
  3.632   7.4572
  3.629   7.4263
  3.626   7.3130
  3.624   7.2718
  3.621   7.2821
  3.619   7.2512
  3.616   7.2100
  3.614   7.1791
  3.611   7.1379
  3.609   7.1379
  3.606   7.2718
  3.604   7.3027
  3.601   7.1894
  3.599   7.1791
  3.596   7.1688
  3.594   7.2203
  3.591   7.2203
  3.589   7.0452
  3.586   7.0349
  3.584   7.0555
