Name: Rhyolite
Type: Rock
Class: Igneous
Subclass: Felsic
Particle Size: Whole Rock Chips
Sample No.: AP-939-223
Owner: United States Geological Survey, L. C. Rowan
Wavelength range: 0.405 - 14.05 um
Origin: Iberian Pyrite Belt, Spain

Description: Rhyolite, white, altered





Measurement: Directional Hemispherical Reflectance
First Column: X
Second Column: Y
X Units: Wavelength (micrometers)
Y Units: Reflectance (percent)
First X Value: 14.05105
Last X Value: 0.40500
Number of X Values: 2530
Additional Information: rhy223a.txt

 14.051   2.0497
 14.013   1.7407
 13.975   1.9364
 13.938   2.0909
 13.900   2.3072
 13.863   2.2145
 13.826   2.1527
 13.790   2.1939
 13.753   2.2660
 13.717   2.1218
 13.680   2.1939
 13.644   2.1012
 13.609   2.1321
 13.573   2.1527
 13.538   2.2248
 13.502   2.2557
 13.467   2.3690
 13.432   2.2763
 13.398   2.3484
 13.363   2.2969
 13.329   2.3175
 13.295   2.3072
 13.261   2.3587
 13.227   2.2351
 13.193   2.3072
 13.160   2.3690
 13.126   2.4205
 13.093   2.4308
 13.060   2.5132
 13.027   2.5647
 12.995   2.6780
 12.962   2.6883
 12.930   2.6883
 12.898   2.6162
 12.866   2.7604
 12.834   2.8016
 12.802   2.8531
 12.771   2.8737
 12.739   2.9767
 12.708   2.9252
 12.677   2.9355
 12.646   2.8840
 12.616   2.9252
 12.585   2.9767
 12.554   3.0282
 12.524   2.9870
 12.494   3.0591
 12.464   3.0282
 12.434   3.0488
 12.404   2.9252
 12.375   2.8840
 12.345   2.8531
 12.316   2.8634
 12.287   2.8222
 12.258   2.9046
 12.229   2.8840
 12.200   2.9458
 12.171   2.9767
 12.143   2.9973
 12.115   3.0385
 12.086   3.1209
 12.058   3.0385
 12.030   3.1106
 12.002   3.1930
 11.975   3.2857
 11.947   3.2754
 11.920   3.3372
 11.892   3.3578
 11.865   3.4299
 11.838   3.4608
 11.811   3.5123
 11.784   3.5123
 11.757   3.6256
 11.731   3.6153
 11.704   3.6668
 11.678   3.6874
 11.652   3.7080
 11.626   3.6977
 11.600   3.8522
 11.574   3.8934
 11.548   3.9346
 11.522   3.9140
 11.497   3.9449
 11.471   3.9552
 11.446   4.0170
 11.421   3.9861
 11.396   3.9964
 11.371   3.9449
 11.346   3.9243
 11.321   3.9140
 11.297   4.0170
 11.272   3.9552
 11.248   4.0376
 11.223   4.0273
 11.199   4.0273
 11.175   4.0273
 11.151   4.1509
 11.127   4.2230
 11.103   4.2642
 11.079   4.2539
 11.056   4.4084
 11.032   4.4187
 11.009   4.4187
 10.985   4.4599
 10.962   4.5320
 10.939   4.4084
 10.916   4.3363
 10.893   4.1509
 10.870   3.9655
 10.848   3.7389
 10.825   3.6462
 10.802   3.5535
 10.780   3.5535
 10.758   3.5432
 10.735   3.5226
 10.713   3.4402
 10.691   3.3887
 10.669   3.3475
 10.647   3.4093
 10.625   3.3578
 10.604   3.3269
 10.582   3.3269
 10.560   3.3887
 10.539   3.3784
 10.518   3.4299
 10.496   3.4608
 10.475   3.5432
 10.454   3.5741
 10.433   3.7080
 10.412   3.7492
 10.391   3.8831
 10.370   3.9346
 10.350   4.0170
 10.329   4.0685
 10.309   4.1406
 10.288   4.1818
 10.268   4.2230
 10.247   4.2436
 10.227   4.3775
 10.207   4.4908
 10.187   4.5629
 10.167   4.5526
 10.147   4.7174
 10.127   4.9131
 10.108   5.0882
 10.088   5.1603
 10.068   5.3457
 10.049   5.5723
 10.029   5.7783
 10.010   5.8607
  9.991   6.0461
  9.972   6.2418
  9.952   6.5508
  9.933   6.6332
  9.914   6.6744
  9.895   6.6641
  9.877   6.6229
  9.858   6.4272
  9.839   6.2830
  9.821   6.1079
  9.802   6.0770
  9.783   6.1491
  9.765   6.3654
  9.747   6.6332
  9.728   6.9628
  9.710   7.1997
  9.692   7.5705
  9.674   7.8486
  9.656   8.0752
  9.638   8.2400
  9.620   8.3739
  9.602   8.3945
  9.585   8.4666
  9.567   8.4151
  9.549   8.4151
  9.532   8.4254
  9.514   8.5490
  9.497   8.5593
  9.479   8.5490
  9.462   8.5078
  9.445   8.5902
  9.428   8.6211
  9.411   8.5902
  9.394   8.5490
  9.377   8.5902
  9.360   8.6314
  9.343   8.7962
  9.326   8.8168
  9.309   8.7859
  9.293   8.6726
  9.276   8.7550
  9.259   8.8889
  9.243   8.9610
  9.226   8.8168
  9.210   8.7859
  9.194   8.6829
  9.178   8.6108
  9.161   8.6005
  9.145   8.6108
  9.129   8.5078
  9.113   8.3842
  9.097   8.2297
  9.081   8.1061
  9.065   7.9104
  9.049   7.6632
  9.034   7.3130
  9.018   7.1173
  9.002   6.9628
  8.987   6.8495
  8.971   6.8392
  8.956   6.9937
  8.940   7.0864
  8.925   7.2718
  8.909   7.4778
  8.894   7.6529
  8.879   7.6426
  8.864   7.5190
  8.849   7.3645
  8.834   7.3130
  8.819   7.1997
  8.804   7.0658
  8.789   6.9113
  8.774   6.7568
  8.759   6.5302
  8.744   6.3551
  8.730   6.1594
  8.715   5.9019
  8.700   5.6753
  8.686   5.5517
  8.671   5.3354
  8.657   5.1500
  8.642   4.9028
  8.628   4.6350
  8.614   4.4393
  8.599   4.4084
  8.585   4.4702
  8.571   4.5629
  8.557   4.6350
  8.543   4.6659
  8.529   4.6762
  8.515   4.6659
  8.501   4.5011
  8.487   4.5114
  8.473   4.4393
  8.459   4.3672
  8.445   4.3054
  8.431   4.2230
  8.418   4.1406
  8.404   4.1509
  8.391   4.1303
  8.377   4.2024
  8.363   4.1200
  8.350   4.0685
  8.337   4.0788
  8.323   4.0994
  8.310   4.0376
  8.297   4.0273
  8.283   4.0582
  8.270   4.1303
  8.257   4.0891
  8.244   4.0685
  8.231   4.0582
  8.218   4.0582
  8.205   4.0067
  8.192   4.0067
  8.179   4.0376
  8.166   4.0685
  8.153   3.9346
  8.140   3.8110
  8.128   3.6462
  8.115   3.5741
  8.102   3.4505
  8.090   3.3681
  8.077   3.2960
  8.064   3.1930
  8.052   3.0179
  8.039   2.9046
  8.027   2.8737
  8.015   2.8222
  8.002   2.6883
  7.990   2.6368
  7.978   2.5647
  7.965   2.5338
  7.953   2.4411
  7.941   2.2969
  7.929   2.2660
  7.917   2.3072
  7.905   2.2351
  7.893   2.1733
  7.881   2.1012
  7.869   2.0600
  7.857   2.0085
  7.845   2.0188
  7.833   2.0085
  7.821   1.9570
  7.809   1.8437
  7.798   1.8437
  7.786   1.7819
  7.774   1.7510
  7.763   1.8025
  7.751   1.8128
  7.739   1.7510
  7.728   1.7819
  7.716   1.8128
  7.705   1.8025
  7.694   1.7819
  7.682   1.7613
  7.671   1.6583
  7.659   1.6068
  7.648   1.5965
  7.637   1.6171
  7.626   1.6377
  7.614   1.6377
  7.603   1.6377
  7.592   1.6377
  7.581   1.6480
  7.570   1.6995
  7.559   1.6789
  7.548   1.6686
  7.537   1.6068
  7.526   1.6377
  7.515   1.6274
  7.504   1.6274
  7.493   1.6377
  7.483   1.6274
  7.472   1.5965
  7.461   1.6480
  7.450   1.6892
  7.440   1.6995
  7.429   1.6789
  7.418   1.6892
  7.408   1.6789
  7.397   1.7716
  7.387   1.7613
  7.376   1.6995
  7.366   1.6377
  7.355   1.6892
  7.345   1.6686
  7.334   1.6377
  7.324   1.6480
  7.314   1.7098
  7.303   1.6583
  7.293   1.6377
  7.283   1.6789
  7.273   1.7407
  7.263   1.7613
  7.252   1.7819
  7.242   1.7819
  7.232   1.7922
  7.222   1.7613
  7.212   1.8025
  7.202   1.7510
  7.192   1.7613
  7.182   1.7407
  7.172   1.7510
  7.162   1.7613
  7.152   1.7716
  7.143   1.7716
  7.133   1.8540
  7.123   1.8025
  7.113   1.8437
  7.103   1.8746
  7.094   1.9055
  7.084   1.8952
  7.074   1.8746
  7.065   1.8849
  7.055   1.8746
  7.046   1.8334
  7.036   1.8334
  7.026   1.8128
  7.017   1.8849
  7.007   1.9158
  6.998   1.8952
  6.989   1.8746
  6.979   1.9261
  6.970   1.9158
  6.960   1.8849
  6.951   1.8643
  6.942   1.8849
  6.932   1.8643
  6.923   1.9261
  6.914   1.9570
  6.905   1.9570
  6.896   1.9879
  6.886   2.0291
  6.877   1.9467
  6.868   1.9467
  6.859   1.9673
  6.850   2.0291
  6.841   2.0291
  6.832   2.0497
  6.823   2.0703
  6.814   2.0909
  6.805   2.0806
  6.796   2.0497
  6.787   2.0703
  6.778   2.0703
  6.770   2.0909
  6.761   2.1630
  6.752   2.2042
  6.743   2.1939
  6.734   2.1424
  6.726   2.2351
  6.717   2.2866
  6.708   2.2660
  6.700   2.2557
  6.691   2.3278
  6.682   2.3175
  6.674   2.2660
  6.665   2.2763
  6.657   2.3278
  6.648   2.3484
  6.640   2.3999
  6.631   2.4102
  6.623   2.3587
  6.614   2.2660
  6.606   2.2866
  6.597   2.3381
  6.589   2.3381
  6.581   2.3072
  6.572   2.3278
  6.564   2.2557
  6.556   2.2454
  6.547   2.2763
  6.539   2.2763
  6.531   2.2248
  6.523   2.3072
  6.514   2.3690
  6.506   2.3484
  6.498   2.3072
  6.490   2.3484
  6.482   2.3690
  6.474   2.3999
  6.466   2.4102
  6.458   2.4205
  6.450   2.4102
  6.442   2.3793
  6.434   2.3793
  6.426   2.4308
  6.418   2.4823
  6.410   2.4926
  6.402   2.4720
  6.394   2.4411
  6.386   2.4205
  6.378   2.4823
  6.370   2.4720
  6.363   2.4617
  6.355   2.4720
  6.347   2.5132
  6.339   2.5132
  6.332   2.5029
  6.324   2.4617
  6.316   2.4720
  6.308   2.4823
  6.301   2.4514
  6.293   2.3793
  6.286   2.3587
  6.278   2.3587
  6.270   2.3484
  6.263   2.3381
  6.255   2.3381
  6.248   2.3278
  6.240   2.3072
  6.233   2.2145
  6.225   2.1630
  6.218   2.1424
  6.210   2.1115
  6.203   2.0909
  6.195   2.0703
  6.188   2.0703
  6.181   2.0291
  6.173   1.9467
  6.166   1.9467
  6.159   1.9467
  6.151   1.9364
  6.144   1.9673
  6.137   1.9879
  6.130   1.9776
  6.122   1.9982
  6.115   1.9879
  6.108   1.9673
  6.101   1.9467
  6.094   1.9467
  6.086   1.9364
  6.079   1.9570
  6.072   1.9879
  6.065   2.0497
  6.058   2.0394
  6.051   2.0497
  6.044   2.0909
  6.037   2.1115
  6.030   2.0600
  6.023   2.0497
  6.016   2.0600
  6.009   2.0909
  6.002   2.1527
  5.995   2.1939
  5.988   2.2248
  5.981   2.2454
  5.974   2.2248
  5.967   2.2454
  5.960   2.2454
  5.954   2.2351
  5.947   2.2248
  5.940   2.2351
  5.933   2.2866
  5.926   2.3278
  5.920   2.3793
  5.913   2.4205
  5.906   2.4205
  5.899   2.4308
  5.893   2.4720
  5.886   2.5029
  5.879   2.5132
  5.873   2.5853
  5.866   2.6368
  5.859   2.6677
  5.853   2.7295
  5.846   2.7398
  5.840   2.7295
  5.833   2.7398
  5.827   2.7604
  5.820   2.8222
  5.813   2.8634
  5.807   2.8840
  5.800   2.8737
  5.794   2.9149
  5.788   2.9973
  5.781   3.0694
  5.775   3.1003
  5.768   3.1003
  5.762   3.1003
  5.755   3.1209
  5.749   3.1003
  5.743   3.1003
  5.736   3.1724
  5.730   3.2239
  5.724   3.2651
  5.717   3.2960
  5.711   3.3475
  5.705   3.4093
  5.698   3.4093
  5.692   3.3372
  5.686   3.3166
  5.680   3.3578
  5.674   3.3681
  5.667   3.3990
  5.661   3.4093
  5.655   3.4196
  5.649   3.4093
  5.643   3.4505
  5.637   3.4711
  5.630   3.4402
  5.624   3.4093
  5.618   3.4608
  5.612   3.4814
  5.606   3.5020
  5.600   3.5020
  5.594   3.5020
  5.588   3.5123
  5.582   3.4917
  5.576   3.4093
  5.570   3.4299
  5.564   3.4608
  5.558   3.4814
  5.552   3.4917
  5.546   3.5432
  5.540   3.5535
  5.534   3.4917
  5.528   3.4299
  5.523   3.4711
  5.517   3.4814
  5.511   3.4917
  5.505   3.4917
  5.499   3.5329
  5.493   3.5329
  5.487   3.5226
  5.482   3.5329
  5.476   3.5123
  5.470   3.4917
  5.464   3.5638
  5.459   3.5947
  5.453   3.6153
  5.447   3.6050
  5.441   3.5741
  5.436   3.5844
  5.430   3.6359
  5.424   3.6462
  5.419   3.6565
  5.413   3.6565
  5.407   3.6359
  5.402   3.6153
  5.396   3.5844
  5.390   3.5535
  5.385   3.5432
  5.379   3.5226
  5.374   3.5123
  5.368   3.5329
  5.363   3.5329
  5.357   3.4814
  5.352   3.5020
  5.346   3.5329
  5.341   3.5020
  5.335   3.4814
  5.330   3.5123
  5.324   3.5947
  5.319   3.6256
  5.313   3.5741
  5.308   3.5535
  5.302   3.6050
  5.297   3.6668
  5.291   3.6771
  5.286   3.6977
  5.281   3.7080
  5.275   3.7286
  5.270   3.7389
  5.265   3.7492
  5.259   3.8213
  5.254   3.8831
  5.249   3.8728
  5.243   3.8625
  5.238   3.9243
  5.233   4.0067
  5.227   4.0788
  5.222   4.0994
  5.217   4.0891
  5.212   4.1406
  5.206   4.2024
  5.201   4.2745
  5.196   4.2848
  5.191   4.2848
  5.186   4.2539
  5.180   4.2539
  5.175   4.2539
  5.170   4.2333
  5.165   4.2642
  5.160   4.3260
  5.155   4.3569
  5.150   4.3672
  5.145   4.3569
  5.139   4.3260
  5.134   4.3672
  5.129   4.4187
  5.124   4.4290
  5.119   4.4599
  5.114   4.5114
  5.109   4.5114
  5.104   4.4496
  5.099   4.4702
  5.094   4.5114
  5.089   4.5423
  5.084   4.5320
  5.079   4.5217
  5.074   4.5423
  5.069   4.5732
  5.064   4.5629
  5.059   4.5732
  5.054   4.5938
  5.049   4.5938
  5.044   4.6041
  5.040   4.6762
  5.035   4.7071
  5.030   4.6659
  5.025   4.6762
  5.020   4.7380
  5.015   4.7689
  5.010   4.7483
  5.005   4.7174
  5.001   4.7483
  4.996   4.7586
  4.991   4.8101
  4.986   4.9028
  4.981   4.9646
  4.977   4.9440
  4.972   4.9646
  4.967   5.0882
  4.962   5.2015
  4.958   5.2427
  4.953   5.2633
  4.948   5.3354
  4.943   5.3766
  4.939   5.3869
  4.934   5.4384
  4.929   5.4384
  4.925   5.4796
  4.920   5.5826
  4.915   5.6238
  4.911   5.6444
  4.906   5.6753
  4.901   5.7989
  4.897   5.9431
  4.892   6.0358
  4.888   6.1182
  4.883   6.2109
  4.878   6.3139
  4.874   6.4066
  4.869   6.5096
  4.865   6.5920
  4.860   6.6538
  4.856   6.7259
  4.851   6.7774
  4.846   6.8392
  4.842   6.9319
  4.837   7.0143
  4.833   7.0246
  4.828   7.0143
  4.824   7.0967
  4.819   7.1688
  4.815   7.1276
  4.810   7.1173
  4.806   7.2203
  4.802   7.2718
  4.797   7.3336
  4.793   7.4057
  4.788   7.3851
  4.784   7.3645
  4.779   7.3851
  4.775   7.4675
  4.771   7.5087
  4.766   7.5705
  4.762   7.5808
  4.758   7.6323
  4.753   7.6632
  4.749   7.7044
  4.744   7.7765
  4.740   7.7250
  4.736   7.7044
  4.731   7.7353
  4.727   7.7559
  4.723   7.7765
  4.719   7.8383
  4.714   7.8383
  4.710   7.7868
  4.706   7.7868
  4.701   7.7456
  4.697   7.7044
  4.693   7.6838
  4.689   7.7147
  4.684   7.6838
  4.680   7.6426
  4.676   7.6323
  4.672   7.6941
  4.668   7.7559
  4.663   7.7559
  4.659   7.8177
  4.655   7.9104
  4.651   7.9516
  4.647   7.9722
  4.643   8.0855
  4.638   8.2194
  4.634   8.2400
  4.630   8.2606
  4.626   8.3018
  4.622   8.3533
  4.618   8.4666
  4.614   8.5696
  4.610   8.5696
  4.605   8.5799
  4.601   8.5902
  4.597   8.6417
  4.593   8.6932
  4.589   8.8168
  4.585   8.8992
  4.581   8.9095
  4.577   8.9713
  4.573   8.9919
  4.569   9.0125
  4.565   9.0434
  4.561   9.0743
  4.557   9.1052
  4.553   9.1361
  4.549   9.1979
  4.545   9.2391
  4.541   9.2700
  4.537   9.2597
  4.533   9.2185
  4.529   9.2185
  4.525   9.2494
  4.521   9.2391
  4.517   9.2494
  4.513   9.2597
  4.509   9.1876
  4.505   9.1052
  4.502   9.0125
  4.498   8.9507
  4.494   8.9507
  4.490   9.0022
  4.486   9.0537
  4.482   9.0434
  4.478   9.0434
  4.474   9.0743
  4.470   9.0640
  4.467   9.0640
  4.463   9.1464
  4.459   9.1773
  4.455   9.2082
  4.451   9.2803
  4.447   9.3833
  4.444   9.4760
  4.440   9.5378
  4.436   9.5584
  4.432   9.5893
  4.428   9.6511
  4.425   9.7438
  4.421   9.8777
  4.417  10.0322
  4.413  10.0940
  4.410  10.1043
  4.406  10.1352
  4.402  10.2176
  4.398  10.3618
  4.395  10.5163
  4.391  10.6090
  4.387  10.6605
  4.384  10.7635
  4.380  10.8459
  4.376  10.8871
  4.372  10.9901
  4.369  11.1240
  4.365  11.2373
  4.361  11.3712
  4.358  11.5257
  4.354  11.6596
  4.350  11.7317
  4.347  11.7729
  4.343  11.8141
  4.340  11.8862
  4.336  12.0201
  4.332  12.1437
  4.329  12.2158
  4.325  12.2673
  4.321  12.3291
  4.318  12.4115
  4.314  12.4218
  4.311  12.4733
  4.307  12.4939
  4.304  12.4527
  4.300  12.4527
  4.296  12.4733
  4.293  12.5145
  4.289  12.6587
  4.286  12.7720
  4.282  12.7720
  4.279  12.7926
  4.275  12.8132
  4.272  12.8750
  4.268  12.9677
  4.265  13.0295
  4.261  13.0501
  4.258  13.1737
  4.254  13.3179
  4.251  13.3900
  4.247  13.3694
  4.244  13.3488
  4.240  13.3797
  4.237  13.4415
  4.233  13.4003
  4.230  13.3179
  4.226  13.3179
  4.223  13.4621
  4.219  13.5960
  4.216  13.5445
  4.213  13.4621
  4.209  13.5342
  4.206  13.5342
  4.202  13.5342
  4.199  13.5754
  4.196  13.5857
  4.192  13.6063
  4.189  13.6372
  4.185  13.6578
  4.182  13.7196
  4.179  13.7608
  4.175  13.7917
  4.172  13.8020
  4.169  13.8432
  4.165  13.9050
  4.162  14.0286
  4.159  14.0183
  4.155  13.9874
  4.152  14.0698
  4.149  14.1007
  4.145  14.1110
  4.142  14.1213
  4.139  14.1316
  4.135  14.2140
  4.132  14.2552
  4.129  14.3376
  4.126  14.4097
  4.122  14.4097
  4.119  14.3788
  4.116  14.3788
  4.112  14.4612
  4.109  14.5745
  4.106  14.5848
  4.103  14.6054
  4.099  14.6672
  4.096  14.7290
  4.093  14.7496
  4.090  14.8114
  4.086  14.8320
  4.083  14.8320
  4.080  14.8629
  4.077  14.9247
  4.074  14.9041
  4.070  14.9659
  4.067  14.9762
  4.064  14.9865
  4.061  14.9762
  4.058  14.9453
  4.055  14.8732
  4.051  14.9350
  4.048  15.0071
  4.045  15.0174
  4.042  14.9865
  4.039  15.0174
  4.036  14.9659
  4.032  14.9453
  4.029  14.9144
  4.026  14.9247
  4.023  14.9144
  4.020  14.9453
  4.017  14.9659
  4.014  14.9556
  4.011  14.9247
  4.008  14.9968
  4.004  15.0689
  4.001  15.0895
  3.998  15.0998
  3.995  15.0895
  3.992  14.9453
  3.989  14.9350
  3.986  15.0174
  3.983  15.0483
  3.980  15.0483
  3.977  15.1204
  3.974  15.1307
  3.971  15.0998
  3.968  15.1101
  3.965  15.2028
  3.962  15.2852
  3.959  15.3676
  3.956  15.2337
  3.953  15.2131
  3.950  15.2646
  3.947  15.2749
  3.944  15.2646
  3.941  15.3058
  3.938  15.3470
  3.935  15.3264
  3.932  15.2646
  3.929  15.3161
  3.926  15.3573
  3.923  15.4088
  3.920  15.4294
  3.917  15.4397
  3.914  15.4191
  3.911  15.4191
  3.908  15.3882
  3.905  15.3367
  3.902  15.2749
  3.899  15.3058
  3.896  15.2749
  3.893  15.2543
  3.890  15.2749
  3.887  15.2543
  3.884  15.2028
  3.882  15.2131
  3.879  15.1410
  3.876  15.1513
  3.873  15.1513
  3.870  15.0895
  3.867  15.0689
  3.864  15.0689
  3.861  15.0277
  3.858  14.9659
  3.856  14.9350
  3.853  14.9041
  3.850  14.8732
  3.847  14.9247
  3.844  14.9762
  3.841  15.0174
  3.838  14.9453
  3.836  14.9041
  3.833  14.8938
  3.830  14.8938
  3.827  14.9144
  3.824  14.9041
  3.822  14.8526
  3.819  14.7496
  3.816  14.7084
  3.813  14.7599
  3.810  14.8320
  3.807  14.8526
  3.805  14.7393
  3.802  14.6363
  3.799  14.6466
  3.796  14.6054
  3.794  14.5745
  3.791  14.6466
  3.788  14.5848
  3.785  14.5539
  3.782  14.5127
  3.780  14.5127
  3.777  14.4612
  3.774  14.3994
  3.771  14.3273
  3.769  14.2758
  3.766  14.2449
  3.763  14.1316
  3.761  14.0080
  3.758  14.0286
  3.755  14.0080
  3.752  13.9256
  3.750  13.8226
  3.747  13.8535
  3.744  13.8741
  3.742  13.7402
  3.739  13.6063
  3.736  13.5651
  3.733  13.5857
  3.731  13.6372
  3.728  13.5651
  3.725  13.5136
  3.723  13.5342
  3.720  13.5342
  3.717  13.5033
  3.715  13.4621
  3.712  13.4003
  3.709  13.3385
  3.707  13.2252
  3.704  13.2149
  3.702  13.2664
  3.699  13.3179
  3.696  13.2561
  3.694  13.1531
  3.691  13.1428
  3.688  13.1428
  3.686  13.1016
  3.683  13.1222
  3.680  13.0398
  3.678  12.9883
  3.675  12.9471
  3.673  12.9986
  3.670  12.9883
  3.667  12.9368
  3.665  12.9265
  3.662  12.9574
  3.660  12.8544
  3.657  12.8235
  3.655  12.8235
  3.652  12.7617
  3.649  12.6381
  3.647  12.5969
  3.644  12.5866
  3.642  12.6381
  3.639  12.6072
  3.637  12.5454
  3.634  12.4527
  3.632  12.3909
  3.629  12.3497
  3.626  12.2776
  3.624  12.1334
  3.621  12.0613
  3.619  12.0716
  3.616  12.1334
  3.614  12.0304
  3.611  11.9686
  3.609  11.9068
  3.606  11.8347
  3.604  11.8038
  3.601  11.7626
  3.599  11.6081
  3.596  11.5875
  3.594  11.5669
  3.591  11.5566
  3.589  11.5257
  3.586  11.4742
  3.584  11.3609
