Name: Rhyolite
Type: Rock
Class: Igneous
Subclass: Felsic
Particle Size: Whole Rock Chips
Sample No.: AP-938-226
Owner: United States Geological Survey, L. C. Rowan
Wavelength range: 0.405 - 14.05 um
Origin: Iberian Pyrite Belt, Spain

Description: Rhyolite, medium grained unaltered volcanic





Measurement: Directional Hemispherical Reflectance
First Column: X
Second Column: Y
X Units: Wavelength (micrometers)
Y Units: Reflectance (percent)
First X Value: 14.05105
Last X Value: 0.40500
Number of X Values: 2530
Additional Information: rhy226a.txt

 14.051   3.5844
 14.013   3.8007
 13.975   3.9758
 13.938   3.7801
 13.900   3.9758
 13.863   4.1200
 13.826   4.2745
 13.790   4.2024
 13.753   4.1200
 13.717   3.9758
 13.680   4.0170
 13.644   3.9346
 13.609   3.9449
 13.573   3.9037
 13.538   3.9346
 13.502   3.9964
 13.467   4.2642
 13.432   4.2745
 13.398   4.2951
 13.363   4.2642
 13.329   4.2127
 13.295   4.1200
 13.261   4.2333
 13.227   4.2127
 13.193   4.4187
 13.160   4.5938
 13.126   4.7689
 13.093   4.8204
 13.060   4.9955
 13.027   4.9955
 12.995   5.0264
 12.962   5.0161
 12.930   5.0779
 12.898   5.1603
 12.866   5.5311
 12.834   5.9534
 12.802   6.3242
 12.771   6.4169
 12.739   6.3757
 12.708   6.0255
 12.677   5.5826
 12.646   5.0779
 12.616   4.8616
 12.585   4.7380
 12.554   4.8513
 12.524   5.1294
 12.494   5.4384
 12.464   5.4693
 12.434   5.4281
 12.404   5.0161
 12.375   4.2745
 12.345   3.3887
 12.316   2.8325
 12.287   2.4720
 12.258   2.3278
 12.229   2.2351
 12.200   2.3381
 12.171   2.4205
 12.143   2.5853
 12.115   2.7192
 12.086   2.9355
 12.058   2.9458
 12.030   3.0076
 12.002   3.0282
 11.975   3.1106
 11.947   3.1415
 11.920   3.2342
 11.892   3.3166
 11.865   3.5226
 11.838   3.5535
 11.811   3.6050
 11.784   3.5741
 11.757   3.6668
 11.731   3.7595
 11.704   3.8625
 11.678   3.8522
 11.652   3.9449
 11.626   3.9655
 11.600   4.0170
 11.574   4.0788
 11.548   4.1715
 11.522   4.1612
 11.497   4.2436
 11.471   4.2642
 11.446   4.2745
 11.421   4.2848
 11.396   4.4187
 11.371   4.4393
 11.346   4.5526
 11.321   4.6144
 11.297   4.6968
 11.272   4.7689
 11.248   4.8719
 11.223   4.7792
 11.199   4.8513
 11.175   4.9234
 11.151   4.9234
 11.127   4.9131
 11.103   4.9543
 11.079   4.9852
 11.056   5.1191
 11.032   5.1294
 11.009   5.2530
 10.985   5.3251
 10.962   5.3354
 10.939   5.2942
 10.916   5.4075
 10.893   5.4590
 10.870   5.5517
 10.848   5.5723
 10.825   5.6547
 10.802   5.7680
 10.780   5.8813
 10.758   5.9019
 10.735   6.0461
 10.713   6.0461
 10.691   6.1388
 10.669   6.2418
 10.647   6.3654
 10.625   6.4478
 10.604   6.5508
 10.582   6.5508
 10.560   6.6641
 10.539   6.8083
 10.518   6.9834
 10.496   7.0658
 10.475   7.2409
 10.454   7.3748
 10.433   7.5499
 10.412   7.6426
 10.391   7.8280
 10.370   7.9516
 10.350   8.0752
 10.329   8.2709
 10.309   8.4975
 10.288   8.6932
 10.268   8.9816
 10.247   9.1052
 10.227   9.3524
 10.207   9.5893
 10.187   9.8880
 10.167  10.1455
 10.147  10.4236
 10.127  10.6708
 10.108  10.9386
 10.088  11.0931
 10.068  11.2991
 10.049  11.5360
 10.029  11.8450
 10.010  12.0716
  9.991  12.3497
  9.972  12.5042
  9.952  12.6690
  9.933  12.8338
  9.914  12.9780
  9.895  13.0707
  9.877  13.2149
  9.858  13.1840
  9.839  13.1325
  9.821  13.0913
  9.802  13.0810
  9.783  13.1428
  9.765  13.3488
  9.747  13.4312
  9.728  13.6166
  9.710  14.0492
  9.692  14.5127
  9.674  14.8114
  9.656  15.2543
  9.638  15.5633
  9.620  15.8723
  9.602  15.9032
  9.585  15.8929
  9.567  15.8208
  9.549  15.8002
  9.532  15.7487
  9.514  15.7487
  9.497  15.8105
  9.479  15.8826
  9.462  15.9238
  9.445  16.1504
  9.428  16.4697
  9.411  16.9229
  9.394  17.3761
  9.377  17.9941
  9.360  18.5709
  9.343  19.1271
  9.326  19.6318
  9.309  19.9820
  9.293  20.1262
  9.276  20.4043
  9.259  20.4970
  9.243  20.4867
  9.226  20.4249
  9.210  20.4867
  9.194  20.5073
  9.178  20.4970
  9.161  20.4352
  9.145  20.3528
  9.129  20.1880
  9.113  20.0438
  9.097  19.9202
  9.081  19.8275
  9.065  19.6421
  9.049  19.5700
  9.034  19.4258
  9.018  19.3125
  9.002  19.2404
  8.987  19.2507
  8.971  19.2301
  8.956  19.2610
  8.940  19.3228
  8.925  19.3434
  8.909  19.2301
  8.894  19.2816
  8.879  19.3331
  8.864  19.3640
  8.849  19.3228
  8.834  19.3846
  8.819  19.4361
  8.804  19.4361
  8.789  19.3640
  8.774  19.3537
  8.759  19.2816
  8.744  19.2610
  8.730  19.1786
  8.715  19.1065
  8.700  19.0138
  8.686  18.7769
  8.671  18.3443
  8.657  17.7366
  8.642  16.9126
  8.628  16.1298
  8.614  15.8105
  8.599  16.4903
  8.585  17.5718
  8.571  18.5194
  8.557  19.1271
  8.543  19.4979
  8.529  19.7348
  8.515  19.9923
  8.501  20.1365
  8.487  20.2292
  8.473  20.2601
  8.459  20.3116
  8.445  20.3013
  8.431  20.3219
  8.418  20.3219
  8.404  20.2601
  8.391  20.2395
  8.377  20.2601
  8.363  20.1468
  8.350  20.0335
  8.337  19.8687
  8.323  19.7451
  8.310  19.5906
  8.297  19.5494
  8.283  19.4361
  8.270  19.3331
  8.257  19.1889
  8.244  19.0962
  8.231  19.0138
  8.218  18.8696
  8.205  18.5297
  8.192  18.2104
  8.179  17.6954
  8.166  16.9847
  8.153  16.1401
  8.140  15.2234
  8.128  14.1213
  8.115  13.0089
  8.102  11.9789
  8.090  11.0725
  8.077  10.1764
  8.064   9.2803
  8.052   8.5078
  8.039   7.9001
  8.027   7.2924
  8.015   6.8186
  8.002   6.3139
  7.990   5.8401
  7.978   5.4178
  7.965   5.0161
  7.953   4.6247
  7.941   4.3260
  7.929   3.9861
  7.917   3.6256
  7.905   3.3269
  7.893   3.2136
  7.881   2.9870
  7.869   2.7604
  7.857   2.5544
  7.845   2.3690
  7.833   2.2042
  7.821   2.1630
  7.809   2.0600
  7.798   1.9673
  7.786   1.8540
  7.774   1.8643
  7.763   1.7819
  7.751   1.6892
  7.739   1.6171
  7.728   1.5862
  7.716   1.5347
  7.705   1.5450
  7.694   1.4935
  7.682   1.4420
  7.671   1.3596
  7.659   1.3287
  7.648   1.2566
  7.637   1.2360
  7.626   1.1948
  7.614   1.1845
  7.603   1.1124
  7.592   1.0609
  7.581   1.0712
  7.570   1.1227
  7.559   1.0712
  7.548   1.0506
  7.537   1.0094
  7.526   0.9888
  7.515   0.9991
  7.504   1.0197
  7.493   0.9785
  7.483   0.9064
  7.472   0.8755
  7.461   0.9373
  7.450   0.9167
  7.440   0.9373
  7.429   0.9064
  7.418   0.8446
  7.408   0.7931
  7.397   0.8549
  7.387   0.8446
  7.376   0.8755
  7.366   0.8343
  7.355   0.8137
  7.345   0.7828
  7.334   0.8240
  7.324   0.8549
  7.314   0.8652
  7.303   0.8858
  7.293   0.9064
  7.283   0.8549
  7.273   0.8652
  7.263   0.8034
  7.252   0.8446
  7.242   0.8549
  7.232   0.8652
  7.222   0.9064
  7.212   0.9682
  7.202   0.9682
  7.192   0.9682
  7.182   0.9888
  7.172   0.9579
  7.162   0.8961
  7.152   0.8755
  7.143   0.8858
  7.133   0.9579
  7.123   1.0094
  7.113   1.0197
  7.103   0.9373
  7.094   0.9270
  7.084   0.9167
  7.074   0.9476
  7.065   0.9991
  7.055   0.9888
  7.046   0.9579
  7.036   0.9888
  7.026   0.9888
  7.017   0.9785
  7.007   0.9579
  6.998   1.0197
  6.989   1.0300
  6.979   1.0815
  6.970   1.0197
  6.960   1.0403
  6.951   1.0815
  6.942   1.0712
  6.932   0.9991
  6.923   1.0403
  6.914   1.0609
  6.905   1.0815
  6.896   1.0506
  6.886   1.0403
  6.877   1.0609
  6.868   1.0918
  6.859   1.0506
  6.850   1.0506
  6.841   1.0197
  6.832   1.0506
  6.823   1.1124
  6.814   1.1330
  6.805   1.0918
  6.796   1.1433
  6.787   1.1227
  6.778   1.0918
  6.770   1.0712
  6.761   1.0815
  6.752   1.0815
  6.743   1.1124
  6.734   1.1330
  6.726   1.1536
  6.717   1.1433
  6.708   1.1433
  6.700   1.1433
  6.691   1.2051
  6.682   1.2154
  6.674   1.1948
  6.665   1.1948
  6.657   1.2257
  6.648   1.2154
  6.640   1.2463
  6.631   1.2051
  6.623   1.1948
  6.614   1.2051
  6.606   1.2463
  6.597   1.2051
  6.589   1.1948
  6.581   1.2257
  6.572   1.3184
  6.564   1.3184
  6.556   1.2566
  6.547   1.1639
  6.539   1.1948
  6.531   1.2669
  6.523   1.2978
  6.514   1.3184
  6.506   1.2978
  6.498   1.2875
  6.490   1.3596
  6.482   1.3699
  6.474   1.3596
  6.466   1.2978
  6.458   1.2978
  6.450   1.2978
  6.442   1.3184
  6.434   1.3184
  6.426   1.3596
  6.418   1.3699
  6.410   1.3699
  6.402   1.3493
  6.394   1.3596
  6.386   1.3493
  6.378   1.3493
  6.370   1.2978
  6.363   1.2772
  6.355   1.2978
  6.347   1.3184
  6.339   1.3184
  6.332   1.3390
  6.324   1.3493
  6.316   1.4008
  6.308   1.3596
  6.301   1.3081
  6.293   1.3184
  6.286   1.4214
  6.278   1.4111
  6.270   1.3596
  6.263   1.3493
  6.255   1.3287
  6.248   1.2978
  6.240   1.4008
  6.233   1.4626
  6.225   1.4008
  6.218   1.3287
  6.210   1.3802
  6.203   1.4317
  6.195   1.3699
  6.188   1.2669
  6.181   1.3493
  6.173   1.4008
  6.166   1.3802
  6.159   1.3905
  6.151   1.4317
  6.144   1.4626
  6.137   1.4626
  6.130   1.4420
  6.122   1.4626
  6.115   1.4420
  6.108   1.4523
  6.101   1.4523
  6.094   1.4832
  6.086   1.4729
  6.079   1.5038
  6.072   1.5141
  6.065   1.5244
  6.058   1.5347
  6.051   1.5347
  6.044   1.4729
  6.037   1.5038
  6.030   1.5038
  6.023   1.5038
  6.016   1.5244
  6.009   1.5450
  6.002   1.5553
  5.995   1.5450
  5.988   1.5244
  5.981   1.4935
  5.974   1.4420
  5.967   1.4317
  5.960   1.5038
  5.954   1.5244
  5.947   1.5141
  5.940   1.5450
  5.933   1.5553
  5.926   1.5553
  5.920   1.5450
  5.913   1.5347
  5.906   1.5141
  5.899   1.5450
  5.893   1.5759
  5.886   1.5965
  5.879   1.5965
  5.873   1.5862
  5.866   1.5553
  5.859   1.5347
  5.853   1.5965
  5.846   1.6377
  5.840   1.5759
  5.833   1.5759
  5.827   1.6480
  5.820   1.6789
  5.813   1.6892
  5.807   1.7716
  5.800   1.7510
  5.794   1.6995
  5.788   1.6892
  5.781   1.6892
  5.775   1.7098
  5.768   1.7613
  5.762   1.7922
  5.755   1.7510
  5.749   1.7304
  5.743   1.7613
  5.736   1.7510
  5.730   1.7716
  5.724   1.8025
  5.717   1.8128
  5.711   1.7716
  5.705   1.7716
  5.698   1.8128
  5.692   1.8540
  5.686   1.8437
  5.680   1.8128
  5.674   1.8231
  5.667   1.8334
  5.661   1.7922
  5.655   1.7819
  5.649   1.7510
  5.643   1.7922
  5.637   1.8231
  5.630   1.8128
  5.624   1.8437
  5.618   1.8128
  5.612   1.7613
  5.606   1.7716
  5.600   1.7716
  5.594   1.7613
  5.588   1.7716
  5.582   1.7819
  5.576   1.7716
  5.570   1.7716
  5.564   1.7819
  5.558   1.8128
  5.552   1.7922
  5.546   1.7922
  5.540   1.8437
  5.534   1.8746
  5.528   1.8334
  5.523   1.8128
  5.517   1.8437
  5.511   1.8643
  5.505   1.8849
  5.499   1.9364
  5.493   1.9261
  5.487   1.9055
  5.482   1.9055
  5.476   1.9364
  5.470   1.9673
  5.464   1.9879
  5.459   1.9673
  5.453   1.9570
  5.447   1.9673
  5.441   1.9982
  5.436   1.9879
  5.430   2.0085
  5.424   1.9982
  5.419   1.9982
  5.413   1.9879
  5.407   1.9982
  5.402   1.9776
  5.396   1.9364
  5.390   1.9364
  5.385   1.9673
  5.379   1.9673
  5.374   1.9158
  5.368   1.8952
  5.363   1.9158
  5.357   1.9158
  5.352   1.9055
  5.346   1.8643
  5.341   1.8952
  5.335   1.9570
  5.330   1.9982
  5.324   1.9467
  5.319   1.9261
  5.313   1.9570
  5.308   1.9467
  5.302   1.8849
  5.297   1.8746
  5.291   1.8952
  5.286   1.9158
  5.281   1.9467
  5.275   1.9776
  5.270   1.9879
  5.265   2.0291
  5.259   2.0394
  5.254   2.0291
  5.249   2.0188
  5.243   2.0497
  5.238   2.1218
  5.233   2.1115
  5.227   2.0394
  5.222   2.0394
  5.217   2.0600
  5.212   2.1527
  5.206   2.2351
  5.201   2.2248
  5.196   2.2145
  5.191   2.2454
  5.186   2.2351
  5.180   2.2145
  5.175   2.1939
  5.170   2.1939
  5.165   2.1733
  5.160   2.1836
  5.155   2.2042
  5.150   2.2042
  5.145   2.2145
  5.139   2.2042
  5.134   2.2557
  5.129   2.2866
  5.124   2.2660
  5.119   2.2248
  5.114   2.2557
  5.109   2.2969
  5.104   2.2557
  5.099   2.2660
  5.094   2.3072
  5.089   2.2660
  5.084   2.2557
  5.079   2.2763
  5.074   2.2660
  5.069   2.2454
  5.064   2.2969
  5.059   2.3072
  5.054   2.2660
  5.049   2.3175
  5.044   2.3278
  5.040   2.3175
  5.035   2.3175
  5.030   2.2866
  5.025   2.2660
  5.020   2.2763
  5.015   2.2660
  5.010   2.2351
  5.005   2.2351
  5.001   2.2557
  4.996   2.2866
  4.991   2.3381
  4.986   2.3484
  4.981   2.3278
  4.977   2.3690
  4.972   2.3793
  4.967   2.3896
  4.962   2.4205
  4.958   2.4102
  4.953   2.4411
  4.948   2.4617
  4.943   2.5235
  4.939   2.5235
  4.934   2.4926
  4.929   2.5029
  4.925   2.4823
  4.920   2.5441
  4.915   2.6471
  4.911   2.6368
  4.906   2.6368
  4.901   2.6780
  4.897   2.6986
  4.892   2.6780
  4.888   2.6986
  4.883   2.8119
  4.878   2.8531
  4.874   2.8222
  4.869   2.8634
  4.865   2.9252
  4.860   2.9355
  4.856   2.9252
  4.851   2.9252
  4.846   2.9973
  4.842   3.0900
  4.837   3.0591
  4.833   3.0694
  4.828   3.1106
  4.824   3.1312
  4.819   3.1003
  4.815   3.1312
  4.810   3.1621
  4.806   3.1827
  4.802   3.2033
  4.797   3.1724
  4.793   3.1724
  4.788   3.1930
  4.784   3.1930
  4.779   3.2033
  4.775   3.2239
  4.771   3.2548
  4.766   3.2239
  4.762   3.2651
  4.758   3.2754
  4.753   3.2548
  4.749   3.2548
  4.744   3.2857
  4.740   3.3372
  4.736   3.3475
  4.731   3.3578
  4.727   3.3784
  4.723   3.3578
  4.719   3.3887
  4.714   3.4196
  4.710   3.4299
  4.706   3.4402
  4.701   3.4505
  4.697   3.3990
  4.693   3.3578
  4.689   3.3784
  4.684   3.4093
  4.680   3.4608
  4.676   3.4196
  4.672   3.3990
  4.668   3.4917
  4.663   3.5123
  4.659   3.5020
  4.655   3.5432
  4.651   3.5844
  4.647   3.6153
  4.643   3.5947
  4.638   3.6050
  4.634   3.6359
  4.630   3.7389
  4.626   3.7801
  4.622   3.7801
  4.618   3.8007
  4.614   3.8316
  4.610   3.8316
  4.605   3.8316
  4.601   3.8419
  4.597   3.8728
  4.593   3.9655
  4.589   4.0994
  4.585   4.1303
  4.581   4.0788
  4.577   4.0685
  4.573   4.1303
  4.569   4.1406
  4.565   4.1818
  4.561   4.1406
  4.557   4.1097
  4.553   4.1509
  4.549   4.1715
  4.545   4.1818
  4.541   4.2230
  4.537   4.2333
  4.533   4.2333
  4.529   4.2024
  4.525   4.1818
  4.521   4.1406
  4.517   4.1406
  4.513   4.1715
  4.509   4.1921
  4.505   4.2024
  4.502   4.1921
  4.498   4.1200
  4.494   4.0891
  4.490   4.0891
  4.486   4.0582
  4.482   4.0891
  4.478   4.1818
  4.474   4.1715
  4.470   4.1406
  4.467   4.1612
  4.463   4.1406
  4.459   4.1406
  4.455   4.2127
  4.451   4.2951
  4.447   4.3569
  4.444   4.3775
  4.440   4.3466
  4.436   4.3363
  4.432   4.3775
  4.428   4.4805
  4.425   4.5423
  4.421   4.5011
  4.417   4.5114
  4.413   4.5217
  4.410   4.5732
  4.406   4.6659
  4.402   4.7277
  4.398   4.7586
  4.395   4.8513
  4.391   4.9543
  4.387   5.0367
  4.384   5.0985
  4.380   5.1397
  4.376   5.1397
  4.372   5.2118
  4.369   5.2530
  4.365   5.3148
  4.361   5.4281
  4.358   5.5105
  4.354   5.5311
  4.350   5.5105
  4.347   5.5620
  4.343   5.6444
  4.340   5.6856
  4.336   5.6547
  4.332   5.7474
  4.329   5.8916
  4.325   5.8916
  4.321   5.8916
  4.318   5.8710
  4.314   5.8916
  4.311   5.9328
  4.307   5.9740
  4.304   5.9637
  4.300   5.9431
  4.296   5.9740
  4.293   6.0873
  4.289   6.0873
  4.286   6.0976
  4.282   6.0564
  4.279   6.1079
  4.275   6.2006
  4.272   6.2006
  4.268   6.2006
  4.265   6.3139
  4.261   6.3654
  4.258   6.4066
  4.254   6.4581
  4.251   6.4787
  4.247   6.4478
  4.244   6.5096
  4.240   6.5817
  4.237   6.5405
  4.233   6.5096
  4.230   6.5302
  4.226   6.5508
  4.223   6.6332
  4.219   6.7156
  4.216   6.7156
  4.213   6.7362
  4.209   6.7980
  4.206   6.8083
  4.202   6.8186
  4.199   6.8392
  4.196   6.8289
  4.192   6.7877
  4.189   6.8392
  4.185   6.8186
  4.182   6.8289
  4.179   6.9113
  4.175   6.9628
  4.172   7.0040
  4.169   7.0040
  4.165   7.0143
  4.162   7.0761
  4.159   7.1482
  4.155   7.2409
  4.152   7.2512
  4.149   7.2306
  4.145   7.2718
  4.142   7.3233
  4.139   7.2924
  4.135   7.3130
  4.132   7.3954
  4.129   7.4469
  4.126   7.3748
  4.122   7.3645
  4.119   7.4675
  4.116   7.5293
  4.112   7.5499
  4.109   7.6014
  4.106   7.6426
  4.103   7.6632
  4.099   7.6941
  4.096   7.7662
  4.093   7.7456
  4.090   7.7662
  4.086   7.8692
  4.083   7.9516
  4.080   7.9104
  4.077   7.9310
  4.074   7.9825
  4.070   8.0134
  4.067   7.9619
  4.064   7.9001
  4.061   7.8795
  4.058   7.9207
  4.055   7.9207
  4.051   8.0134
  4.048   8.0546
  4.045   8.0237
  4.042   8.0443
  4.039   8.0237
  4.036   7.9001
  4.032   7.9516
  4.029   7.9928
  4.026   8.0237
  4.023   8.0649
  4.020   8.0134
  4.017   7.9722
  4.014   7.9310
  4.011   7.8898
  4.008   7.9413
  4.004   7.9619
  4.001   8.0340
  3.998   8.1061
  3.995   8.1061
  3.992   8.0443
  3.989   8.0340
  3.986   8.0752
  3.983   8.1782
  3.980   8.2503
  3.977   8.2297
  3.974   8.1473
  3.971   8.2091
  3.968   8.2606
  3.965   8.3327
  3.962   8.3636
  3.959   8.2915
  3.956   8.2400
  3.953   8.3224
  3.950   8.4460
  3.947   8.5387
  3.944   8.4975
  3.941   8.4769
  3.938   8.4872
  3.935   8.5387
  3.932   8.5387
  3.929   8.4872
  3.926   8.4872
  3.923   8.5284
  3.920   8.5799
  3.917   8.6623
  3.914   8.6726
  3.911   8.6211
  3.908   8.5902
  3.905   8.6108
  3.902   8.5902
  3.899   8.6211
  3.896   8.6932
  3.893   8.7241
  3.890   8.6417
  3.887   8.5902
  3.884   8.6108
  3.882   8.6829
  3.879   8.6520
  3.876   8.5799
  3.873   8.5284
  3.870   8.5387
  3.867   8.5593
  3.864   8.5387
  3.861   8.4769
  3.858   8.4872
  3.856   8.5181
  3.853   8.5696
  3.850   8.6417
  3.847   8.7859
  3.844   8.8065
  3.841   8.7138
  3.838   8.6623
  3.836   8.6932
  3.833   8.7138
  3.830   8.7344
  3.827   8.7138
  3.824   8.6932
  3.822   8.6829
  3.819   8.6829
  3.816   8.7550
  3.813   8.8374
  3.810   8.7550
  3.807   8.7035
  3.805   8.7859
  3.802   8.8477
  3.799   8.7756
  3.796   8.7550
  3.794   8.7653
  3.791   8.8065
  3.788   8.7756
  3.785   8.7859
  3.782   8.8271
  3.780   8.8271
  3.777   8.8168
  3.774   8.8889
  3.771   8.8889
  3.769   8.7653
  3.766   8.6623
  3.763   8.7447
  3.761   8.7653
  3.758   8.7035
  3.755   8.6520
  3.752   8.6623
  3.750   8.5902
  3.747   8.6314
  3.744   8.6726
  3.742   8.7859
  3.739   8.8065
  3.736   8.6726
  3.733   8.5181
  3.731   8.6520
  3.728   8.7859
  3.725   8.7550
  3.723   8.6211
  3.720   8.5902
  3.717   8.6520
  3.715   8.6623
  3.712   8.6829
  3.709   8.7035
  3.707   8.6932
  3.704   8.7550
  3.702   8.7962
  3.699   8.8683
  3.696   8.8889
  3.694   8.8580
  3.691   8.7756
  3.688   8.7138
  3.686   8.7550
  3.683   8.9507
  3.680   9.0022
  3.678   8.9610
  3.675   8.8889
  3.673   8.9610
  3.670   8.9713
  3.667   8.8889
  3.665   8.8683
  3.662   8.9404
  3.660   9.0022
  3.657   9.0022
  3.655   8.9507
  3.652   8.8786
  3.649   8.7550
  3.647   8.7962
  3.644   8.8168
  3.642   8.8889
  3.639   8.9404
  3.637   8.9198
  3.634   8.8992
  3.632   8.9301
  3.629   8.9301
  3.626   8.8374
  3.624   8.8168
  3.621   8.8992
  3.619   8.8889
  3.616   8.8477
  3.614   8.8271
  3.611   8.7756
  3.609   8.7241
  3.606   8.7138
  3.604   8.7138
  3.601   8.7241
  3.599   8.6417
  3.596   8.6108
  3.594   8.6829
  3.591   8.7653
  3.589   8.7447
  3.586   8.6726
