Name: Basalt
Type: Rock
Class: Igneous
Subclass: Mafic
Particle Size: Whole rock chips
Sample No.: Me67
Owner: Lawrence Rowan, USGS Reston
Wavelength range: 0.40 - 14.05 um
Origin: J. Ghassul, Jordan

Description: Basalt, fresh surface, fragment of basalt bowl rim





Measurement: Directional Hemispherical Reflectance
First Column: X
Second Column: Y
X Units: Wavelength (micrometers)
Y Units: Reflectance (percent)
First X Value: 14.05105
Last X Value: 0.40000
Number of X Values: 2231
Additional Information: me67a.txt

 14.051   2.3484
 14.013   2.3999
 13.975   2.6780
 13.938   2.5956
 13.900   2.6162
 13.863   2.5853
 13.826   2.6883
 13.790   2.7501
 13.753   2.8222
 13.717   2.7707
 13.680   2.8737
 13.644   2.7913
 13.609   2.8737
 13.573   2.8428
 13.538   2.9252
 13.502   2.8325
 13.467   2.9252
 13.432   2.9870
 13.398   3.0076
 13.363   2.8531
 13.329   2.8737
 13.295   2.8428
 13.261   2.9046
 13.227   2.9664
 13.193   3.0900
 13.160   2.9870
 13.126   3.0076
 13.093   2.9767
 13.060   2.9973
 13.027   2.9046
 12.995   2.9870
 12.962   2.9973
 12.930   3.0385
 12.898   2.9870
 12.866   3.0591
 12.834   3.0179
 12.802   3.0488
 12.771   3.0282
 12.739   2.9973
 12.708   2.9870
 12.677   3.1106
 12.646   3.0900
 12.616   3.2239
 12.585   3.2445
 12.554   3.2548
 12.524   3.2033
 12.494   3.3166
 12.464   3.4093
 12.434   3.5123
 12.404   3.4402
 12.375   3.4917
 12.345   3.6359
 12.316   3.9243
 12.287   3.9243
 12.258   3.9140
 12.229   3.9449
 12.200   4.1406
 12.171   4.1509
 12.143   4.2230
 12.115   4.2848
 12.086   4.4290
 12.058   4.4702
 12.030   4.5732
 12.002   4.6144
 11.975   4.6041
 11.947   4.5320
 11.920   4.6556
 11.892   4.6762
 11.865   4.7792
 11.838   4.8410
 11.811   4.9440
 11.784   4.9543
 11.757   5.0367
 11.731   5.1294
 11.704   5.2633
 11.678   5.2530
 11.652   5.4178
 11.626   5.5723
 11.600   5.7268
 11.574   5.7474
 11.548   5.8710
 11.522   6.0358
 11.497   6.1800
 11.471   6.2109
 11.446   6.4478
 11.421   6.5920
 11.396   6.7156
 11.371   6.7053
 11.346   6.9010
 11.321   6.9937
 11.297   7.0246
 11.272   7.1276
 11.248   7.2718
 11.223   7.2306
 11.199   7.2615
 11.175   7.3130
 11.151   7.5087
 11.127   7.5705
 11.103   7.5602
 11.079   7.5293
 11.056   7.5808
 11.032   7.5499
 11.009   7.6632
 10.985   7.7662
 10.962   7.8383
 10.939   7.8177
 10.916   7.8795
 10.893   7.8692
 10.870   7.8692
 10.848   7.8589
 10.825   7.8898
 10.802   7.8795
 10.780   7.9104
 10.758   7.8795
 10.735   7.8589
 10.713   7.7250
 10.691   7.7250
 10.669   7.6941
 10.647   7.6426
 10.625   7.4881
 10.604   7.4572
 10.582   7.3645
 10.560   7.3439
 10.539   7.3027
 10.518   7.3233
 10.496   7.3336
 10.475   7.3336
 10.454   7.1791
 10.433   7.1379
 10.412   7.1070
 10.391   7.1997
 10.370   7.2306
 10.350   7.2409
 10.329   7.1482
 10.309   7.0761
 10.288   6.9422
 10.268   6.9525
 10.247   6.8804
 10.227   6.8289
 10.207   6.7568
 10.187   6.7568
 10.167   6.6847
 10.147   6.6950
 10.127   6.7362
 10.108   6.7774
 10.088   6.7053
 10.068   6.7980
 10.049   6.8907
 10.029   6.9216
 10.010   6.8804
  9.991   7.0246
  9.972   7.1173
  9.952   7.1791
  9.933   7.1379
  9.914   7.0658
  9.895   7.0967
  9.877   7.2306
  9.858   7.2203
  9.839   7.2100
  9.821   7.1173
  9.802   7.1379
  9.783   7.1379
  9.765   7.1482
  9.747   7.1791
  9.728   7.2718
  9.710   7.3027
  9.692   7.3439
  9.674   7.2615
  9.656   7.2100
  9.638   7.1688
  9.620   7.2306
  9.602   7.1791
  9.585   7.2100
  9.567   7.1997
  9.549   7.1791
  9.532   7.1070
  9.514   7.0658
  9.497   7.0349
  9.479   7.1070
  9.462   7.1070
  9.445   7.0864
  9.428   6.9422
  9.411   6.8907
  9.394   6.8289
  9.377   6.7877
  9.360   6.7774
  9.343   6.7980
  9.326   6.7259
  9.309   6.7053
  9.293   6.5508
  9.276   6.4787
  9.259   6.4787
  9.243   6.5302
  9.226   6.4375
  9.210   6.4375
  9.194   6.4684
  9.178   6.4993
  9.161   6.4993
  9.145   6.5714
  9.129   6.5714
  9.113   6.6332
  9.097   6.6023
  9.081   6.6332
  9.065   6.6435
  9.049   6.7053
  9.034   6.7362
  9.018   6.7980
  9.002   6.6847
  8.987   6.5817
  8.971   6.5508
  8.956   6.5817
  8.940   6.4787
  8.925   6.4993
  8.909   6.4993
  8.894   6.5199
  8.879   6.3654
  8.864   6.2315
  8.849   6.1079
  8.834   6.1285
  8.819   6.0667
  8.804   5.9328
  8.789   5.8401
  8.774   5.8504
  8.759   5.7165
  8.744   5.6650
  8.730   5.6650
  8.715   5.6444
  8.700   5.5517
  8.686   5.5620
  8.671   5.4384
  8.657   5.3663
  8.642   5.3457
  8.628   5.1912
  8.614   5.0573
  8.599   5.0779
  8.585   5.1088
  8.571   5.1397
  8.557   5.0985
  8.543   5.0882
  8.529   4.9543
  8.515   4.9440
  8.501   4.9028
  8.487   4.8204
  8.473   4.7277
  8.459   4.7586
  8.445   4.7895
  8.431   4.8101
  8.418   4.7792
  8.404   4.6968
  8.391   4.5526
  8.377   4.5320
  8.363   4.4599
  8.350   4.4496
  8.337   4.4084
  8.323   4.3466
  8.310   4.1818
  8.297   4.0582
  8.283   3.9346
  8.270   3.7904
  8.257   3.6050
  8.244   3.4608
  8.231   3.2548
  8.218   3.1415
  8.205   2.9870
  8.192   2.8428
  8.179   2.6986
  8.166   2.5853
  8.153   2.4205
  8.140   2.2969
  8.128   2.2454
  8.115   2.1836
  8.102   2.0497
  8.090   2.0394
  8.077   1.9673
  8.064   1.8952
  8.052   1.8334
  8.039   1.8540
  8.027   1.8025
  8.015   1.8334
  8.002   1.8231
  7.990   1.8334
  7.978   1.8128
  7.965   1.8025
  7.953   1.7304
  7.941   1.7098
  7.929   1.6789
  7.917   1.6480
  7.905   1.6377
  7.893   1.7201
  7.881   1.7304
  7.869   1.6892
  7.857   1.6789
  7.845   1.7098
  7.833   1.7304
  7.821   1.7613
  7.809   1.6789
  7.798   1.6995
  7.786   1.6789
  7.774   1.7304
  7.763   1.7922
  7.751   1.7716
  7.739   1.7922
  7.728   1.8540
  7.716   1.7716
  7.705   1.7304
  7.694   1.7304
  7.682   1.7922
  7.671   1.8334
  7.659   1.8334
  7.648   1.8540
  7.637   1.8746
  7.626   1.8231
  7.614   1.8025
  7.603   1.7510
  7.592   1.7407
  7.581   1.8025
  7.570   1.8952
  7.559   1.8849
  7.548   1.8643
  7.537   1.8437
  7.526   1.8746
  7.515   1.8849
  7.504   1.8952
  7.493   1.8849
  7.483   1.8952
  7.472   1.9261
  7.461   1.9673
  7.450   1.9364
  7.440   1.9467
  7.429   1.9879
  7.418   1.9982
  7.408   1.9570
  7.397   1.9776
  7.387   2.0394
  7.376   2.0806
  7.366   2.0188
  7.355   1.9982
  7.345   2.0188
  7.334   2.0394
  7.324   1.9776
  7.314   2.0085
  7.303   2.0291
  7.293   2.0085
  7.283   1.9570
  7.273   1.9879
  7.263   1.9982
  7.252   2.0600
  7.242   2.0703
  7.232   2.0806
  7.222   2.0600
  7.212   2.0703
  7.202   2.0600
  7.192   2.0806
  7.182   2.1115
  7.172   2.1218
  7.162   2.1115
  7.152   2.1012
  7.143   2.1115
  7.133   2.1836
  7.123   2.1733
  7.113   2.1939
  7.103   2.2042
  7.094   2.2660
  7.084   2.3278
  7.074   2.3896
  7.065   2.3278
  7.055   2.3278
  7.046   2.3278
  7.036   2.3175
  7.026   2.2763
  7.017   2.2866
  7.007   2.3381
  6.998   2.4308
  6.989   2.3690
  6.979   2.3896
  6.970   2.3793
  6.960   2.3587
  6.951   2.3896
  6.942   2.4411
  6.932   2.4205
  6.923   2.4102
  6.914   2.3999
  6.905   2.4205
  6.896   2.4308
  6.886   2.4720
  6.877   2.4411
  6.868   2.4720
  6.859   2.4823
  6.850   2.4720
  6.841   2.4411
  6.832   2.4823
  6.823   2.5544
  6.814   2.5544
  6.805   2.4926
  6.796   2.5544
  6.787   2.5235
  6.778   2.5029
  6.770   2.5235
  6.761   2.5647
  6.752   2.5750
  6.743   2.6059
  6.734   2.6059
  6.726   2.6059
  6.717   2.6162
  6.708   2.6780
  6.700   2.7089
  6.691   2.6986
  6.682   2.6368
  6.674   2.5750
  6.665   2.6059
  6.657   2.6471
  6.648   2.6574
  6.640   2.6986
  6.631   2.6677
  6.623   2.6574
  6.614   2.6780
  6.606   2.7501
  6.597   2.8222
  6.589   2.8222
  6.581   2.7501
  6.572   2.7501
  6.564   2.7398
  6.556   2.7604
  6.547   2.7913
  6.539   2.8016
  6.531   2.7810
  6.523   2.8119
  6.514   2.8634
  6.506   2.9046
  6.498   2.8531
  6.490   2.8119
  6.482   2.7810
  6.474   2.7810
  6.466   2.7501
  6.458   2.7913
  6.450   2.8222
  6.442   2.8119
  6.434   2.7604
  6.426   2.8119
  6.418   2.7604
  6.410   2.7295
  6.402   2.7398
  6.394   2.7295
  6.386   2.7192
  6.378   2.7398
  6.370   2.6677
  6.363   2.6368
  6.355   2.6162
  6.347   2.6677
  6.339   2.6471
  6.332   2.5956
  6.324   2.5750
  6.316   2.5750
  6.308   2.5544
  6.301   2.5441
  6.293   2.5441
  6.286   2.5235
  6.278   2.5029
  6.270   2.4926
  6.263   2.4926
  6.255   2.5235
  6.248   2.5029
  6.240   2.5132
  6.233   2.5441
  6.225   2.5647
  6.218   2.5750
  6.210   2.5338
  6.203   2.4617
  6.195   2.4514
  6.188   2.4411
  6.181   2.4411
  6.173   2.4102
  6.166   2.4205
  6.159   2.4308
  6.151   2.4617
  6.144   2.4514
  6.137   2.4102
  6.130   2.3999
  6.122   2.4308
  6.115   2.4308
  6.108   2.4720
  6.101   2.4617
  6.094   2.4926
  6.086   2.4926
  6.079   2.4411
  6.072   2.4102
  6.065   2.4514
  6.058   2.4514
  6.051   2.4514
  6.044   2.4205
  6.037   2.4411
  6.030   2.4823
  6.023   2.5441
  6.016   2.5441
  6.009   2.5338
  6.002   2.5132
  5.995   2.5338
  5.988   2.5647
  5.981   2.5647
  5.974   2.5441
  5.967   2.6162
  5.960   2.6265
  5.954   2.6471
  5.947   2.6780
  5.940   2.6162
  5.933   2.5647
  5.926   2.7089
  5.920   2.7810
  5.913   2.7604
  5.906   2.7398
  5.899   2.7501
  5.893   2.7398
  5.886   2.7295
  5.879   2.7707
  5.873   2.7913
  5.866   2.8119
  5.859   2.9046
  5.853   2.9252
  5.846   2.9355
  5.840   2.8840
  5.833   2.8634
  5.827   2.9149
  5.820   2.9870
  5.813   2.9664
  5.807   2.9664
  5.800   2.9561
  5.794   2.9458
  5.788   3.0179
  5.781   3.0385
  5.775   3.0282
  5.768   3.0385
  5.762   3.0385
  5.755   3.1106
  5.749   3.1003
  5.743   3.0591
  5.736   3.0282
  5.730   3.0282
  5.724   3.0694
  5.717   3.1209
  5.711   3.0900
  5.705   3.1003
  5.698   3.1415
  5.692   3.1415
  5.686   3.1106
  5.680   3.1209
  5.674   3.1621
  5.667   3.1827
  5.661   3.1518
  5.655   3.1518
  5.649   3.1827
  5.643   3.2445
  5.637   3.2548
  5.630   3.2651
  5.624   3.2445
  5.618   3.2136
  5.612   3.2033
  5.606   3.2033
  5.600   3.1930
  5.594   3.2033
  5.588   3.1724
  5.582   3.1415
  5.576   3.1415
  5.570   3.1209
  5.564   3.1209
  5.558   3.1930
  5.552   3.2548
  5.546   3.2651
  5.540   3.2651
  5.534   3.2857
  5.528   3.2857
  5.523   3.3166
  5.517   3.3578
  5.511   3.3578
  5.505   3.3578
  5.499   3.3990
  5.493   3.3990
  5.487   3.4299
  5.482   3.4299
  5.476   3.4299
  5.470   3.4814
  5.464   3.5123
  5.459   3.5020
  5.453   3.5329
  5.447   3.5329
  5.441   3.5123
  5.436   3.5020
  5.430   3.5535
  5.424   3.5741
  5.419   3.5844
  5.413   3.6256
  5.407   3.6359
  5.402   3.6359
  5.396   3.6668
  5.390   3.6565
  5.385   3.6359
  5.379   3.6565
  5.374   3.6668
  5.368   3.6050
  5.363   3.6359
  5.357   3.6977
  5.352   3.6771
  5.346   3.6256
  5.341   3.6668
  5.335   3.7286
  5.330   3.6977
  5.324   3.6771
  5.319   3.7286
  5.313   3.7492
  5.308   3.7389
  5.302   3.7595
  5.297   3.7904
  5.291   3.8316
  5.286   3.8522
  5.281   3.8419
  5.275   3.8625
  5.270   3.8625
  5.265   3.8728
  5.259   3.8728
  5.254   3.8831
  5.249   3.9037
  5.243   3.9243
  5.238   3.9346
  5.233   3.9346
  5.227   3.9243
  5.222   3.9449
  5.217   3.9964
  5.212   4.0067
  5.206   4.0170
  5.201   4.0273
  5.196   4.0582
  5.191   4.0479
  5.186   4.0273
  5.180   4.0479
  5.175   4.1200
  5.170   4.1509
  5.165   4.1406
  5.160   4.1406
  5.155   4.1509
  5.150   4.1406
  5.145   4.1715
  5.139   4.2230
  5.134   4.2333
  5.129   4.2745
  5.124   4.2745
  5.119   4.2642
  5.114   4.2539
  5.109   4.2539
  5.104   4.2642
  5.099   4.2745
  5.094   4.3260
  5.089   4.2951
  5.084   4.3157
  5.079   4.3569
  5.074   4.3775
  5.069   4.3878
  5.064   4.4084
  5.059   4.3981
  5.054   4.3775
  5.049   4.4393
  5.044   4.4805
  5.040   4.4702
  5.035   4.4393
  5.030   4.4393
  5.025   4.4393
  5.020   4.4496
  5.015   4.5217
  5.010   4.5629
  5.005   4.5835
  5.001   4.5835
  4.996   4.5938
  4.991   4.6247
  4.986   4.6762
  4.981   4.6659
  4.977   4.6556
  4.972   4.6659
  4.967   4.6865
  4.962   4.7174
  4.958   4.7174
  4.953   4.7174
  4.948   4.7689
  4.943   4.7792
  4.939   4.7586
  4.934   4.7895
  4.929   4.8410
  4.925   4.8616
  4.920   4.8410
  4.915   4.8410
  4.911   4.8925
  4.906   4.9337
  4.901   4.9543
  4.897   4.9646
  4.892   4.9543
  4.888   4.9749
  4.883   4.9955
  4.878   4.9955
  4.874   5.0058
  4.869   4.9749
  4.865   4.9646
  4.860   5.0161
  4.856   5.0676
  4.851   5.0779
  4.846   5.0985
  4.842   5.0985
  4.837   5.1191
  4.833   5.1397
  4.828   5.1294
  4.824   5.1191
  4.819   5.1294
  4.815   5.1191
  4.810   5.1603
  4.806   5.2118
  4.802   5.2633
  4.797   5.2530
  4.793   5.2942
  4.788   5.2942
  4.784   5.2530
  4.779   5.3354
  4.775   5.4178
  4.771   5.3766
  4.766   5.3148
  4.762   5.3148
  4.758   5.3045
  4.753   5.3766
  4.749   5.4178
  4.744   5.3972
  4.740   5.4693
  4.736   5.4693
  4.731   5.4384
  4.727   5.5002
  4.723   5.5414
  4.719   5.5311
  4.714   5.4899
  4.710   5.4693
  4.706   5.5620
  4.701   5.6135
  4.697   5.6135
  4.693   5.6032
  4.689   5.6238
  4.684   5.6032
  4.680   5.6032
  4.676   5.6650
  4.672   5.7371
  4.668   5.7268
  4.663   5.6753
  4.659   5.6753
  4.655   5.6959
  4.651   5.7989
  4.647   5.8710
  4.643   5.8607
  4.638   5.8607
  4.634   5.8916
  4.630   5.9534
  4.626   6.0049
  4.622   5.9946
  4.618   6.0152
  4.614   6.0564
  4.610   6.0667
  4.605   6.1285
  4.601   6.2006
  4.597   6.1697
  4.593   6.1079
  4.589   6.1903
  4.585   6.2006
  4.581   6.2315
  4.577   6.2933
  4.573   6.3448
  4.569   6.3036
  4.565   6.3242
  4.561   6.3448
  4.557   6.3654
  4.553   6.3757
  4.549   6.4066
  4.545   6.3963
  4.541   6.4375
  4.537   6.5096
  4.533   6.5302
  4.529   6.5096
  4.525   6.5096
  4.521   6.5611
  4.517   6.6023
  4.513   6.6023
  4.509   6.6229
  4.505   6.6641
  4.502   6.6847
  4.498   6.6229
  4.494   6.6950
  4.490   6.7362
  4.486   6.7465
  4.482   6.7877
  4.478   6.8392
  4.474   6.8598
  4.470   6.8289
  4.467   6.8392
  4.463   6.8495
  4.459   6.8598
  4.455   6.8701
  4.451   6.9010
  4.447   6.9525
  4.444   6.9731
  4.440   6.9937
  4.436   6.9525
  4.432   6.9937
  4.428   7.0864
  4.425   7.1070
  4.421   7.0967
  4.417   7.0864
  4.413   7.1070
  4.410   7.1070
  4.406   7.1688
  4.402   7.3027
  4.398   7.2512
  4.395   7.2100
  4.391   7.2203
  4.387   7.2100
  4.384   7.1997
  4.380   7.2512
  4.376   7.3233
  4.372   7.3954
  4.369   7.3851
  4.365   7.3748
  4.361   7.3645
  4.358   7.3439
  4.354   7.4160
  4.350   7.4366
  4.347   7.4263
  4.343   7.5087
  4.340   7.4881
  4.336   7.4572
  4.332   7.4366
  4.329   7.4984
  4.325   7.6014
  4.321   7.5911
  4.318   7.6323
  4.314   7.6838
  4.311   7.6323
  4.307   7.6941
  4.304   7.7971
  4.300   7.8589
  4.296   7.9207
  4.293   7.9310
  4.289   7.8383
  4.286   7.7559
  4.282   7.7971
  4.279   7.8795
  4.275   7.9310
  4.272   7.9825
  4.268   7.9825
  4.265   7.9516
  4.261   7.8692
  4.258   7.8177
  4.254   7.8177
  4.251   7.9104
  4.247   8.0134
  4.244   8.0855
  4.240   8.2400
  4.237   8.3018
  4.233   8.2194
  4.230   8.1782
  4.226   8.1885
  4.223   8.1576
  4.219   8.1473
  4.216   8.1782
  4.213   8.1576
  4.209   8.0752
  4.206   7.9825
  4.202   8.0443
  4.199   8.1782
  4.196   8.2194
  4.192   8.1164
  4.189   8.0443
  4.185   8.0340
  4.182   8.0958
  4.179   8.1370
  4.175   8.1370
  4.172   8.1679
  4.169   8.1885
  4.165   8.2091
  4.162   8.2194
  4.159   8.1576
  4.155   8.1267
  4.152   8.0958
  4.149   8.1576
  4.145   8.2297
  4.142   8.2194
  4.139   8.1679
  4.135   8.2091
  4.132   8.3121
  4.129   8.2915
  4.126   8.3121
  4.122   8.2915
  4.119   8.2709
  4.116   8.3327
  4.112   8.2709
  4.109   8.2297
  4.106   8.2194
  4.103   8.1782
  4.099   8.2194
  4.096   8.3121
  4.093   8.3636
  4.090   8.3739
  4.086   8.3636
  4.083   8.4151
  4.080   8.3842
  4.077   8.3430
  4.074   8.3224
  4.070   8.3533
  4.067   8.3327
  4.064   8.3121
  4.061   8.3224
  4.058   8.3636
  4.055   8.3842
  4.051   8.3636
  4.048   8.2915
  4.045   8.2400
  4.042   8.2091
  4.039   8.2709
  4.036   8.2194
  4.032   8.1988
  4.029   8.1679
  4.026   8.1576
  4.023   8.1370
  4.020   8.1885
  4.017   8.2091
  4.014   8.1679
  4.011   8.0237
  4.008   8.0031
  4.004   8.0031
  4.001   7.9619
  3.998   7.9001
  3.995   7.8692
  3.992   7.8177
  3.989   7.8074
  3.986   7.7662
  3.983   7.7559
  3.980   7.7353
  3.977   7.7353
  3.974   7.7353
  3.971   7.7250
  3.968   7.6941
  3.965   7.7868
  3.962   7.8486
  3.959   7.8177
  3.956   7.7044
  3.953   7.8074
  3.950   7.9516
  3.947   7.9516
  3.944   7.9825
  3.941   8.0752
  3.938   8.1267
  3.935   8.1267
  3.932   8.0855
  3.929   8.0958
  3.926   8.0649
  3.923   8.1061
  3.920   8.1576
  3.917   8.1576
  3.914   8.1267
  3.911   8.2297
  3.908   8.3327
  3.905   8.3327
  3.902   8.3224
  3.899   8.3327
  3.896   8.3018
  3.893   8.2709
  3.890   8.2194
  3.887   8.2400
  3.884   8.2606
  3.882   8.3018
  3.879   8.3327
  3.876   8.3430
  3.873   8.3018
  3.870   8.2297
  3.867   8.2194
  3.864   8.2709
  3.861   8.3018
  3.858   8.3739
  3.856   8.3739
  3.853   8.3018
  3.850   8.2503
  3.847   8.3327
  3.844   8.3945
  3.841   8.4769
  3.838   8.4563
  3.836   8.4357
  3.833   8.4357
  3.830   8.4872
  3.827   8.4872
  3.824   8.4872
  3.822   8.4975
  3.819   8.4975
  3.816   8.5387
  3.813   8.5696
  3.810   8.4769
  3.807   8.4460
  3.805   8.4769
  3.802   8.5490
  3.799   8.5387
  3.796   8.5490
  3.794   8.6314
  3.791   8.6417
  3.788   8.6520
  3.785   8.6932
  3.782   8.7035
  3.780   8.7962
  3.777   8.8065
  3.774   8.7447
  3.771   8.7035
  3.769   8.7653
  3.766   8.7756
  3.763   8.7035
  3.761   8.6829
  3.758   8.7756
  3.755   8.7756
  3.752   8.8477
  3.750   8.8168
  3.747   8.7550
  3.744   8.7653
  3.742   8.8683
  3.739   8.9404
  3.736   8.9095
  3.733   8.7962
  3.731   8.7756
  3.728   8.7653
  3.725   8.7344
  3.723   8.7447
  3.720   8.8065
  3.717   8.7653
  3.715   8.7859
  3.712   8.8477
  3.709   8.8477
  3.707   8.8374
  3.704   8.8683
  3.702   8.7962
  3.699   8.7756
  3.696   8.8065
  3.694   8.7859
  3.691   8.7447
  3.688   8.6829
  3.686   8.7344
  3.683   8.7653
  3.680   8.7241
  3.678   8.7550
  3.675   8.7344
  3.673   8.7138
  3.670   8.7344
  3.667   8.7859
  3.665   8.6829
  3.662   8.6314
  3.660   8.6829
  3.657   8.7241
  3.655   8.7035
  3.652   8.6932
  3.649   8.6726
  3.647   8.6726
  3.644   8.7035
  3.642   8.6932
  3.639   8.6005
  3.637   8.6520
  3.634   8.6520
  3.632   8.6314
  3.629   8.5799
  3.626   8.5387
  3.624   8.4975
  3.621   8.4872
  3.619   8.5593
  3.616   8.6211
  3.614   8.5902
  3.611   8.5593
  3.609   8.5799
  3.606   8.6005
  3.604   8.5696
  3.601   8.5284
  3.599   8.4872
  3.596   8.4357
  3.594   8.4254
  3.591   8.5181
  3.589   8.4872
  3.586   8.4460
  3.584   8.4666
  3.581   8.4975
