Name: Dacite
Type: Rock
Class: Intermediate
Subclass: Felsic
Particle Size: Whole Rock Chips
Sample No.: AP-937-161
Owner: United States Geological Survey, L. C. Rowan
Wavelength range: 0.405 - 14.05 um
Origin: Iberian Pyrite Belt, Spain

Description: Dacite, tan phyllic, altered





Measurement: Directional Hemispherical Reflectance
First Column: X
Second Column: Y
X Units: Wavelength (micrometers)
Y Units: Reflectance (percent)
First X Value: 14.05105
Last X Value: 0.40500
Number of X Values: 2530
Additional Information: dac161a.txt

 14.051   3.5123
 14.013   3.5329
 13.975   3.6462
 13.938   3.5329
 13.900   3.5020
 13.863   3.4608
 13.826   3.6153
 13.790   3.5741
 13.753   3.6771
 13.717   3.6462
 13.680   3.6874
 13.644   3.5535
 13.609   3.4608
 13.573   3.3269
 13.538   3.4196
 13.502   3.4196
 13.467   3.4505
 13.432   3.2754
 13.398   3.2033
 13.363   3.2136
 13.329   3.3063
 13.295   3.3063
 13.261   3.3063
 13.227   3.2754
 13.193   3.2754
 13.160   3.2857
 13.126   3.3166
 13.093   3.2960
 13.060   3.3166
 13.027   3.3166
 12.995   3.4093
 12.962   3.3990
 12.930   3.4093
 12.898   3.5020
 12.866   3.7286
 12.834   3.7183
 12.802   3.7801
 12.771   3.8007
 12.739   3.8316
 12.708   3.7904
 12.677   3.8213
 12.646   3.8934
 12.616   4.0273
 12.585   4.1097
 12.554   4.3466
 12.524   4.4908
 12.494   4.5835
 12.464   4.5732
 12.434   4.5732
 12.404   4.5423
 12.375   4.5732
 12.345   4.5217
 12.316   4.5526
 12.287   4.4599
 12.258   4.4187
 12.229   4.3466
 12.200   4.3672
 12.171   4.3569
 12.143   4.4908
 12.115   4.5732
 12.086   4.6350
 12.058   4.5938
 12.030   4.5732
 12.002   4.5114
 11.975   4.5732
 11.947   4.6041
 11.920   4.6762
 11.892   4.7586
 11.865   4.8822
 11.838   4.8616
 11.811   4.9955
 11.784   5.0264
 11.757   5.0470
 11.731   5.0470
 11.704   5.1294
 11.678   5.1191
 11.652   5.0985
 11.626   5.0264
 11.600   5.0573
 11.574   5.0573
 11.548   5.0470
 11.522   4.9440
 11.497   4.9337
 11.471   4.9028
 11.446   4.8719
 11.421   4.7895
 11.396   4.7895
 11.371   4.7586
 11.346   4.6659
 11.321   4.4702
 11.297   4.4908
 11.272   4.4908
 11.248   4.4496
 11.223   4.3672
 11.199   4.3775
 11.175   4.4187
 11.151   4.4084
 11.127   4.2642
 11.103   4.1818
 11.079   4.1612
 11.056   4.1303
 11.032   3.9655
 11.009   3.9140
 10.985   3.8625
 10.962   3.8419
 10.939   3.7904
 10.916   3.8007
 10.893   3.7080
 10.870   3.6977
 10.848   3.6050
 10.825   3.5638
 10.802   3.4711
 10.780   3.3887
 10.758   3.3063
 10.735   3.3475
 10.713   3.3269
 10.691   3.3681
 10.669   3.2960
 10.647   3.2857
 10.625   3.2342
 10.604   3.3269
 10.582   3.3784
 10.560   3.3269
 10.539   3.2033
 10.518   3.2548
 10.496   3.3269
 10.475   3.4093
 10.454   3.3887
 10.433   3.4917
 10.412   3.5947
 10.391   3.7389
 10.370   3.7904
 10.350   3.8522
 10.329   3.8007
 10.309   3.7595
 10.288   3.6771
 10.268   3.6153
 10.247   3.4814
 10.227   3.4711
 10.207   3.4299
 10.187   3.4299
 10.167   3.3063
 10.147   3.3475
 10.127   3.3784
 10.108   3.3475
 10.088   3.2651
 10.068   3.2651
 10.049   3.2960
 10.029   3.3475
 10.010   3.3475
  9.991   3.4711
  9.972   3.5020
  9.952   3.4814
  9.933   3.4402
  9.914   3.4299
  9.895   3.3990
  9.877   3.5020
  9.858   3.5432
  9.839   3.5638
  9.821   3.6462
  9.802   3.7389
  9.783   3.6565
  9.765   3.7389
  9.747   3.8522
  9.728   4.0479
  9.710   4.2024
  9.692   4.2539
  9.674   4.2539
  9.656   4.3569
  9.638   4.4290
  9.620   4.5114
  9.602   4.4908
  9.585   4.4496
  9.567   4.3054
  9.549   4.1921
  9.532   4.0479
  9.514   4.0582
  9.497   4.0273
  9.479   4.0067
  9.462   3.9037
  9.445   3.8728
  9.428   3.8007
  9.411   3.9140
  9.394   4.0376
  9.377   4.2745
  9.360   4.3466
  9.343   4.4393
  9.326   4.5835
  9.309   4.7277
  9.293   4.6556
  9.276   4.7071
  9.259   4.7895
  9.243   4.7998
  9.226   4.7071
  9.210   4.7586
  9.194   4.7895
  9.178   4.7689
  9.161   4.7174
  9.145   4.7895
  9.129   4.7895
  9.113   4.7586
  9.097   4.6968
  9.081   4.8101
  9.065   4.8513
  9.049   4.8204
  9.034   4.7380
  9.018   4.7483
  9.002   4.7792
  8.987   4.7895
  8.971   4.7174
  8.956   4.6762
  8.940   4.5835
  8.925   4.5114
  8.909   4.4908
  8.894   4.5938
  8.879   4.4496
  8.864   4.3981
  8.849   4.3775
  8.834   4.3878
  8.819   4.3363
  8.804   4.2951
  8.789   4.1612
  8.774   4.1200
  8.759   4.1200
  8.744   4.0891
  8.730   3.9655
  8.715   3.9243
  8.700   3.8625
  8.686   3.7801
  8.671   3.6050
  8.657   3.5226
  8.642   3.4402
  8.628   3.3887
  8.614   3.2960
  8.599   3.3166
  8.585   3.3784
  8.571   3.4711
  8.557   3.5020
  8.543   3.5947
  8.529   3.5638
  8.515   3.5329
  8.501   3.4299
  8.487   3.3887
  8.473   3.3269
  8.459   3.3372
  8.445   3.3681
  8.431   3.3990
  8.418   3.3784
  8.404   3.4917
  8.391   3.4299
  8.377   3.2754
  8.363   3.2548
  8.350   3.3166
  8.337   3.2960
  8.323   3.2960
  8.310   3.2342
  8.297   3.2342
  8.283   3.2342
  8.270   3.2857
  8.257   3.3166
  8.244   3.3166
  8.231   3.2651
  8.218   3.2548
  8.205   3.3063
  8.192   3.3887
  8.179   3.3166
  8.166   3.3475
  8.153   3.3784
  8.140   3.2857
  8.128   3.1930
  8.115   3.2754
  8.102   3.2342
  8.090   3.1312
  8.077   3.0900
  8.064   3.1724
  8.052   3.1827
  8.039   3.1930
  8.027   3.1827
  8.015   3.1827
  8.002   3.1621
  7.990   3.2033
  7.978   3.2239
  7.965   3.2651
  7.953   3.2754
  7.941   3.3063
  7.929   3.2857
  7.917   3.3475
  7.905   3.4196
  7.893   3.4196
  7.881   3.4093
  7.869   3.4299
  7.857   3.3887
  7.845   3.4402
  7.833   3.4608
  7.821   3.4814
  7.809   3.4402
  7.798   3.4093
  7.786   3.3578
  7.774   3.3578
  7.763   3.4093
  7.751   3.5329
  7.739   3.4711
  7.728   3.5020
  7.716   3.5329
  7.705   3.5226
  7.694   3.4814
  7.682   3.5020
  7.671   3.5123
  7.659   3.5123
  7.648   3.5123
  7.637   3.5638
  7.626   3.5226
  7.614   3.5535
  7.603   3.5432
  7.592   3.5638
  7.581   3.5947
  7.570   3.6668
  7.559   3.6565
  7.548   3.6359
  7.537   3.7080
  7.526   3.7904
  7.515   3.7492
  7.504   3.7801
  7.493   3.7492
  7.483   3.7492
  7.472   3.7801
  7.461   3.8316
  7.450   3.8522
  7.440   3.9243
  7.429   3.9449
  7.418   3.9346
  7.408   3.9346
  7.397   3.9655
  7.387   3.9861
  7.376   4.0479
  7.366   4.0685
  7.355   4.0170
  7.345   4.0582
  7.334   4.1715
  7.324   4.2333
  7.314   4.2436
  7.303   4.2333
  7.293   4.2436
  7.283   4.2333
  7.273   4.2539
  7.263   4.2127
  7.252   4.2745
  7.242   4.3054
  7.232   4.3363
  7.222   4.3569
  7.212   4.3775
  7.202   4.3260
  7.192   4.3672
  7.182   4.4290
  7.172   4.4393
  7.162   4.4187
  7.152   4.3981
  7.143   4.3363
  7.133   4.3157
  7.123   4.3260
  7.113   4.3878
  7.103   4.3981
  7.094   4.4496
  7.084   4.4908
  7.074   4.5114
  7.065   4.4599
  7.055   4.4702
  7.046   4.4908
  7.036   4.5629
  7.026   4.5217
  7.017   4.5320
  7.007   4.5835
  6.998   4.6350
  6.989   4.6247
  6.979   4.6350
  6.970   4.6350
  6.960   4.6556
  6.951   4.6762
  6.942   4.7792
  6.932   4.8513
  6.923   4.8410
  6.914   4.7792
  6.905   4.8719
  6.896   4.9337
  6.886   4.9543
  6.877   4.9749
  6.868   5.0264
  6.859   5.0985
  6.850   5.0985
  6.841   5.1294
  6.832   5.2324
  6.823   5.2427
  6.814   5.2633
  6.805   5.2942
  6.796   5.3663
  6.787   5.3148
  6.778   5.2427
  6.770   5.2839
  6.761   5.3766
  6.752   5.3560
  6.743   5.3972
  6.734   5.3972
  6.726   5.4075
  6.717   5.4487
  6.708   5.5002
  6.700   5.4899
  6.691   5.4796
  6.682   5.4281
  6.674   5.4075
  6.665   5.4590
  6.657   5.5105
  6.648   5.4796
  6.640   5.4281
  6.631   5.3663
  6.623   5.3251
  6.614   5.2839
  6.606   5.2221
  6.597   5.1088
  6.589   5.0573
  6.581   5.0058
  6.572   4.9131
  6.564   4.8822
  6.556   4.9440
  6.547   4.9646
  6.539   4.9440
  6.531   4.9337
  6.523   4.9749
  6.514   4.9646
  6.506   5.0367
  6.498   5.0779
  6.490   5.1191
  6.482   5.1397
  6.474   5.1603
  6.466   5.1809
  6.458   5.2324
  6.450   5.2942
  6.442   5.4281
  6.434   5.4590
  6.426   5.3972
  6.418   5.3869
  6.410   5.4796
  6.402   5.4693
  6.394   5.4590
  6.386   5.5002
  6.378   5.6032
  6.370   5.6341
  6.363   5.6547
  6.355   5.6444
  6.347   5.6238
  6.339   5.5208
  6.332   5.4796
  6.324   5.5105
  6.316   5.5105
  6.308   5.4899
  6.301   5.4590
  6.293   5.3766
  6.286   5.2530
  6.278   5.1191
  6.270   5.0264
  6.263   4.9131
  6.255   4.8204
  6.248   4.7380
  6.240   4.7071
  6.233   4.6247
  6.225   4.4908
  6.218   4.3775
  6.210   4.2848
  6.203   4.1921
  6.195   4.1406
  6.188   4.1097
  6.181   4.0582
  6.173   4.0273
  6.166   4.0479
  6.159   4.0273
  6.151   4.0170
  6.144   4.0273
  6.137   4.0582
  6.130   4.1200
  6.122   4.1818
  6.115   4.2024
  6.108   4.2642
  6.101   4.3157
  6.094   4.3363
  6.086   4.3569
  6.079   4.3981
  6.072   4.4187
  6.065   4.3981
  6.058   4.3981
  6.051   4.4290
  6.044   4.4908
  6.037   4.5835
  6.030   4.6247
  6.023   4.6865
  6.016   4.7277
  6.009   4.7586
  6.002   4.8204
  5.995   4.8719
  5.988   4.8925
  5.981   4.9646
  5.974   5.0058
  5.967   5.0573
  5.960   5.0367
  5.954   5.0676
  5.947   5.1294
  5.940   5.2221
  5.933   5.2324
  5.926   5.2324
  5.920   5.2942
  5.913   5.3972
  5.906   5.4693
  5.899   5.5208
  5.893   5.5826
  5.886   5.6856
  5.879   5.7680
  5.873   5.8504
  5.866   5.9225
  5.859   5.9740
  5.853   6.0049
  5.846   6.0667
  5.840   6.1903
  5.833   6.2933
  5.827   6.3654
  5.820   6.4684
  5.813   6.4993
  5.807   6.4787
  5.800   6.5096
  5.794   6.6126
  5.788   6.6538
  5.781   6.7362
  5.775   6.8289
  5.768   6.8804
  5.762   6.9216
  5.755   6.9731
  5.749   7.0143
  5.743   7.0864
  5.736   7.1173
  5.730   7.1276
  5.724   7.1070
  5.717   7.1173
  5.711   7.1791
  5.705   7.2306
  5.698   7.2409
  5.692   7.2409
  5.686   7.2924
  5.680   7.2718
  5.674   7.1585
  5.667   7.1070
  5.661   7.0967
  5.655   7.0864
  5.649   7.0246
  5.643   6.9525
  5.637   6.8598
  5.630   6.8289
  5.624   6.7877
  5.618   6.7568
  5.612   6.7053
  5.606   6.6847
  5.600   6.6538
  5.594   6.6847
  5.588   6.6744
  5.582   6.6332
  5.576   6.6023
  5.570   6.6538
  5.564   6.7156
  5.558   6.7465
  5.552   6.7465
  5.546   6.7774
  5.540   6.8083
  5.534   6.8701
  5.528   6.9113
  5.523   6.9422
  5.517   7.0040
  5.511   7.0761
  5.505   7.1276
  5.499   7.1585
  5.493   7.2100
  5.487   7.3233
  5.482   7.3748
  5.476   7.3954
  5.470   7.4469
  5.464   7.4984
  5.459   7.5190
  5.453   7.5087
  5.447   7.5396
  5.441   7.5705
  5.436   7.5911
  5.430   7.5499
  5.424   7.4675
  5.419   7.4572
  5.413   7.4263
  5.407   7.3645
  5.402   7.3027
  5.396   7.1894
  5.390   7.0555
  5.385   6.9525
  5.379   6.8804
  5.374   6.8289
  5.368   6.7465
  5.363   6.6538
  5.357   6.6023
  5.352   6.6126
  5.346   6.6332
  5.341   6.6126
  5.335   6.6126
  5.330   6.6435
  5.324   6.7053
  5.319   6.7259
  5.313   6.7465
  5.308   6.7774
  5.302   6.8083
  5.297   6.9319
  5.291   7.0761
  5.286   7.1482
  5.281   7.2203
  5.275   7.2718
  5.270   7.3130
  5.265   7.3748
  5.259   7.5087
  5.254   7.6735
  5.249   7.8280
  5.243   7.9619
  5.238   8.0752
  5.233   8.2297
  5.227   8.4151
  5.222   8.6108
  5.217   8.7550
  5.212   8.8065
  5.206   8.8477
  5.201   8.9919
  5.196   9.1155
  5.191   9.1876
  5.186   9.2288
  5.180   9.2906
  5.175   9.3627
  5.170   9.4245
  5.165   9.4657
  5.160   9.4554
  5.155   9.4348
  5.150   9.4348
  5.145   9.4554
  5.139   9.5069
  5.134   9.5275
  5.129   9.5172
  5.124   9.5069
  5.119   9.5584
  5.114   9.5378
  5.109   9.5584
  5.104   9.5687
  5.099   9.5481
  5.094   9.5481
  5.089   9.5275
  5.084   9.5172
  5.079   9.4760
  5.074   9.4348
  5.069   9.4760
  5.064   9.5069
  5.059   9.5172
  5.054   9.4451
  5.049   9.4245
  5.044   9.4451
  5.040   9.4245
  5.035   9.4554
  5.030   9.4554
  5.025   9.4760
  5.020   9.5172
  5.015   9.5687
  5.010   9.5790
  5.005   9.5481
  5.001   9.5687
  4.996   9.6202
  4.991   9.6614
  4.986   9.7026
  4.981   9.8056
  4.977   9.8983
  4.972   9.9910
  4.967  10.0734
  4.962  10.2176
  4.958  10.3824
  4.953  10.5369
  4.948  10.6502
  4.943  10.7635
  4.939  10.8150
  4.934  10.8459
  4.929  10.9077
  4.925  10.9901
  4.920  11.1240
  4.915  11.2991
  4.911  11.4227
  4.906  11.5875
  4.901  11.8862
  4.897  12.1437
  4.892  12.3703
  4.888  12.5454
  4.883  12.6484
  4.878  12.7926
  4.874  12.9986
  4.869  13.2046
  4.865  13.4312
  4.860  13.5857
  4.856  13.6475
  4.851  13.7402
  4.846  13.9153
  4.842  14.0698
  4.837  14.2140
  4.833  14.3376
  4.828  14.3891
  4.824  14.4818
  4.819  14.5745
  4.815  14.6878
  4.810  14.8011
  4.806  14.9247
  4.802  15.0483
  4.797  15.0998
  4.793  15.1307
  4.788  15.2131
  4.784  15.2852
  4.779  15.3779
  4.775  15.4809
  4.771  15.5015
  4.766  15.4809
  4.762  15.5221
  4.758  15.6457
  4.753  15.7487
  4.749  15.8414
  4.744  15.8826
  4.740  15.8929
  4.736  15.9444
  4.731  15.9650
  4.727  15.9959
  4.723  16.0474
  4.719  16.0886
  4.714  16.1298
  4.710  16.2534
  4.706  16.3461
  4.701  16.3358
  4.697  16.3049
  4.693  16.2328
  4.689  16.2328
  4.684  16.2534
  4.680  16.2225
  4.676  16.2637
  4.672  16.3770
  4.668  16.4594
  4.663  16.5315
  4.659  16.6345
  4.655  16.7066
  4.651  16.7684
  4.647  16.8611
  4.643  16.9538
  4.638  16.9950
  4.634  17.0362
  4.630  17.1392
  4.626  17.2525
  4.622  17.3040
  4.618  17.3555
  4.614  17.3658
  4.610  17.4482
  4.605  17.5512
  4.601  17.5924
  4.597  17.6130
  4.593  17.6748
  4.589  17.7778
  4.585  17.7675
  4.581  17.8087
  4.577  17.8396
  4.573  17.8808
  4.569  17.8911
  4.565  17.8911
  4.561  17.9632
  4.557  17.9735
  4.553  17.9426
  4.549  17.9220
  4.545  17.9426
  4.541  18.0147
  4.537  18.0353
  4.533  18.0353
  4.529  17.9838
  4.525  17.9735
  4.521  17.8911
  4.517  17.7984
  4.513  17.8087
  4.509  17.7881
  4.505  17.7675
  4.502  17.8087
  4.498  17.8087
  4.494  17.7469
  4.490  17.6748
  4.486  17.6439
  4.482  17.6336
  4.478  17.6542
  4.474  17.6130
  4.470  17.5718
  4.467  17.5924
  4.463  17.6336
  4.459  17.6645
  4.455  17.7263
  4.451  17.7572
  4.447  17.8293
  4.444  17.9220
  4.440  17.9529
  4.436  18.0044
  4.432  18.0044
  4.428  17.9529
  4.425  18.0044
  4.421  18.1074
  4.417  18.1795
  4.413  18.2310
  4.410  18.2104
  4.406  18.2310
  4.402  18.2825
  4.398  18.3134
  4.395  18.3958
  4.391  18.4164
  4.387  18.4782
  4.384  18.4679
  4.380  18.4576
  4.376  18.5812
  4.372  18.6739
  4.369  18.6739
  4.365  18.6945
  4.361  18.7357
  4.358  18.7254
  4.354  18.7666
  4.350  18.7769
  4.347  18.7769
  4.343  18.7872
  4.340  18.8284
  4.336  18.8490
  4.332  18.8593
  4.329  18.9623
  4.325  19.0241
  4.321  18.9829
  4.318  18.9623
  4.314  19.0035
  4.311  19.0241
  4.307  19.0241
  4.304  19.0447
  4.300  19.0138
  4.296  18.9726
  4.293  19.0550
  4.289  19.1477
  4.286  19.1992
  4.282  19.2095
  4.279  19.1065
  4.275  18.9314
  4.272  19.0035
  4.268  19.0550
  4.265  19.1168
  4.261  19.1889
  4.258  19.2095
  4.254  19.1786
  4.251  19.2301
  4.247  19.3640
  4.244  19.4567
  4.240  19.4464
  4.237  19.4567
  4.233  19.5494
  4.230  19.5803
  4.226  19.4773
  4.223  19.4773
  4.219  19.4979
  4.216  19.4773
  4.213  19.4773
  4.209  19.4464
  4.206  19.4052
  4.202  19.3022
  4.199  19.2404
  4.196  19.2713
  4.192  19.2507
  4.189  19.2816
  4.185  19.2404
  4.182  19.2095
  4.179  19.2404
  4.175  19.3125
  4.172  19.3022
  4.169  19.2816
  4.165  19.2713
  4.162  19.2713
  4.159  19.2507
  4.155  19.2507
  4.152  19.3125
  4.149  19.3537
  4.145  19.3743
  4.142  19.3949
  4.139  19.3537
  4.135  19.3537
  4.132  19.3846
  4.129  19.4052
  4.126  19.3228
  4.122  19.2404
  4.119  19.2919
  4.116  19.4155
  4.112  19.3949
  4.109  19.3228
  4.106  19.3434
  4.103  19.4052
  4.099  19.4155
  4.096  19.3640
  4.093  19.3228
  4.090  19.3846
  4.086  19.3640
  4.083  19.4567
  4.080  19.5494
  4.077  19.4876
  4.074  19.3846
  4.070  19.3743
  4.067  19.3434
  4.064  19.4876
  4.061  19.5494
  4.058  19.4361
  4.055  19.3743
  4.051  19.3640
  4.048  19.3846
  4.045  19.5185
  4.042  19.6421
  4.039  19.6627
  4.036  19.6215
  4.032  19.6215
  4.029  19.6421
  4.026  19.6524
  4.023  19.5906
  4.020  19.6112
  4.017  19.6215
  4.014  19.5700
  4.011  19.5082
  4.008  19.4670
  4.004  19.4464
  4.001  19.5185
  3.998  19.5906
  3.995  19.5494
  3.992  19.4876
  3.989  19.5082
  3.986  19.4876
  3.983  19.4464
  3.980  19.4052
  3.977  19.4773
  3.974  19.5082
  3.971  19.5391
  3.968  19.5700
  3.965  19.5597
  3.962  19.5494
  3.959  19.5906
  3.956  19.5391
  3.953  19.4567
  3.950  19.3846
  3.947  19.3537
  3.944  19.4052
  3.941  19.4155
  3.938  19.3743
  3.935  19.3743
  3.932  19.3331
  3.929  19.2713
  3.926  19.2198
  3.923  19.1580
  3.920  19.1580
  3.917  19.1786
  3.914  19.1065
  3.911  19.0344
  3.908  19.0447
  3.905  19.0138
  3.902  18.9932
  3.899  18.9520
  3.896  18.8696
  3.893  18.8387
  3.890  18.8490
  3.887  18.8387
  3.884  18.8181
  3.882  18.8078
  3.879  18.7151
  3.876  18.6945
  3.873  18.6842
  3.870  18.6224
  3.867  18.5400
  3.864  18.5606
  3.861  18.5503
  3.858  18.4885
  3.856  18.4370
  3.853  18.4473
  3.850  18.4473
  3.847  18.3752
  3.844  18.2825
  3.841  18.2310
  3.838  18.2516
  3.836  18.2310
  3.833  18.1280
  3.830  18.0868
  3.827  18.0147
  3.824  18.0147
  3.822  18.0044
  3.819  17.9735
  3.816  17.9426
  3.813  17.9426
  3.810  17.8705
  3.807  17.8396
  3.805  17.8499
  3.802  17.8396
  3.799  17.7675
  3.796  17.6851
  3.794  17.7057
  3.791  17.7057
  3.788  17.6336
  3.785  17.5615
  3.782  17.5821
  3.780  17.5718
  3.777  17.4276
  3.774  17.3967
  3.771  17.3452
  3.769  17.2628
  3.766  17.2731
  3.763  17.2628
  3.761  17.2113
  3.758  17.1392
  3.755  17.0259
  3.752  16.9332
  3.750  16.8817
  3.747  16.9332
  3.744  16.8405
  3.742  16.7993
  3.739  16.7375
  3.736  16.6757
  3.733  16.6448
  3.731  16.5418
  3.728  16.4388
  3.725  16.3873
  3.723  16.3152
  3.720  16.3049
  3.717  16.2740
  3.715  16.2328
  3.712  16.1504
  3.709  16.0680
  3.707  16.0783
  3.704  16.0268
  3.702  15.9238
  3.699  15.8826
  3.696  15.8723
  3.694  15.9032
  3.691  15.7899
  3.688  15.6869
  3.686  15.6663
  3.683  15.5839
  3.680  15.5118
  3.678  15.5118
  3.675  15.5427
  3.673  15.5015
  3.670  15.3573
  3.667  15.2131
  3.665  15.1616
  3.662  15.1925
  3.660  15.1513
  3.657  15.0998
  3.655  15.0586
  3.652  14.9659
  3.649  14.9350
  3.647  14.8938
  3.644  14.8526
  3.642  14.6981
  3.639  14.6054
  3.637  14.6466
  3.634  14.6054
  3.632  14.5642
  3.629  14.4406
  3.626  14.4097
  3.624  14.4509
  3.621  14.3685
  3.619  14.2758
  3.616  14.1831
  3.614  14.1110
  3.611  14.1625
  3.609  14.1419
  3.606  14.0492
  3.604  13.9256
  3.601  13.8329
  3.599  13.8432
  3.596  13.8844
  3.594  13.8226
  3.591  13.8123
  3.589  13.7402
  3.586  13.6578
  3.584  13.6681
