Name: Rhyolite
Type: Rock
Class: Igneous
Subclass: Felsic
Particle Size: Whole Rock Chips
Sample No.: AP-937-200
Owner: United States Geological Survey, L. C. Rowan
Wavelength range: 0.405 - 14.05 um
Origin: Iberian Pyrite Belt, Spain

Description: Rhyolite, light tan, altered





Measurement: Directional Hemispherical Reflectance
First Column: X
Second Column: Y
X Units: Wavelength (micrometers)
Y Units: Reflectance (percent)
First X Value: 14.05105
Last X Value: 0.40500
Number of X Values: 2530
Additional Information: rhy200a.txt

 14.051   2.1218
 14.013   1.9467
 13.975   2.2145
 13.938   2.4308
 13.900   2.5853
 13.863   2.4514
 13.826   2.4823
 13.790   2.3896
 13.753   2.3278
 13.717   2.3072
 13.680   2.5235
 13.644   2.5132
 13.609   2.5750
 13.573   2.5544
 13.538   2.7295
 13.502   2.7913
 13.467   2.7810
 13.432   2.7810
 13.398   2.9561
 13.363   2.9458
 13.329   2.9664
 13.295   2.8943
 13.261   2.9149
 13.227   2.8943
 13.193   2.9458
 13.160   2.9458
 13.126   3.0179
 13.093   3.0076
 13.060   3.0900
 13.027   3.1106
 12.995   3.1930
 12.962   3.3269
 12.930   3.4814
 12.898   3.4814
 12.866   3.5844
 12.834   3.6050
 12.802   3.6977
 12.771   3.7389
 12.739   3.8110
 12.708   3.6565
 12.677   3.6256
 12.646   3.5844
 12.616   3.5844
 12.585   3.6050
 12.554   3.6874
 12.524   3.6874
 12.494   3.7595
 12.464   3.7286
 12.434   3.6977
 12.404   3.4917
 12.375   3.3784
 12.345   3.3372
 12.316   3.3475
 12.287   3.2342
 12.258   3.2548
 12.229   3.2651
 12.200   3.4196
 12.171   3.4711
 12.143   3.5020
 12.115   3.4917
 12.086   3.6256
 12.058   3.6565
 12.030   3.6771
 12.002   3.6977
 11.975   3.7801
 11.947   3.8110
 11.920   3.9243
 11.892   3.9655
 11.865   4.0891
 11.838   4.1303
 11.811   4.1509
 11.784   4.1200
 11.757   4.1818
 11.731   4.2848
 11.704   4.4187
 11.678   4.3878
 11.652   4.5629
 11.626   4.6453
 11.600   4.6659
 11.574   4.7277
 11.548   4.9131
 11.522   4.9646
 11.497   5.0882
 11.471   5.0985
 11.446   5.2118
 11.421   5.2839
 11.396   5.3560
 11.371   5.3148
 11.346   5.3869
 11.321   5.4281
 11.297   5.5414
 11.272   5.5929
 11.248   5.7062
 11.223   5.7783
 11.199   5.9328
 11.175   6.0564
 11.151   6.2315
 11.127   6.3860
 11.103   6.5611
 11.079   6.6229
 11.056   6.7465
 11.032   6.8701
 11.009   7.0246
 10.985   7.0967
 10.962   7.1482
 10.939   6.9937
 10.916   6.9113
 10.893   6.7053
 10.870   6.3860
 10.848   6.0461
 10.825   5.8813
 10.802   5.6959
 10.780   5.6753
 10.758   5.6238
 10.735   5.5929
 10.713   5.5620
 10.691   5.6547
 10.669   5.6753
 10.647   5.6238
 10.625   5.4899
 10.604   5.5620
 10.582   5.5414
 10.560   5.6135
 10.539   5.6753
 10.518   5.7783
 10.496   5.8710
 10.475   6.0564
 10.454   6.2109
 10.433   6.4169
 10.412   6.5405
 10.391   6.7980
 10.370   7.0658
 10.350   7.3542
 10.329   7.5087
 10.309   7.7662
 10.288   7.9928
 10.268   8.2812
 10.247   8.5593
 10.227   8.9095
 10.207   9.1876
 10.187   9.5275
 10.167   9.8674
 10.147  10.1558
 10.127  10.3824
 10.108  10.8047
 10.088  11.1446
 10.068  11.5257
 10.049  11.9789
 10.029  12.5763
 10.010  13.1325
  9.991  13.6475
  9.972  13.9977
  9.952  14.3479
  9.933  14.6466
  9.914  14.8835
  9.895  14.8423
  9.877  14.7393
  9.858  14.5642
  9.839  14.4715
  9.821  14.4509
  9.802  14.5127
  9.783  14.6775
  9.765  15.0895
  9.747  15.5221
  9.728  16.1916
  9.710  16.9641
  9.692  17.9941
  9.674  18.8696
  9.656  19.5700
  9.638  20.1056
  9.620  20.5279
  9.602  20.8575
  9.585  21.2901
  9.567  21.6094
  9.549  21.8463
  9.532  21.9699
  9.514  22.1244
  9.497  22.2068
  9.479  22.2583
  9.462  22.1965
  9.445  22.1347
  9.428  21.9802
  9.411  21.8875
  9.394  21.7330
  9.377  21.5270
  9.360  21.2901
  9.343  21.1253
  9.326  20.7957
  9.309  20.3837
  9.293  20.0644
  9.276  19.7966
  9.259  19.4464
  9.243  19.0653
  9.226  18.6533
  9.210  18.2104
  9.194  17.7057
  9.178  17.3452
  9.161  16.8611
  9.145  16.3152
  9.129  15.8311
  9.113  15.3367
  9.097  14.7290
  9.081  14.1625
  9.065  13.4827
  9.049  12.8853
  9.034  12.2570
  9.018  11.6802
  9.002  11.2476
  8.987  11.1549
  8.971  11.2991
  8.956  11.7317
  8.940  12.2673
  8.925  13.0295
  8.909  13.6578
  8.894  14.0389
  8.879  14.1419
  8.864  14.2346
  8.849  14.2243
  8.834  14.1419
  8.819  13.9153
  8.804  13.5651
  8.789  13.1222
  8.774  12.7205
  8.759  12.2673
  8.744  11.8862
  8.730  11.4536
  8.715  10.9180
  8.700  10.3103
  8.686   9.8983
  8.671   9.4142
  8.657   8.9198
  8.642   8.4151
  8.628   7.9413
  8.614   7.5808
  8.599   7.5087
  8.585   7.5190
  8.571   7.6117
  8.557   7.5911
  8.543   7.5396
  8.529   7.4160
  8.515   7.2821
  8.501   7.0761
  8.487   7.0143
  8.473   6.9628
  8.459   6.9319
  8.445   6.8598
  8.431   6.7980
  8.418   6.7259
  8.404   6.6538
  8.391   6.5508
  8.377   6.5302
  8.363   6.4478
  8.350   6.4581
  8.337   6.4787
  8.323   6.4890
  8.310   6.4478
  8.297   6.5096
  8.283   6.5199
  8.270   6.5199
  8.257   6.4890
  8.244   6.4890
  8.231   6.5714
  8.218   6.6847
  8.205   6.6435
  8.192   6.6229
  8.179   6.5611
  8.166   6.5302
  8.153   6.3860
  8.140   6.2933
  8.128   6.1182
  8.115   5.8298
  8.102   5.5105
  8.090   5.3045
  8.077   5.0573
  8.064   4.8204
  8.052   4.5217
  8.039   4.3260
  8.027   4.1509
  8.015   3.9449
  8.002   3.7698
  7.990   3.6874
  7.978   3.5432
  7.965   3.4505
  7.953   3.3063
  7.941   3.1003
  7.929   2.8943
  7.917   2.7604
  7.905   2.5853
  7.893   2.5647
  7.881   2.4514
  7.869   2.3793
  7.857   2.2969
  7.845   2.2042
  7.833   2.1115
  7.821   2.0394
  7.809   1.9982
  7.798   2.0188
  7.786   1.9364
  7.774   1.8746
  7.763   1.8849
  7.751   1.9055
  7.739   1.8849
  7.728   1.8643
  7.716   1.8334
  7.705   1.8746
  7.694   1.8025
  7.682   1.7201
  7.671   1.6789
  7.659   1.6995
  7.648   1.6789
  7.637   1.6274
  7.626   1.5656
  7.614   1.6068
  7.603   1.5656
  7.592   1.5862
  7.581   1.5965
  7.570   1.5553
  7.559   1.5965
  7.548   1.5965
  7.537   1.5553
  7.526   1.5141
  7.515   1.4214
  7.504   1.4523
  7.493   1.5656
  7.483   1.6274
  7.472   1.5553
  7.461   1.5244
  7.450   1.4729
  7.440   1.5553
  7.429   1.5862
  7.418   1.5141
  7.408   1.5347
  7.397   1.5141
  7.387   1.4214
  7.376   1.4523
  7.366   1.4832
  7.355   1.4832
  7.345   1.4317
  7.334   1.4832
  7.324   1.5038
  7.314   1.5038
  7.303   1.4832
  7.293   1.5038
  7.283   1.4935
  7.273   1.4935
  7.263   1.4729
  7.252   1.5244
  7.242   1.4832
  7.232   1.4935
  7.222   1.5244
  7.212   1.5347
  7.202   1.5141
  7.192   1.5759
  7.182   1.6068
  7.172   1.6171
  7.162   1.5759
  7.152   1.5862
  7.143   1.5965
  7.133   1.6274
  7.123   1.6068
  7.113   1.6068
  7.103   1.5656
  7.094   1.5347
  7.084   1.5450
  7.074   1.6480
  7.065   1.6583
  7.055   1.6480
  7.046   1.6274
  7.036   1.6377
  7.026   1.6686
  7.017   1.6686
  7.007   1.5862
  6.998   1.5965
  6.989   1.6068
  6.979   1.6480
  6.970   1.7304
  6.960   1.7201
  6.951   1.6480
  6.942   1.6789
  6.932   1.6892
  6.923   1.6995
  6.914   1.7304
  6.905   1.8025
  6.896   1.7304
  6.886   1.7098
  6.877   1.7716
  6.868   1.7613
  6.859   1.6995
  6.850   1.7510
  6.841   1.8128
  6.832   1.8334
  6.823   1.8231
  6.814   1.8334
  6.805   1.8643
  6.796   1.9158
  6.787   1.8746
  6.778   1.8437
  6.770   1.8437
  6.761   1.8643
  6.752   1.8849
  6.743   1.9158
  6.734   1.9158
  6.726   1.9570
  6.717   1.9673
  6.708   1.9776
  6.700   2.0394
  6.691   2.0394
  6.682   1.9673
  6.674   1.9467
  6.665   1.9776
  6.657   2.0600
  6.648   2.0497
  6.640   2.0085
  6.631   1.9673
  6.623   2.0497
  6.614   2.1321
  6.606   2.1321
  6.597   2.0600
  6.589   2.0497
  6.581   2.0806
  6.572   2.1115
  6.564   2.1012
  6.556   2.1218
  6.547   2.0497
  6.539   2.0394
  6.531   2.0291
  6.523   2.0600
  6.514   2.1218
  6.506   2.1939
  6.498   2.2351
  6.490   2.2454
  6.482   2.2145
  6.474   2.1939
  6.466   2.1527
  6.458   2.2351
  6.450   2.2763
  6.442   2.2145
  6.434   2.1733
  6.426   2.1939
  6.418   2.1321
  6.410   2.0909
  6.402   2.1527
  6.394   2.2454
  6.386   2.2660
  6.378   2.2660
  6.370   2.2042
  6.363   2.1836
  6.355   2.2248
  6.347   2.2145
  6.339   2.1527
  6.332   2.1733
  6.324   2.1733
  6.316   2.1836
  6.308   2.2248
  6.301   2.1939
  6.293   2.1115
  6.286   2.0600
  6.278   2.0703
  6.270   2.1321
  6.263   2.1321
  6.255   2.1115
  6.248   2.1218
  6.240   2.1115
  6.233   2.0909
  6.225   2.0703
  6.218   1.9879
  6.210   1.9261
  6.203   1.8952
  6.195   1.9467
  6.188   2.0085
  6.181   1.9982
  6.173   1.9364
  6.166   1.9467
  6.159   1.9158
  6.151   1.8849
  6.144   1.8952
  6.137   1.8952
  6.130   1.8540
  6.122   1.9364
  6.115   1.9158
  6.108   1.8643
  6.101   1.9158
  6.094   1.9158
  6.086   1.9261
  6.079   1.9467
  6.072   1.8643
  6.065   1.8334
  6.058   1.8334
  6.051   1.8231
  6.044   1.7613
  6.037   1.8643
  6.030   1.9673
  6.023   1.9982
  6.016   1.9776
  6.009   1.9570
  6.002   2.0085
  5.995   1.9982
  5.988   1.9879
  5.981   2.0085
  5.974   2.0188
  5.967   2.0291
  5.960   2.0188
  5.954   2.0497
  5.947   2.0600
  5.940   2.0394
  5.933   2.0394
  5.926   2.1012
  5.920   2.1115
  5.913   2.1527
  5.906   2.2042
  5.899   2.2042
  5.893   2.1527
  5.886   2.2351
  5.879   2.2969
  5.873   2.3587
  5.866   2.3896
  5.859   2.3381
  5.853   2.4205
  5.846   2.5235
  5.840   2.5441
  5.833   2.5029
  5.827   2.4720
  5.820   2.4823
  5.813   2.5853
  5.807   2.6677
  5.800   2.6471
  5.794   2.6677
  5.788   2.6986
  5.781   2.7089
  5.775   2.6986
  5.768   2.7089
  5.762   2.7192
  5.755   2.7913
  5.749   2.8119
  5.743   2.8119
  5.736   2.8634
  5.730   2.8943
  5.724   2.9046
  5.717   2.8943
  5.711   2.8943
  5.705   2.9767
  5.698   3.0179
  5.692   2.9767
  5.686   2.9664
  5.680   2.9767
  5.674   2.9561
  5.667   2.9870
  5.661   2.9973
  5.655   3.0076
  5.649   2.9252
  5.643   2.8737
  5.637   2.8531
  5.630   2.8840
  5.624   2.9046
  5.618   2.9561
  5.612   2.9767
  5.606   2.9355
  5.600   2.9252
  5.594   2.9767
  5.588   2.9664
  5.582   2.9252
  5.576   2.9149
  5.570   2.9870
  5.564   2.9767
  5.558   2.9664
  5.552   2.9664
  5.546   2.9973
  5.540   3.0591
  5.534   3.0591
  5.528   2.9767
  5.523   2.9870
  5.517   3.0385
  5.511   3.0385
  5.505   3.0385
  5.499   3.0591
  5.493   3.0385
  5.487   3.0282
  5.482   3.0076
  5.476   3.0385
  5.470   3.0900
  5.464   3.1003
  5.459   3.1209
  5.453   3.1724
  5.447   3.1724
  5.441   3.1312
  5.436   3.1209
  5.430   3.1209
  5.424   3.1003
  5.419   3.0900
  5.413   3.1106
  5.407   3.1106
  5.402   3.0797
  5.396   3.0591
  5.390   3.0694
  5.385   3.0900
  5.379   3.0591
  5.374   3.0179
  5.368   2.9767
  5.363   3.0076
  5.357   3.0488
  5.352   3.0488
  5.346   3.0488
  5.341   3.0900
  5.335   3.0900
  5.330   3.0797
  5.324   3.1003
  5.319   3.1312
  5.313   3.1827
  5.308   3.1930
  5.302   3.1415
  5.297   3.1518
  5.291   3.1621
  5.286   3.2239
  5.281   3.2857
  5.275   3.3372
  5.270   3.3681
  5.265   3.3578
  5.259   3.3475
  5.254   3.3887
  5.249   3.4196
  5.243   3.4299
  5.238   3.4299
  5.233   3.5020
  5.227   3.5432
  5.222   3.5535
  5.217   3.5844
  5.212   3.6256
  5.206   3.6668
  5.201   3.7080
  5.196   3.7286
  5.191   3.7389
  5.186   3.7492
  5.180   3.7492
  5.175   3.7492
  5.170   3.7698
  5.165   3.8110
  5.160   3.8110
  5.155   3.8110
  5.150   3.8213
  5.145   3.8316
  5.139   3.8316
  5.134   3.8522
  5.129   3.8625
  5.124   3.8934
  5.119   3.8831
  5.114   3.8522
  5.109   3.8728
  5.104   3.9449
  5.099   4.0067
  5.094   3.9861
  5.089   3.9964
  5.084   3.9964
  5.079   3.9140
  5.074   3.9140
  5.069   3.9449
  5.064   3.9346
  5.059   3.9552
  5.054   3.9655
  5.049   3.9449
  5.044   3.9758
  5.040   4.0479
  5.035   4.0891
  5.030   4.0685
  5.025   4.0582
  5.020   4.0994
  5.015   4.1406
  5.010   4.1715
  5.005   4.2024
  5.001   4.1818
  4.996   4.1612
  4.991   4.1818
  4.986   4.2642
  4.981   4.3054
  4.977   4.2848
  4.972   4.3260
  4.967   4.4084
  4.962   4.4702
  4.958   4.5629
  4.953   4.6041
  4.948   4.6247
  4.943   4.6556
  4.939   4.6968
  4.934   4.7483
  4.929   4.8101
  4.925   4.8410
  4.920   4.8410
  4.915   4.8513
  4.911   4.9337
  4.906   5.0882
  4.901   5.2221
  4.897   5.3045
  4.892   5.3972
  4.888   5.5105
  4.883   5.6753
  4.878   5.7886
  4.874   5.8916
  4.869   5.9946
  4.865   6.1285
  4.860   6.2418
  4.856   6.3242
  4.851   6.3654
  4.846   6.4684
  4.842   6.5508
  4.837   6.6023
  4.833   6.6538
  4.828   6.7259
  4.824   6.7568
  4.819   6.7465
  4.815   6.7877
  4.810   6.8804
  4.806   6.9319
  4.802   7.0040
  4.797   7.0864
  4.793   7.1276
  4.788   7.1997
  4.784   7.1997
  4.779   7.1585
  4.775   7.1791
  4.771   7.2615
  4.766   7.3336
  4.762   7.3851
  4.758   7.4263
  4.753   7.4263
  4.749   7.4572
  4.744   7.5190
  4.740   7.5911
  4.736   7.6117
  4.731   7.5602
  4.727   7.5602
  4.723   7.6117
  4.719   7.6735
  4.714   7.7353
  4.710   7.7147
  4.706   7.6117
  4.701   7.5293
  4.697   7.5293
  4.693   7.5087
  4.689   7.4881
  4.684   7.4366
  4.680   7.4057
  4.676   7.4263
  4.672   7.4675
  4.668   7.5396
  4.663   7.6735
  4.659   7.7147
  4.655   7.7662
  4.651   7.8486
  4.647   7.8898
  4.643   8.0134
  4.638   8.1061
  4.634   8.1370
  4.630   8.2091
  4.626   8.3533
  4.622   8.4563
  4.618   8.4563
  4.614   8.4666
  4.610   8.5284
  4.605   8.5490
  4.601   8.6623
  4.597   8.7447
  4.593   8.8271
  4.589   8.8580
  4.585   8.8683
  4.581   8.9198
  4.577   9.0228
  4.573   9.0537
  4.569   9.0846
  4.565   9.1155
  4.561   9.1773
  4.557   9.2391
  4.553   9.2597
  4.549   9.2288
  4.545   9.1670
  4.541   9.1773
  4.537   9.1979
  4.533   9.1979
  4.529   9.2391
  4.525   9.1979
  4.521   9.0949
  4.517   9.0022
  4.513   8.9198
  4.509   8.8580
  4.505   8.8271
  4.502   8.8065
  4.498   8.6932
  4.494   8.6932
  4.490   8.6829
  4.486   8.5799
  4.482   8.5490
  4.478   8.5284
  4.474   8.5181
  4.470   8.5490
  4.467   8.5902
  4.463   8.6829
  4.459   8.7344
  4.455   8.7550
  4.451   8.7756
  4.447   8.8889
  4.444   9.0537
  4.440   9.1052
  4.436   9.1258
  4.432   9.1567
  4.428   9.2597
  4.425   9.3936
  4.421   9.4657
  4.417   9.5378
  4.413   9.6202
  4.410   9.7335
  4.406   9.8674
  4.402   9.8674
  4.398   9.8983
  4.395  10.0425
  4.391  10.1558
  4.387  10.2897
  4.384  10.4545
  4.380  10.5884
  4.376  10.6914
  4.372  10.7738
  4.369  10.8974
  4.365  10.9798
  4.361  11.0828
  4.358  11.2373
  4.354  11.4124
  4.350  11.5360
  4.347  11.6081
  4.343  11.7111
  4.340  11.8038
  4.336  11.8450
  4.332  11.8759
  4.329  11.9377
  4.325  11.9995
  4.321  12.0098
  4.318  12.0407
  4.314  12.1746
  4.311  12.2673
  4.307  12.2879
  4.304  12.3188
  4.300  12.2982
  4.296  12.2055
  4.293  12.2982
  4.289  12.3497
  4.286  12.4115
  4.282  12.4836
  4.279  12.4527
  4.275  12.4424
  4.272  12.4939
  4.268  12.5248
  4.265  12.5763
  4.261  12.6587
  4.258  12.8235
  4.254  12.9368
  4.251  13.0295
  4.247  13.1325
  4.244  13.2252
  4.240  13.2973
  4.237  13.2664
  4.233  13.2355
  4.230  13.2458
  4.226  13.3591
  4.223  13.4209
  4.219  13.3488
  4.216  13.4518
  4.213  13.6063
  4.209  13.6784
  4.206  13.7093
  4.202  13.7402
  4.199  13.7711
  4.196  13.7814
  4.192  13.7505
  4.189  13.8741
  4.185  13.9565
  4.182  13.9565
  4.179  13.9668
  4.175  14.0080
  4.172  14.1007
  4.169  14.1934
  4.165  14.1728
  4.162  14.1213
  4.159  14.1522
  4.155  14.2964
  4.152  14.4921
  4.149  14.6260
  4.145  14.7702
  4.142  14.8629
  4.139  14.9659
  4.135  15.0586
  4.132  15.0689
  4.129  15.0586
  4.126  15.0895
  4.122  15.2234
  4.119  15.3264
  4.116  15.3676
  4.112  15.4294
  4.109  15.5427
  4.106  15.6663
  4.103  15.7693
  4.099  15.8517
  4.096  15.9444
  4.093  15.9753
  4.090  15.9959
  4.086  16.0886
  4.083  16.1813
  4.080  16.2534
  4.077  16.2843
  4.074  16.2740
  4.070  16.3873
  4.067  16.4594
  4.064  16.5315
  4.061  16.6448
  4.058  16.7375
  4.055  16.7066
  4.051  16.7684
  4.048  16.8508
  4.045  16.7890
  4.042  16.7684
  4.039  16.8405
  4.036  16.8817
  4.032  16.8714
  4.029  16.8199
  4.026  16.8405
  4.023  16.9023
  4.020  16.9229
  4.017  16.8920
  4.014  16.9538
  4.011  17.0362
  4.008  17.0774
  4.004  17.1289
  4.001  17.2113
  3.998  17.2319
  3.995  17.2422
  3.992  17.2319
  3.989  17.3040
  3.986  17.3967
  3.983  17.4173
  3.980  17.3864
  3.977  17.4997
  3.974  17.5615
  3.971  17.5203
  3.968  17.5203
  3.965  17.6027
  3.962  17.7881
  3.959  17.9220
  3.956  17.9735
  3.953  18.0250
  3.950  18.0456
  3.947  18.0456
  3.944  18.0662
  3.941  18.2001
  3.938  18.2310
  3.935  18.2516
  3.932  18.3237
  3.929  18.3134
  3.926  18.2310
  3.923  18.2516
  3.920  18.4164
  3.917  18.5194
  3.914  18.4473
  3.911  18.4370
  3.908  18.4988
  3.905  18.4988
  3.902  18.4370
  3.899  18.4164
  3.896  18.4885
  3.893  18.4782
  3.890  18.3752
  3.887  18.3443
  3.884  18.2516
  3.882  18.2413
  3.879  18.3443
  3.876  18.3340
  3.873  18.1589
  3.870  18.1692
  3.867  18.2825
  3.864  18.2207
  3.861  18.1074
  3.858  18.1074
  3.856  18.1074
  3.853  18.0868
  3.850  18.0765
  3.847  18.1383
  3.844  18.0559
  3.841  18.1280
  3.838  18.1795
  3.836  18.0868
  3.833  18.0250
  3.830  18.0765
  3.827  18.1589
  3.824  18.1692
  3.822  18.1486
  3.819  18.1280
  3.816  18.1074
  3.813  18.0662
  3.810  18.0559
  3.807  18.0559
  3.805  18.0868
  3.802  18.1383
  3.799  18.0765
  3.796  18.0147
  3.794  17.9220
  3.791  17.9735
  3.788  17.9323
  3.785  17.9220
  3.782  17.8396
  3.780  17.7366
  3.777  17.6542
  3.774  17.6542
  3.771  17.6336
  3.769  17.4894
  3.766  17.3246
  3.763  17.3040
  3.761  17.2525
  3.758  17.1907
  3.755  17.1392
  3.752  17.0877
  3.750  17.0156
  3.747  16.9847
  3.744  16.9538
  3.742  16.9332
  3.739  16.9538
  3.736  16.9126
  3.733  16.7272
  3.731  16.5624
  3.728  16.5624
  3.725  16.6139
  3.723  16.5624
  3.720  16.5418
  3.717  16.6036
  3.715  16.5624
  3.712  16.4285
  3.709  16.4285
  3.707  16.4182
  3.704  16.3976
  3.702  16.2946
  3.699  16.2843
  3.696  16.3564
  3.694  16.2740
  3.691  16.1607
  3.688  16.1607
  3.686  16.2328
  3.683  16.3049
  3.680  16.2534
  3.678  16.1710
  3.675  16.0886
  3.673  16.0783
  3.670  16.0371
  3.667  16.0474
  3.665  16.0268
  3.662  16.0268
  3.660  15.9959
  3.657  15.9444
  3.655  15.9032
  3.652  15.8311
  3.649  15.6663
  3.647  15.5530
  3.644  15.6251
  3.642  15.6251
  3.639  15.6148
  3.637  15.5015
  3.634  15.3985
  3.632  15.3264
  3.629  15.1616
  3.626  15.0586
  3.624  15.1101
  3.621  15.1513
  3.619  14.9968
  3.616  14.8732
  3.614  14.7599
  3.611  14.6878
  3.609  14.6054
  3.606  14.4612
  3.604  14.3479
  3.601  14.3582
  3.599  14.2655
  3.596  14.1728
  3.594  14.0389
  3.591  13.9462
  3.589  13.8741
  3.586  13.8432
  3.584  13.8020
