Name: Rhyolite
Type: Rock
Class: Igneous
Subclass: Felsic
Particle Size: Whole Rock Chips
Sample No.: AP-936-193b
Owner: United States Geological Survey, L. C. Rowan
Wavelength range: 0.405 - 14.05 um
Origin: Iberian Pyrite Belt, Spain

Description: Rhyolite, altered





Measurement: Directional Hemispherical Reflectance
First Column: X
Second Column: Y
X Units: Wavelength (micrometers)
Y Units: Reflectance (percent)
First X Value: 14.05105
Last X Value: 0.40500
Number of X Values: 2530
Additional Information: rhy193ba.txt

 14.051   4.9234
 14.013   5.0470
 13.975   5.3354
 13.938   5.3869
 13.900   5.5002
 13.863   5.4693
 13.826   5.4281
 13.790   5.4899
 13.753   5.6135
 13.717   5.4384
 13.680   5.3457
 13.644   5.1706
 13.609   5.1706
 13.573   5.2221
 13.538   5.3457
 13.502   5.3251
 13.467   5.3766
 13.432   5.4281
 13.398   5.6341
 13.363   5.5723
 13.329   5.5414
 13.295   5.6341
 13.261   5.8607
 13.227   5.9225
 13.193   6.1285
 13.160   6.2521
 13.126   6.3654
 13.093   6.4375
 13.060   6.5817
 13.027   6.6744
 12.995   6.7980
 12.962   6.9628
 12.930   7.3851
 12.898   7.7456
 12.866   8.2194
 12.834   8.7035
 12.802   9.0846
 12.771   8.9919
 12.739   8.6417
 12.708   8.0134
 12.677   7.4469
 12.646   6.8907
 12.616   6.6641
 12.585   6.6744
 12.554   7.0246
 12.524   7.3233
 12.494   7.4675
 12.464   7.3027
 12.434   6.9216
 12.404   6.1491
 12.375   5.1603
 12.345   3.9758
 12.316   3.2548
 12.287   2.8634
 12.258   2.7604
 12.229   2.7810
 12.200   2.9870
 12.171   3.1930
 12.143   3.4093
 12.115   3.4402
 12.086   3.5432
 12.058   3.7183
 12.030   3.9552
 12.002   3.9964
 11.975   4.1406
 11.947   4.1921
 11.920   4.2642
 11.892   4.3569
 11.865   4.5217
 11.838   4.5732
 11.811   4.7174
 11.784   4.7586
 11.757   4.7998
 11.731   4.8101
 11.704   4.9955
 11.678   5.0470
 11.652   5.0264
 11.626   5.0161
 11.600   5.2118
 11.574   5.3251
 11.548   5.4487
 11.522   5.5311
 11.497   5.6547
 11.471   5.7062
 11.446   5.8195
 11.421   5.8092
 11.396   5.8813
 11.371   5.9019
 11.346   5.9534
 11.321   6.0152
 11.297   6.0255
 11.272   6.0255
 11.248   6.2109
 11.223   6.2933
 11.199   6.4169
 11.175   6.4581
 11.151   6.5508
 11.127   6.6023
 11.103   6.7362
 11.079   6.8186
 11.056   6.8701
 11.032   6.9010
 11.009   7.0143
 10.985   7.0761
 10.962   7.1585
 10.939   7.1997
 10.916   7.3027
 10.893   7.3954
 10.870   7.5705
 10.848   7.6323
 10.825   7.6941
 10.802   7.7456
 10.780   7.9207
 10.758   8.0237
 10.735   8.1061
 10.713   8.2297
 10.691   8.4254
 10.669   8.4872
 10.647   8.5902
 10.625   8.7138
 10.604   8.9095
 10.582   9.0331
 10.560   9.2494
 10.539   9.3215
 10.518   9.4657
 10.496   9.6202
 10.475   9.8365
 10.454  10.0013
 10.433  10.2176
 10.412  10.3618
 10.391  10.5884
 10.370  10.8459
 10.350  11.1343
 10.329  11.3918
 10.309  11.6802
 10.288  11.9480
 10.268  12.2673
 10.247  12.5660
 10.227  12.9265
 10.207  13.1531
 10.187  13.5136
 10.167  13.8329
 10.147  14.0801
 10.127  14.3170
 10.108  14.7084
 10.088  15.0174
 10.068  15.3264
 10.049  15.5736
 10.029  15.8723
 10.010  16.2019
  9.991  16.5521
  9.972  16.7581
  9.952  17.0259
  9.933  17.2937
  9.914  17.5615
  9.895  17.7572
  9.877  17.9735
  9.858  18.1177
  9.839  18.2825
  9.821  18.2722
  9.802  18.2928
  9.783  18.3958
  9.765  18.5503
  9.747  18.7151
  9.728  19.1477
  9.710  19.6215
  9.692  20.0747
  9.674  20.6103
  9.656  21.2386
  9.638  21.6918
  9.620  22.0420
  9.602  22.2274
  9.585  22.2995
  9.567  22.2995
  9.549  22.4025
  9.532  22.5158
  9.514  22.7527
  9.497  22.9175
  9.479  23.1647
  9.462  23.5355
  9.445  23.9784
  9.428  24.4522
  9.411  25.2041
  9.394  26.0796
  9.377  27.1199
  9.360  28.2529
  9.343  29.2623
  9.326  30.0863
  9.309  30.7352
  9.293  31.0339
  9.276  31.1575
  9.259  31.1781
  9.243  31.1575
  9.226  31.0957
  9.210  31.0133
  9.194  30.8897
  9.178  30.8794
  9.161  30.8588
  9.145  30.8588
  9.129  30.7455
  9.113  30.4777
  9.097  30.2099
  9.081  30.1378
  9.065  29.9318
  9.049  29.7361
  9.034  29.6022
  9.018  29.3447
  9.002  29.0460
  8.987  28.8812
  8.971  28.6031
  8.956  28.3971
  8.940  28.2323
  8.925  27.9439
  8.909  27.6658
  8.894  27.5319
  8.879  27.3259
  8.864  27.2229
  8.849  27.1817
  8.834  27.1714
  8.819  27.0581
  8.804  26.9860
  8.789  26.9036
  8.774  26.9036
  8.759  26.8830
  8.744  26.9139
  8.730  26.7491
  8.715  26.6255
  8.700  26.4710
  8.686  26.2444
  8.671  25.7912
  8.657  25.0393
  8.642  23.9269
  8.628  22.7012
  8.614  22.0523
  8.599  22.6497
  8.585  23.9269
  8.571  25.0702
  8.557  25.8015
  8.543  26.2753
  8.529  26.3989
  8.515  26.4401
  8.501  26.4607
  8.487  26.4195
  8.473  26.2959
  8.459  26.2032
  8.445  26.0590
  8.431  25.8736
  8.418  25.6779
  8.404  25.4616
  8.391  25.2041
  8.377  24.9878
  8.363  24.6994
  8.350  24.4213
  8.337  24.1226
  8.323  23.7827
  8.310  23.4119
  8.297  23.1132
  8.283  22.8248
  8.270  22.5673
  8.257  22.3201
  8.244  22.0729
  8.231  21.7330
  8.218  21.4034
  8.205  21.0738
  8.192  20.6618
  8.179  20.0644
  8.166  19.4052
  8.153  18.5606
  8.140  17.5409
  8.128  16.3564
  8.115  15.0586
  8.102  13.7917
  8.090  12.6381
  8.077  11.5463
  8.064  10.6708
  8.052   9.8159
  8.039   8.9610
  8.027   8.1576
  8.015   7.5396
  8.002   6.9525
  7.990   6.4684
  7.978   6.0152
  7.965   5.5414
  7.953   5.0676
  7.941   4.6968
  7.929   4.3054
  7.917   3.9346
  7.905   3.6359
  7.893   3.4505
  7.881   3.2342
  7.869   3.0076
  7.857   2.7604
  7.845   2.6059
  7.833   2.4926
  7.821   2.3999
  7.809   2.2660
  7.798   2.2145
  7.786   2.1836
  7.774   2.1115
  7.763   1.9982
  7.751   1.9467
  7.739   1.8540
  7.728   1.8643
  7.716   1.7510
  7.705   1.6789
  7.694   1.7201
  7.682   1.7098
  7.671   1.6583
  7.659   1.6377
  7.648   1.5553
  7.637   1.5244
  7.626   1.4832
  7.614   1.4317
  7.603   1.3699
  7.592   1.3596
  7.581   1.3699
  7.570   1.4111
  7.559   1.3699
  7.548   1.3699
  7.537   1.2978
  7.526   1.2978
  7.515   1.2669
  7.504   1.2360
  7.493   1.2463
  7.483   1.2772
  7.472   1.2257
  7.461   1.2463
  7.450   1.2051
  7.440   1.2051
  7.429   1.1948
  7.418   1.2257
  7.408   1.1845
  7.397   1.1433
  7.387   1.1639
  7.376   1.1845
  7.366   1.1639
  7.355   1.1639
  7.345   1.1227
  7.334   1.1227
  7.324   1.1227
  7.314   1.1124
  7.303   1.0918
  7.293   1.1639
  7.283   1.2257
  7.273   1.2875
  7.263   1.3081
  7.252   1.2566
  7.242   1.1845
  7.232   1.2257
  7.222   1.2360
  7.212   1.2154
  7.202   1.2154
  7.192   1.2875
  7.182   1.3184
  7.172   1.2978
  7.162   1.2360
  7.152   1.1948
  7.143   1.2154
  7.133   1.3184
  7.123   1.3699
  7.113   1.3596
  7.103   1.3699
  7.094   1.3699
  7.084   1.3287
  7.074   1.3184
  7.065   1.2463
  7.055   1.3184
  7.046   1.4111
  7.036   1.4523
  7.026   1.4317
  7.017   1.4008
  7.007   1.3596
  6.998   1.3802
  6.989   1.3699
  6.979   1.3596
  6.970   1.3184
  6.960   1.3493
  6.951   1.3905
  6.942   1.4214
  6.932   1.4008
  6.923   1.4420
  6.914   1.4832
  6.905   1.4317
  6.896   1.3905
  6.886   1.4420
  6.877   1.4523
  6.868   1.4523
  6.859   1.4008
  6.850   1.4008
  6.841   1.4317
  6.832   1.4523
  6.823   1.4008
  6.814   1.3802
  6.805   1.3493
  6.796   1.4317
  6.787   1.4420
  6.778   1.3802
  6.770   1.3905
  6.761   1.4317
  6.752   1.4111
  6.743   1.3905
  6.734   1.4008
  6.726   1.4317
  6.717   1.3905
  6.708   1.4111
  6.700   1.4420
  6.691   1.4420
  6.682   1.4111
  6.674   1.4626
  6.665   1.4729
  6.657   1.4523
  6.648   1.4111
  6.640   1.4626
  6.631   1.4832
  6.623   1.4832
  6.614   1.4832
  6.606   1.4626
  6.597   1.4523
  6.589   1.4626
  6.581   1.4420
  6.572   1.4729
  6.564   1.4626
  6.556   1.4523
  6.547   1.4729
  6.539   1.5038
  6.531   1.5656
  6.523   1.5965
  6.514   1.5862
  6.506   1.6377
  6.498   1.5965
  6.490   1.6171
  6.482   1.6686
  6.474   1.6377
  6.466   1.5862
  6.458   1.6480
  6.450   1.6892
  6.442   1.6892
  6.434   1.6789
  6.426   1.6892
  6.418   1.6995
  6.410   1.6995
  6.402   1.7098
  6.394   1.6995
  6.386   1.6377
  6.378   1.6686
  6.370   1.6686
  6.363   1.6686
  6.355   1.6274
  6.347   1.6171
  6.339   1.6583
  6.332   1.6892
  6.324   1.5862
  6.316   1.5038
  6.308   1.5141
  6.301   1.5759
  6.293   1.6068
  6.286   1.5965
  6.278   1.5553
  6.270   1.5347
  6.263   1.5347
  6.255   1.6583
  6.248   1.6686
  6.240   1.6068
  6.233   1.5244
  6.225   1.5553
  6.218   1.5656
  6.210   1.5656
  6.203   1.5553
  6.195   1.5553
  6.188   1.5553
  6.181   1.5862
  6.173   1.5656
  6.166   1.5965
  6.159   1.6171
  6.151   1.6480
  6.144   1.6274
  6.137   1.6377
  6.130   1.6789
  6.122   1.7098
  6.115   1.6892
  6.108   1.6892
  6.101   1.6686
  6.094   1.6995
  6.086   1.7510
  6.079   1.8025
  6.072   1.7510
  6.065   1.6892
  6.058   1.6480
  6.051   1.6995
  6.044   1.8128
  6.037   1.8128
  6.030   1.8128
  6.023   1.8540
  6.016   1.8334
  6.009   1.8025
  6.002   1.7819
  5.995   1.7613
  5.988   1.8025
  5.981   1.8334
  5.974   1.8025
  5.967   1.8025
  5.960   1.7716
  5.954   1.7304
  5.947   1.7613
  5.940   1.8231
  5.933   1.8334
  5.926   1.8231
  5.920   1.8128
  5.913   1.7716
  5.906   1.7716
  5.899   1.8437
  5.893   1.8643
  5.886   1.8643
  5.879   1.8952
  5.873   1.9261
  5.866   1.9158
  5.859   1.8849
  5.853   1.8437
  5.846   1.9055
  5.840   1.9364
  5.833   1.9055
  5.827   1.9261
  5.820   2.0291
  5.813   2.0909
  5.807   2.0497
  5.800   2.0085
  5.794   2.0394
  5.788   1.9982
  5.781   1.9364
  5.775   1.9776
  5.768   2.0188
  5.762   2.0291
  5.755   2.0188
  5.749   1.9570
  5.743   2.0188
  5.736   2.0600
  5.730   2.0600
  5.724   2.0703
  5.717   2.0909
  5.711   2.0394
  5.705   2.0085
  5.698   1.9879
  5.692   2.0188
  5.686   2.0600
  5.680   2.0703
  5.674   2.0394
  5.667   1.9982
  5.661   1.9879
  5.655   2.0497
  5.649   2.0600
  5.643   2.0600
  5.637   2.0188
  5.630   1.9673
  5.624   1.9055
  5.618   1.9158
  5.612   1.9261
  5.606   1.9467
  5.600   1.9364
  5.594   1.9776
  5.588   1.9776
  5.582   1.9467
  5.576   1.9570
  5.570   1.9673
  5.564   1.9467
  5.558   1.9673
  5.552   1.9673
  5.546   1.9776
  5.540   1.9776
  5.534   2.0085
  5.528   2.0291
  5.523   2.0600
  5.517   2.0703
  5.511   2.0497
  5.505   2.0909
  5.499   2.1424
  5.493   2.1424
  5.487   2.1115
  5.482   2.1218
  5.476   2.1424
  5.470   2.1115
  5.464   2.1321
  5.459   2.1527
  5.453   2.1630
  5.447   2.1630
  5.441   2.1321
  5.436   2.1630
  5.430   2.1836
  5.424   2.1836
  5.419   2.2042
  5.413   2.1527
  5.407   2.1424
  5.402   2.1527
  5.396   2.1836
  5.390   2.1527
  5.385   2.0806
  5.379   2.0291
  5.374   2.0703
  5.368   2.0806
  5.363   2.0291
  5.357   2.0291
  5.352   2.0600
  5.346   2.0806
  5.341   2.0600
  5.335   2.0497
  5.330   2.0600
  5.324   2.0497
  5.319   2.0394
  5.313   2.0909
  5.308   2.1218
  5.302   2.0600
  5.297   1.9879
  5.291   2.0394
  5.286   2.1218
  5.281   2.1321
  5.275   2.1321
  5.270   2.1630
  5.265   2.1733
  5.259   2.1527
  5.254   2.1733
  5.249   2.2042
  5.243   2.2351
  5.238   2.2763
  5.233   2.2660
  5.227   2.2557
  5.222   2.2866
  5.217   2.3175
  5.212   2.3587
  5.206   2.3793
  5.201   2.3896
  5.196   2.3999
  5.191   2.3999
  5.186   2.4514
  5.180   2.4720
  5.175   2.4823
  5.170   2.4617
  5.165   2.4617
  5.160   2.4926
  5.155   2.4823
  5.150   2.4617
  5.145   2.4411
  5.139   2.4617
  5.134   2.4823
  5.129   2.4514
  5.124   2.4514
  5.119   2.4823
  5.114   2.4823
  5.109   2.4617
  5.104   2.4926
  5.099   2.4617
  5.094   2.4411
  5.089   2.4823
  5.084   2.4926
  5.079   2.5029
  5.074   2.4926
  5.069   2.4308
  5.064   2.4514
  5.059   2.4617
  5.054   2.4514
  5.049   2.4720
  5.044   2.5235
  5.040   2.5235
  5.035   2.4617
  5.030   2.4720
  5.025   2.4823
  5.020   2.4823
  5.015   2.4617
  5.010   2.4514
  5.005   2.4926
  5.001   2.5441
  4.996   2.5235
  4.991   2.4823
  4.986   2.4514
  4.981   2.4308
  4.977   2.5132
  4.972   2.5647
  4.967   2.5853
  4.962   2.6677
  4.958   2.7295
  4.953   2.7501
  4.948   2.7604
  4.943   2.7398
  4.939   2.6986
  4.934   2.7295
  4.929   2.7604
  4.925   2.8119
  4.920   2.8222
  4.915   2.8737
  4.911   2.9149
  4.906   2.9458
  4.901   3.0282
  4.897   3.1209
  4.892   3.2033
  4.888   3.3269
  4.883   3.3784
  4.878   3.3887
  4.874   3.4196
  4.869   3.5020
  4.865   3.5844
  4.860   3.6462
  4.856   3.7183
  4.851   3.7801
  4.846   3.8007
  4.842   3.8419
  4.837   3.8728
  4.833   3.9243
  4.828   3.9552
  4.824   3.9449
  4.819   3.9861
  4.815   4.0170
  4.810   4.0067
  4.806   3.9964
  4.802   3.9346
  4.797   3.9758
  4.793   4.0273
  4.788   3.9964
  4.784   4.0170
  4.779   4.0685
  4.775   4.0788
  4.771   4.0685
  4.766   4.0582
  4.762   4.0891
  4.758   4.1097
  4.753   4.1612
  4.749   4.1818
  4.744   4.1406
  4.740   4.1509
  4.736   4.2127
  4.731   4.2333
  4.727   4.2333
  4.723   4.2127
  4.719   4.2230
  4.714   4.2333
  4.710   4.2642
  4.706   4.2539
  4.701   4.2127
  4.697   4.2127
  4.693   4.1612
  4.689   4.1509
  4.684   4.1200
  4.680   4.1509
  4.676   4.1921
  4.672   4.1921
  4.668   4.1509
  4.663   4.1715
  4.659   4.2333
  4.655   4.2951
  4.651   4.3260
  4.647   4.3878
  4.643   4.4187
  4.638   4.4599
  4.634   4.4805
  4.630   4.5011
  4.626   4.5526
  4.622   4.5835
  4.618   4.5629
  4.614   4.5629
  4.610   4.6247
  4.605   4.6762
  4.601   4.7277
  4.597   4.7998
  4.593   4.8307
  4.589   4.9131
  4.585   4.9646
  4.581   4.9337
  4.577   4.8719
  4.573   4.9028
  4.569   4.9543
  4.565   4.9440
  4.561   4.9955
  4.557   5.0573
  4.553   5.0985
  4.549   5.1294
  4.545   5.1088
  4.541   5.0573
  4.537   5.0470
  4.533   5.1088
  4.529   5.0882
  4.525   5.0882
  4.521   5.1294
  4.517   5.0882
  4.513   4.9852
  4.509   4.9234
  4.505   4.8719
  4.502   4.8822
  4.498   4.8410
  4.494   4.7792
  4.490   4.7895
  4.486   4.7586
  4.482   4.7483
  4.478   4.8101
  4.474   4.7998
  4.470   4.7174
  4.467   4.6762
  4.463   4.6968
  4.459   4.7483
  4.455   4.8204
  4.451   4.9440
  4.447   5.0470
  4.444   5.0264
  4.440   5.0882
  4.436   5.1603
  4.432   5.1500
  4.428   5.1294
  4.425   5.1912
  4.421   5.2427
  4.417   5.2530
  4.413   5.2839
  4.410   5.3560
  4.406   5.4590
  4.402   5.5002
  4.398   5.5414
  4.395   5.6135
  4.391   5.6444
  4.387   5.6444
  4.384   5.7268
  4.380   5.8710
  4.376   5.9534
  4.372   5.9328
  4.369   5.9843
  4.365   6.1079
  4.361   6.1388
  4.358   6.2006
  4.354   6.2830
  4.350   6.3242
  4.347   6.3448
  4.343   6.4272
  4.340   6.4684
  4.336   6.4993
  4.332   6.4993
  4.329   6.5611
  4.325   6.6126
  4.321   6.6641
  4.318   6.6641
  4.314   6.6847
  4.311   6.7259
  4.307   6.7156
  4.304   6.6744
  4.300   6.6641
  4.296   6.6950
  4.293   6.7465
  4.289   6.8186
  4.286   6.8289
  4.282   6.8083
  4.279   6.8392
  4.275   6.8804
  4.272   7.0040
  4.268   7.0349
  4.265   6.9319
  4.261   6.9525
  4.258   7.0864
  4.254   7.1173
  4.251   7.1276
  4.247   7.1070
  4.244   7.1276
  4.240   7.1276
  4.237   7.1276
  4.233   7.1379
  4.230   7.1791
  4.226   7.1688
  4.223   7.1585
  4.219   7.1173
  4.216   7.1070
  4.213   7.1482
  4.209   7.2306
  4.206   7.2100
  4.202   7.1688
  4.199   7.1791
  4.196   7.2306
  4.192   7.2924
  4.189   7.3336
  4.185   7.3027
  4.182   7.3027
  4.179   7.2821
  4.175   7.3130
  4.172   7.3954
  4.169   7.3954
  4.165   7.3954
  4.162   7.4366
  4.159   7.4057
  4.155   7.4160
  4.152   7.4469
  4.149   7.4469
  4.145   7.4675
  4.142   7.5602
  4.139   7.6220
  4.135   7.6632
  4.132   7.6220
  4.129   7.5396
  4.126   7.5396
  4.122   7.6220
  4.119   7.7250
  4.116   7.6838
  4.112   7.6426
  4.109   7.6735
  4.106   7.7250
  4.103   7.8177
  4.099   7.7868
  4.096   7.7868
  4.093   7.8074
  4.090   7.7971
  4.086   7.8486
  4.083   7.9001
  4.080   7.8486
  4.077   7.8074
  4.074   7.7868
  4.070   7.8177
  4.067   7.8383
  4.064   7.8589
  4.061   7.9104
  4.058   7.9104
  4.055   7.9413
  4.051   7.9207
  4.048   7.9310
  4.045   8.0134
  4.042   7.9722
  4.039   7.9310
  4.036   7.8074
  4.032   7.7868
  4.029   7.8486
  4.026   7.9413
  4.023   7.9310
  4.020   7.9104
  4.017   7.9413
  4.014   7.9516
  4.011   7.9207
  4.008   7.8074
  4.004   7.8383
  4.001   7.9722
  3.998   7.9928
  3.995   8.0134
  3.992   7.9207
  3.989   7.8795
  3.986   7.9001
  3.983   7.9207
  3.980   7.8795
  3.977   7.9104
  3.974   7.9001
  3.971   7.8898
  3.968   7.9001
  3.965   7.9928
  3.962   8.0134
  3.959   8.0649
  3.956   8.1061
  3.953   8.1061
  3.950   8.0443
  3.947   7.9825
  3.944   7.9928
  3.941   8.0340
  3.938   8.0443
  3.935   8.1061
  3.932   8.1576
  3.929   8.1679
  3.926   8.1473
  3.923   8.0649
  3.920   8.0649
  3.917   8.1164
  3.914   8.0958
  3.911   8.2091
  3.908   8.1988
  3.905   8.0855
  3.902   8.0443
  3.899   8.1473
  3.896   8.2091
  3.893   8.1370
  3.890   8.0855
  3.887   8.1370
  3.884   8.0855
  3.882   8.0031
  3.879   8.0134
  3.876   8.0546
  3.873   8.1061
  3.870   8.1061
  3.867   8.0752
  3.864   8.0443
  3.861   8.0443
  3.858   8.0237
  3.856   7.9825
  3.853   7.9928
  3.850   8.0237
  3.847   8.0031
  3.844   8.0546
  3.841   8.1164
  3.838   8.0134
  3.836   8.0855
  3.833   8.1164
  3.830   8.0237
  3.827   8.0134
  3.824   8.0958
  3.822   8.0649
  3.819   8.0443
  3.816   8.0958
  3.813   8.1370
  3.810   8.1885
  3.807   8.1988
  3.805   8.1061
  3.802   8.1061
  3.799   8.0958
  3.796   8.0958
  3.794   8.0855
  3.791   8.1061
  3.788   8.0340
  3.785   8.0237
  3.782   7.9722
  3.780   8.0443
  3.777   8.1267
  3.774   8.0546
  3.771   7.9928
  3.769   7.9825
  3.766   7.9104
  3.763   7.9310
  3.761   8.0031
  3.758   8.0237
  3.755   7.9928
  3.752   7.9825
  3.750   7.9516
  3.747   7.9207
  3.744   7.9722
  3.742   8.0134
  3.739   7.9928
  3.736   8.0134
  3.733   7.9001
  3.731   7.7765
  3.728   7.8280
  3.725   7.9928
  3.723   8.0031
  3.720   7.9722
  3.717   7.9207
  3.715   7.9207
  3.712   7.9619
  3.709   7.9722
  3.707   7.9722
  3.704   8.0031
  3.702   7.8795
  3.699   7.8898
  3.696   7.9619
  3.694   8.0340
  3.691   8.0340
  3.688   7.9516
  3.686   7.9207
  3.683   7.9001
  3.680   7.8898
  3.678   8.0237
  3.675   7.9619
  3.673   7.9928
  3.670   8.1061
  3.667   8.0958
  3.665   7.9825
  3.662   7.9413
  3.660   7.9825
  3.657   8.0752
  3.655   8.0443
  3.652   7.9310
  3.649   7.9619
  3.647   7.9825
  3.644   7.9207
  3.642   7.9207
  3.639   7.9619
  3.637   7.9413
  3.634   7.9104
  3.632   7.9207
  3.629   7.9001
  3.626   7.9104
  3.624   7.9722
  3.621   7.9516
  3.619   7.9104
  3.616   7.9207
  3.614   7.9207
  3.611   7.9310
  3.609   7.8898
  3.606   7.8692
  3.604   7.8795
  3.601   7.8589
  3.599   7.8074
  3.596   7.8383
  3.594   7.8383
  3.591   7.7765
  3.589   7.7971
  3.586   7.8692
  3.584   7.7868
  3.581   7.6632
