Name: Rhyolite
Type: Rock
Class: Igneous
Subclass: Felsic
Particle Size: Whole Rock Chips
Sample No.: AP-936-10
Owner: United States Geological Survey, L. C. Rowan
Wavelength range: 0.405 - 14.05 um
Origin: Iberian Pyrite Belt, Spain

Description: Rhyolite, fresh





Measurement: Directional Hemispherical Reflectance
First Column: X
Second Column: Y
X Units: Wavelength (micrometers)
Y Units: Reflectance (percent)
First X Value: 14.05105
Last X Value: 0.40500
Number of X Values: 2530
Additional Information: rhy10a.txt

 14.051   2.5235
 14.013   2.4308
 13.975   2.4617
 13.938   2.4205
 13.900   2.5853
 13.863   2.6471
 13.826   2.7089
 13.790   2.6471
 13.753   2.6265
 13.717   2.5647
 13.680   2.8016
 13.644   2.8119
 13.609   2.8222
 13.573   2.7604
 13.538   2.8016
 13.502   2.8325
 13.467   2.8943
 13.432   2.8016
 13.398   2.8943
 13.363   3.0179
 13.329   3.1209
 13.295   2.9973
 13.261   3.1312
 13.227   3.1415
 13.193   3.1827
 13.160   3.2136
 13.126   3.3578
 13.093   3.4402
 13.060   3.5844
 13.027   3.6256
 12.995   3.7492
 12.962   3.9037
 12.930   4.1406
 12.898   4.2539
 12.866   4.3981
 12.834   4.4702
 12.802   4.5835
 12.771   4.5217
 12.739   4.4187
 12.708   4.1097
 12.677   3.8110
 12.646   3.5947
 12.616   3.7492
 12.585   3.9140
 12.554   4.0582
 12.524   4.0273
 12.494   3.9758
 12.464   3.8831
 12.434   3.7389
 12.404   3.3372
 12.375   2.8943
 12.345   2.3484
 12.316   1.9570
 12.287   1.7098
 12.258   1.7304
 12.229   1.8849
 12.200   2.0703
 12.171   2.1630
 12.143   2.3072
 12.115   2.2660
 12.086   2.3175
 12.058   2.4720
 12.030   2.5544
 12.002   2.5853
 11.975   2.7192
 11.947   2.7913
 11.920   2.9252
 11.892   2.9252
 11.865   2.9870
 11.838   3.0591
 11.811   3.2342
 11.784   3.2754
 11.757   3.3784
 11.731   3.4196
 11.704   3.4608
 11.678   3.4608
 11.652   3.4711
 11.626   3.4711
 11.600   3.5741
 11.574   3.6359
 11.548   3.7904
 11.522   3.7698
 11.497   3.8110
 11.471   3.7801
 11.446   3.8213
 11.421   3.8419
 11.396   3.9140
 11.371   3.9861
 11.346   4.0273
 11.321   4.0273
 11.297   4.1097
 11.272   4.2024
 11.248   4.2230
 11.223   4.1921
 11.199   4.2436
 11.175   4.2127
 11.151   4.2848
 11.127   4.3054
 11.103   4.3157
 11.079   4.3157
 11.056   4.4393
 11.032   4.4908
 11.009   4.5114
 10.985   4.4805
 10.962   4.4805
 10.939   4.4599
 10.916   4.4908
 10.893   4.4084
 10.870   4.4393
 10.848   4.4496
 10.825   4.4290
 10.802   4.3775
 10.780   4.4290
 10.758   4.3466
 10.735   4.3363
 10.713   4.4393
 10.691   4.5526
 10.669   4.4908
 10.647   4.5423
 10.625   4.5835
 10.604   4.7071
 10.582   4.6865
 10.560   4.7277
 10.539   4.7586
 10.518   4.8616
 10.496   4.8719
 10.475   4.8822
 10.454   4.9337
 10.433   4.9955
 10.412   5.0676
 10.391   5.1603
 10.370   5.1912
 10.350   5.2839
 10.329   5.2633
 10.309   5.2839
 10.288   5.3457
 10.268   5.4487
 10.247   5.4796
 10.227   5.6444
 10.207   5.6856
 10.187   5.6959
 10.167   5.7577
 10.147   5.8710
 10.127   5.7886
 10.108   5.8710
 10.088   5.9328
 10.068   6.0358
 10.049   6.1800
 10.029   6.3654
 10.010   6.3860
  9.991   6.4272
  9.972   6.5199
  9.952   6.7465
  9.933   6.7980
  9.914   6.7465
  9.895   6.7877
  9.877   6.8186
  9.858   6.7774
  9.839   6.9628
  9.821   7.0452
  9.802   7.0246
  9.783   7.0761
  9.765   7.2203
  9.747   7.2821
  9.728   7.4881
  9.710   7.7044
  9.692   7.9722
  9.674   8.1473
  9.656   8.2915
  9.638   8.3533
  9.620   8.4563
  9.602   8.5284
  9.585   8.6726
  9.567   8.7447
  9.549   8.9404
  9.532   9.1155
  9.514   9.2391
  9.497   9.2803
  9.479   9.5069
  9.462   9.7129
  9.445  10.0322
  9.428  10.3824
  9.411  10.7841
  9.394  11.2270
  9.377  11.7523
  9.360  12.3291
  9.343  12.8750
  9.326  13.3385
  9.309  13.7711
  9.293  13.9153
  9.276  13.9462
  9.259  13.7917
  9.243  13.6990
  9.226  13.6578
  9.210  13.6372
  9.194  13.5651
  9.178  13.4724
  9.161  13.3076
  9.145  13.2046
  9.129  13.0089
  9.113  12.8029
  9.097  12.6690
  9.081  12.6793
  9.065  12.5351
  9.049  12.3394
  9.034  12.1849
  9.018  12.0613
  9.002  11.9892
  8.987  11.8759
  8.971  11.6802
  8.956  11.6493
  8.940  11.6596
  8.925  11.6287
  8.909  11.5463
  8.894  11.5463
  8.879  11.4330
  8.864  11.3609
  8.849  11.2682
  8.834  11.1858
  8.819  11.0828
  8.804  10.9695
  8.789  10.8356
  8.774  10.8356
  8.759  10.7223
  8.744  10.5369
  8.730  10.4236
  8.715  10.4648
  8.700  10.3412
  8.686  10.1867
  8.671   9.9910
  8.657   9.7644
  8.642   9.2597
  8.628   8.7550
  8.614   8.5078
  8.599   8.7550
  8.585   9.2803
  8.571   9.8365
  8.557  10.1249
  8.543  10.4030
  8.529  10.6811
  8.515  10.8768
  8.501  10.9592
  8.487  11.0004
  8.473  10.9489
  8.459  10.9077
  8.445  10.8665
  8.431  10.9901
  8.418  11.0519
  8.404  11.1240
  8.391  11.1755
  8.377  11.3403
  8.363  11.4433
  8.350  11.5772
  8.337  11.6802
  8.323  11.8038
  8.310  11.8862
  8.297  11.9995
  8.283  12.1849
  8.270  12.4321
  8.257  12.5969
  8.244  12.7514
  8.231  12.8544
  8.218  12.9883
  8.205  13.0192
  8.192  12.9574
  8.179  12.8750
  8.166  12.7514
  8.153  12.4321
  8.140  11.9068
  8.128  11.2476
  8.115  10.5163
  8.102   9.8159
  8.090   9.1876
  8.077   8.5593
  8.064   7.9310
  8.052   7.3027
  8.039   6.7465
  8.027   6.2521
  8.015   5.9122
  8.002   5.5105
  7.990   5.0985
  7.978   4.7586
  7.965   4.5217
  7.953   4.1818
  7.941   3.8419
  7.929   3.5947
  7.917   3.3887
  7.905   3.1724
  7.893   2.9767
  7.881   2.7398
  7.869   2.6059
  7.857   2.4411
  7.845   2.3072
  7.833   2.1939
  7.821   2.1115
  7.809   2.0188
  7.798   1.9673
  7.786   1.9158
  7.774   1.8849
  7.763   1.7922
  7.751   1.7716
  7.739   1.7304
  7.728   1.6789
  7.716   1.6068
  7.705   1.5759
  7.694   1.5759
  7.682   1.5450
  7.671   1.4729
  7.659   1.4523
  7.648   1.4111
  7.637   1.3905
  7.626   1.3905
  7.614   1.3699
  7.603   1.2875
  7.592   1.2978
  7.581   1.2154
  7.570   1.1742
  7.559   1.1845
  7.548   1.1845
  7.537   1.1845
  7.526   1.2154
  7.515   1.1536
  7.504   1.1330
  7.493   1.1536
  7.483   1.1742
  7.472   1.1639
  7.461   1.1639
  7.450   1.1330
  7.440   1.0918
  7.429   1.0403
  7.418   1.1021
  7.408   1.1330
  7.397   1.1330
  7.387   1.1330
  7.376   1.1330
  7.366   1.0815
  7.355   1.1227
  7.345   1.1021
  7.334   1.1021
  7.324   1.0712
  7.314   1.0815
  7.303   1.1227
  7.293   1.1845
  7.283   1.1948
  7.273   1.1948
  7.263   1.1021
  7.252   1.1227
  7.242   1.1742
  7.232   1.1948
  7.222   1.1742
  7.212   1.2051
  7.202   1.2051
  7.192   1.2875
  7.182   1.3184
  7.172   1.2360
  7.162   1.2051
  7.152   1.2772
  7.143   1.3081
  7.133   1.2978
  7.123   1.2875
  7.113   1.3493
  7.103   1.3596
  7.094   1.3596
  7.084   1.3390
  7.074   1.3184
  7.065   1.2772
  7.055   1.3081
  7.046   1.4008
  7.036   1.4729
  7.026   1.4214
  7.017   1.3905
  7.007   1.4317
  6.998   1.5244
  6.989   1.5038
  6.979   1.4729
  6.970   1.4935
  6.960   1.5450
  6.951   1.4935
  6.942   1.4626
  6.932   1.5553
  6.923   1.6480
  6.914   1.6171
  6.905   1.6274
  6.896   1.5965
  6.886   1.6068
  6.877   1.5965
  6.868   1.6068
  6.859   1.5862
  6.850   1.5553
  6.841   1.5553
  6.832   1.6274
  6.823   1.6171
  6.814   1.6171
  6.805   1.6068
  6.796   1.6171
  6.787   1.6068
  6.778   1.6995
  6.770   1.7304
  6.761   1.7201
  6.752   1.6583
  6.743   1.6171
  6.734   1.6171
  6.726   1.6686
  6.717   1.6583
  6.708   1.6583
  6.700   1.6789
  6.691   1.6995
  6.682   1.7304
  6.674   1.7510
  6.665   1.7407
  6.657   1.7922
  6.648   1.7716
  6.640   1.7098
  6.631   1.7201
  6.623   1.7613
  6.614   1.7510
  6.606   1.7922
  6.597   1.7922
  6.589   1.7716
  6.581   1.7201
  6.572   1.7201
  6.564   1.7510
  6.556   1.8025
  6.547   1.8231
  6.539   1.8128
  6.531   1.7613
  6.523   1.7819
  6.514   1.8128
  6.506   1.8334
  6.498   1.8334
  6.490   1.9055
  6.482   1.9673
  6.474   1.9982
  6.466   2.0600
  6.458   2.1115
  6.450   2.0909
  6.442   2.0497
  6.434   2.0188
  6.426   2.0806
  6.418   2.1321
  6.410   2.1115
  6.402   2.0806
  6.394   2.1115
  6.386   2.0909
  6.378   2.0703
  6.370   2.0497
  6.363   2.1012
  6.355   2.0703
  6.347   2.0394
  6.339   1.9982
  6.332   1.9776
  6.324   1.9776
  6.316   1.9982
  6.308   1.9982
  6.301   1.9570
  6.293   1.8952
  6.286   1.8540
  6.278   1.7819
  6.270   1.7819
  6.263   1.7922
  6.255   1.7201
  6.248   1.6892
  6.240   1.7304
  6.233   1.7201
  6.225   1.7510
  6.218   1.7407
  6.210   1.7510
  6.203   1.7613
  6.195   1.7716
  6.188   1.7510
  6.181   1.7510
  6.173   1.6686
  6.166   1.6892
  6.159   1.7716
  6.151   1.7613
  6.144   1.7613
  6.137   1.8334
  6.130   1.8849
  6.122   1.9055
  6.115   1.8643
  6.108   1.9055
  6.101   1.9261
  6.094   1.9879
  6.086   2.0085
  6.079   1.9673
  6.072   1.9570
  6.065   1.9879
  6.058   2.0703
  6.051   2.1218
  6.044   2.0806
  6.037   2.0806
  6.030   2.0806
  6.023   2.1012
  6.016   2.1115
  6.009   2.0909
  6.002   2.0394
  5.995   2.1321
  5.988   2.1630
  5.981   2.1424
  5.974   2.1218
  5.967   2.0806
  5.960   2.0497
  5.954   2.1012
  5.947   2.0909
  5.940   2.0394
  5.933   2.0291
  5.926   2.0703
  5.920   2.0909
  5.913   2.1424
  5.906   2.1939
  5.899   2.2454
  5.893   2.2557
  5.886   2.3175
  5.879   2.4102
  5.873   2.4720
  5.866   2.4720
  5.859   2.4926
  5.853   2.5029
  5.846   2.5750
  5.840   2.6471
  5.833   2.6780
  5.827   2.6883
  5.820   2.6986
  5.813   2.7295
  5.807   2.7913
  5.800   2.8428
  5.794   2.8428
  5.788   2.8325
  5.781   2.8531
  5.775   2.8943
  5.768   2.9870
  5.762   3.0282
  5.755   3.0076
  5.749   3.0179
  5.743   3.0488
  5.736   3.0694
  5.730   3.1003
  5.724   3.0900
  5.717   3.0900
  5.711   3.1003
  5.705   3.1621
  5.698   3.1827
  5.692   3.1621
  5.686   3.1209
  5.680   3.1209
  5.674   3.0900
  5.667   3.0797
  5.661   3.0488
  5.655   2.9664
  5.649   2.9458
  5.643   2.9664
  5.637   2.9046
  5.630   2.8531
  5.624   2.8016
  5.618   2.7501
  5.612   2.7398
  5.606   2.7398
  5.600   2.7192
  5.594   2.7192
  5.588   2.7192
  5.582   2.7295
  5.576   2.7501
  5.570   2.7604
  5.564   2.7398
  5.558   2.7604
  5.552   2.7913
  5.546   2.8222
  5.540   2.8634
  5.534   2.8840
  5.528   2.9149
  5.523   2.9664
  5.517   3.0179
  5.511   3.0694
  5.505   3.1312
  5.499   3.1930
  5.493   3.2651
  5.487   3.3475
  5.482   3.3372
  5.476   3.3166
  5.470   3.3681
  5.464   3.4402
  5.459   3.5020
  5.453   3.5638
  5.447   3.5226
  5.441   3.5020
  5.436   3.5226
  5.430   3.5123
  5.424   3.4814
  5.419   3.4505
  5.413   3.4093
  5.407   3.3475
  5.402   3.2857
  5.396   3.2033
  5.390   3.1209
  5.385   3.0591
  5.379   2.9870
  5.374   2.9458
  5.368   2.8943
  5.363   2.8531
  5.357   2.8325
  5.352   2.8016
  5.346   2.7295
  5.341   2.6986
  5.335   2.7707
  5.330   2.8634
  5.324   2.8737
  5.319   2.8634
  5.313   2.8634
  5.308   2.9149
  5.302   2.9252
  5.297   2.9355
  5.291   2.9355
  5.286   2.9458
  5.281   3.0076
  5.275   3.1209
  5.270   3.1724
  5.265   3.1518
  5.259   3.2239
  5.254   3.3372
  5.249   3.4402
  5.243   3.5638
  5.238   3.6359
  5.233   3.7183
  5.227   3.8419
  5.222   3.9964
  5.217   4.0479
  5.212   4.0788
  5.206   4.1818
  5.201   4.3260
  5.196   4.3569
  5.191   4.3981
  5.186   4.4599
  5.180   4.4908
  5.175   4.4908
  5.170   4.4805
  5.165   4.4702
  5.160   4.4702
  5.155   4.5114
  5.150   4.5114
  5.145   4.4805
  5.139   4.5114
  5.134   4.5629
  5.129   4.5629
  5.124   4.5938
  5.119   4.6247
  5.114   4.6247
  5.109   4.6453
  5.104   4.6659
  5.099   4.6968
  5.094   4.6865
  5.089   4.6556
  5.084   4.6453
  5.079   4.5732
  5.074   4.4908
  5.069   4.4393
  5.064   4.4599
  5.059   4.5629
  5.054   4.5938
  5.049   4.5732
  5.044   4.5629
  5.040   4.5526
  5.035   4.5835
  5.030   4.5732
  5.025   4.5526
  5.020   4.5629
  5.015   4.5423
  5.010   4.5320
  5.005   4.5423
  5.001   4.5732
  4.996   4.6556
  4.991   4.7277
  4.986   4.7586
  4.981   4.8513
  4.977   4.9646
  4.972   5.1088
  4.967   5.2118
  4.962   5.3560
  4.958   5.5414
  4.953   5.6650
  4.948   5.7268
  4.943   5.8504
  4.939   5.9122
  4.934   5.9431
  4.929   6.0255
  4.925   6.1285
  4.920   6.2109
  4.915   6.3345
  4.911   6.5199
  4.906   6.7774
  4.901   7.0349
  4.897   7.3233
  4.892   7.6632
  4.888   7.9619
  4.883   8.2400
  4.878   8.5078
  4.874   8.7859
  4.869   8.9404
  4.865   9.1155
  4.860   9.3524
  4.856   9.5378
  4.851   9.7026
  4.846   9.9086
  4.842  10.0528
  4.837  10.1661
  4.833  10.2382
  4.828  10.2691
  4.824  10.3618
  4.819  10.4751
  4.815  10.5575
  4.810  10.6708
  4.806  10.8047
  4.802  10.8459
  4.797  10.9283
  4.793  10.9592
  4.788  10.9489
  4.784  11.0004
  4.779  11.0416
  4.775  11.0931
  4.771  11.1343
  4.766  11.2579
  4.762  11.3506
  4.758  11.4330
  4.753  11.5257
  4.749  11.5772
  4.744  11.6802
  4.740  11.7523
  4.736  11.7729
  4.731  11.8141
  4.727  11.8450
  4.723  11.8450
  4.719  11.8759
  4.714  11.9171
  4.710  12.0098
  4.706  12.0510
  4.701  11.9995
  4.697  11.9377
  4.693  11.8553
  4.689  11.7626
  4.684  11.6905
  4.680  11.6905
  4.676  11.7420
  4.672  11.8347
  4.668  11.9480
  4.663  12.0819
  4.659  12.2261
  4.655  12.3085
  4.651  12.4321
  4.647  12.6175
  4.643  12.8338
  4.638  12.9986
  4.634  13.2355
  4.630  13.4415
  4.626  13.5136
  4.622  13.5239
  4.618  13.6166
  4.614  13.7814
  4.610  13.9359
  4.605  14.0492
  4.601  14.1625
  4.597  14.3273
  4.593  14.4097
  4.589  14.4818
  4.585  14.5642
  4.581  14.6775
  4.577  14.6981
  4.573  14.7908
  4.569  14.9144
  4.565  14.9762
  4.561  14.9865
  4.557  15.0380
  4.553  15.1307
  4.549  15.1513
  4.545  15.1410
  4.541  15.1204
  4.537  15.0792
  4.533  15.0792
  4.529  15.0277
  4.525  14.9453
  4.521  14.8526
  4.517  14.7908
  4.513  14.7290
  4.509  14.6363
  4.505  14.4612
  4.502  14.2449
  4.498  14.1007
  4.494  14.0389
  4.490  14.0595
  4.486  14.0904
  4.482  14.0492
  4.478  13.9359
  4.474  13.9256
  4.470  14.0080
  4.467  14.0492
  4.463  14.0904
  4.459  14.2243
  4.455  14.4097
  4.451  14.5436
  4.447  14.7187
  4.444  14.9144
  4.440  15.0895
  4.436  15.1719
  4.432  15.2028
  4.428  15.3058
  4.425  15.5324
  4.421  15.7075
  4.417  15.8311
  4.413  15.9959
  4.410  16.1504
  4.406  16.3049
  4.402  16.5418
  4.398  16.7169
  4.395  16.8714
  4.391  17.0877
  4.387  17.3555
  4.384  17.5512
  4.380  17.7778
  4.376  17.9220
  4.372  18.0868
  4.369  18.3237
  4.365  18.5709
  4.361  18.7666
  4.358  18.9314
  4.354  19.0756
  4.350  19.2507
  4.347  19.4464
  4.343  19.6421
  4.340  19.7760
  4.336  19.9820
  4.332  20.2189
  4.329  20.3528
  4.325  20.4249
  4.321  20.5382
  4.318  20.5794
  4.314  20.6309
  4.311  20.6412
  4.307  20.6721
  4.304  20.6824
  4.300  20.7957
  4.296  20.9090
  4.293  20.9090
  4.289  21.0017
  4.286  21.1768
  4.282  21.2592
  4.279  21.2901
  4.275  21.3725
  4.272  21.4961
  4.268  21.6300
  4.265  21.7639
  4.261  21.7639
  4.258  21.7845
  4.254  21.9596
  4.251  22.1244
  4.247  22.1862
  4.244  22.2583
  4.240  22.4025
  4.237  22.4437
  4.233  22.4849
  4.230  22.5364
  4.226  22.6188
  4.223  22.6909
  4.219  22.6703
  4.216  22.6703
  4.213  22.6806
  4.209  22.6497
  4.206  22.6497
  4.202  22.6600
  4.199  22.6703
  4.196  22.7218
  4.192  22.7939
  4.189  22.8660
  4.185  22.9793
  4.182  23.0411
  4.179  23.0823
  4.175  23.2059
  4.172  23.3604
  4.169  23.3501
  4.165  23.3810
  4.162  23.5458
  4.159  23.6591
  4.155  23.7312
  4.152  23.8342
  4.149  23.9475
  4.145  23.9578
  4.142  23.9269
  4.139  23.9681
  4.135  24.1123
  4.132  24.2359
  4.129  24.3389
  4.126  24.4213
  4.122  24.5243
  4.119  24.5140
  4.116  24.5449
  4.112  24.6891
  4.109  24.8745
  4.106  24.9363
  4.103  24.9363
  4.099  25.0393
  4.096  25.1114
  4.093  25.1629
  4.090  25.2041
  4.086  25.2556
  4.083  25.3586
  4.080  25.4719
  4.077  25.5440
  4.074  25.5440
  4.070  25.6573
  4.067  25.7809
  4.064  25.7088
  4.061  25.7397
  4.058  25.8118
  4.055  25.7912
  4.051  25.8324
  4.048  25.8427
  4.045  25.8530
  4.042  25.8633
  4.039  25.8942
  4.036  25.8736
  4.032  25.9045
  4.029  25.8633
  4.026  25.8530
  4.023  25.8633
  4.020  25.8633
  4.017  25.8221
  4.014  25.8839
  4.011  25.9663
  4.008  25.9457
  4.004  25.9457
  4.001  25.9869
  3.998  25.9972
  3.995  25.9663
  3.992  25.9251
  3.989  25.9663
  3.986  26.0281
  3.983  26.1311
  3.980  26.1414
  3.977  26.2135
  3.974  26.2650
  3.971  26.2650
  3.968  26.2856
  3.965  26.3680
  3.962  26.5019
  3.959  26.5431
  3.956  26.5122
  3.953  26.5946
  3.950  26.7182
  3.947  26.8624
  3.944  26.8933
  3.941  26.9654
  3.938  26.9757
  3.935  26.9654
  3.932  26.9551
  3.929  26.9551
  3.926  27.0169
  3.923  27.1405
  3.920  27.1611
  3.917  27.1302
  3.914  27.0787
  3.911  27.0684
  3.908  27.1096
  3.905  27.1199
  3.902  27.1920
  3.899  27.2126
  3.896  27.0993
  3.893  26.9860
  3.890  27.0272
  3.887  27.1508
  3.884  27.0581
  3.882  27.0169
  3.879  26.9757
  3.876  26.8933
  3.873  26.8624
  3.870  26.9139
  3.867  26.8315
  3.864  26.8521
  3.861  26.8727
  3.858  26.8109
  3.856  26.7903
  3.853  26.8315
  3.850  26.8006
  3.847  26.8006
  3.844  26.7594
  3.841  26.7800
  3.838  26.8315
  3.836  26.8418
  3.833  26.8109
  3.830  26.8006
  3.827  26.7903
  3.824  26.8521
  3.822  26.8830
  3.819  26.8521
  3.816  26.8418
  3.813  26.8727
  3.810  26.9139
  3.807  26.8830
  3.805  26.8212
  3.802  26.7491
  3.799  26.7285
  3.796  26.7594
  3.794  26.7388
  3.791  26.7182
  3.788  26.7182
  3.785  26.6976
  3.782  26.6358
  3.780  26.5637
  3.777  26.4916
  3.774  26.4710
  3.771  26.3886
  3.769  26.3268
  3.766  26.3165
  3.763  26.3165
  3.761  26.2650
  3.758  26.1517
  3.755  26.0796
  3.752  26.1105
  3.750  26.1002
  3.747  26.0075
  3.744  25.8839
  3.742  25.7294
  3.739  25.7294
  3.736  25.8427
  3.733  25.8530
  3.731  25.7706
  3.728  25.7191
  3.725  25.6573
  3.723  25.5749
  3.720  25.5852
  3.717  25.6676
  3.715  25.7500
  3.712  25.6779
  3.709  25.6470
  3.707  25.5852
  3.704  25.5646
  3.702  25.5234
  3.699  25.5749
  3.696  25.5749
  3.694  25.5749
  3.691  25.5543
  3.688  25.5852
  3.686  25.6573
  3.683  25.6367
  3.680  25.5543
  3.678  25.6161
  3.675  25.5646
  3.673  25.3586
  3.670  25.2968
  3.667  25.3895
  3.665  25.4410
  3.662  25.3586
  3.660  25.1938
  3.657  25.2041
  3.655  25.2247
  3.652  25.1835
  3.649  25.1320
  3.647  25.1114
  3.644  25.0290
  3.642  24.8951
  3.639  24.7509
  3.637  24.6994
  3.634  24.6376
  3.632  24.6582
  3.629  24.6479
  3.626  24.6994
  3.624  24.6376
  3.621  24.5861
  3.619  24.4728
  3.616  24.4007
  3.614  24.3492
  3.611  24.2977
  3.609  24.0917
  3.606  23.9990
  3.604  23.9681
  3.601  23.8857
  3.599  23.8239
  3.596  23.7827
  3.594  23.6900
  3.591  23.5973
  3.589  23.4634
  3.586  23.3913
  3.584  23.3398
  3.581  23.2883
