Name: Rhyolite
Type: Rock
Class: Igneous
Subclass: Felsic
Particle Size: Whole Rock Chips
Sample No.: AP-980-121
Owner: United States Geological Survey, L. C. Rowan
Wavelength range: 0.405 - 14.05 um
Origin: Iberian Pyrite Belt, Spain

Description: Rhyolite, light tan, very fine rock





Measurement: Directional Hemispherical Reflectance
First Column: X
Second Column: Y
X Units: Wavelength (micrometers)
Y Units: Reflectance (percent)
First X Value: 14.05105
Last X Value: 0.40500
Number of X Values: 2530
Additional Information: rhy121a.txt

 14.051   2.1733
 14.013   2.1115
 13.975   2.1321
 13.938   2.1115
 13.900   2.2042
 13.863   2.2557
 13.826   2.3793
 13.790   2.3587
 13.753   2.2557
 13.717   2.2042
 13.680   2.3072
 13.644   2.2969
 13.609   2.4102
 13.573   2.4617
 13.538   2.5956
 13.502   2.5647
 13.467   2.6059
 13.432   2.5029
 13.398   2.5750
 13.363   2.5544
 13.329   2.5132
 13.295   2.4411
 13.261   2.5647
 13.227   2.6265
 13.193   2.7089
 13.160   2.6574
 13.126   2.6986
 13.093   2.7501
 13.060   2.7913
 13.027   2.7604
 12.995   2.9046
 12.962   2.9355
 12.930   3.0179
 12.898   3.1003
 12.866   3.2342
 12.834   3.2857
 12.802   3.3681
 12.771   3.3475
 12.739   3.2960
 12.708   3.0797
 12.677   2.9046
 12.646   2.7295
 12.616   2.6677
 12.585   2.6883
 12.554   2.8737
 12.524   2.8943
 12.494   2.9458
 12.464   2.9355
 12.434   2.8325
 12.404   2.5647
 12.375   2.4102
 12.345   2.1733
 12.316   2.0085
 12.287   1.8437
 12.258   1.9055
 12.229   2.0909
 12.200   2.1939
 12.171   2.1939
 12.143   2.2351
 12.115   2.2042
 12.086   2.3175
 12.058   2.3587
 12.030   2.4411
 12.002   2.4617
 11.975   2.6059
 11.947   2.6265
 11.920   2.6780
 11.892   2.7192
 11.865   2.8119
 11.838   2.8737
 11.811   2.9664
 11.784   2.9870
 11.757   3.1209
 11.731   3.1209
 11.704   3.1827
 11.678   3.2651
 11.652   3.3990
 11.626   3.3784
 11.600   3.3990
 11.574   3.3887
 11.548   3.3990
 11.522   3.2857
 11.497   3.3887
 11.471   3.4711
 11.446   3.5844
 11.421   3.5947
 11.396   3.6359
 11.371   3.5432
 11.346   3.5535
 11.321   3.6050
 11.297   3.7183
 11.272   3.6771
 11.248   3.6359
 11.223   3.6153
 11.199   3.6977
 11.175   3.7286
 11.151   3.8316
 11.127   3.8625
 11.103   3.8934
 11.079   3.8728
 11.056   3.9037
 11.032   3.8110
 11.009   3.8728
 10.985   3.8316
 10.962   3.8522
 10.939   3.8728
 10.916   3.8831
 10.893   3.7904
 10.870   3.7595
 10.848   3.7183
 10.825   3.6874
 10.802   3.6565
 10.780   3.7183
 10.758   3.7080
 10.735   3.6462
 10.713   3.5226
 10.691   3.5741
 10.669   3.6256
 10.647   3.6977
 10.625   3.6668
 10.604   3.7080
 10.582   3.7389
 10.560   3.6977
 10.539   3.6668
 10.518   3.7492
 10.496   3.8213
 10.475   3.8934
 10.454   3.9655
 10.433   4.0685
 10.412   4.1097
 10.391   4.2539
 10.370   4.3466
 10.350   4.3981
 10.329   4.3775
 10.309   4.4908
 10.288   4.5732
 10.268   4.7174
 10.247   4.7071
 10.227   4.7895
 10.207   4.9543
 10.187   5.0882
 10.167   5.1809
 10.147   5.3354
 10.127   5.4075
 10.108   5.4899
 10.088   5.5620
 10.068   5.6959
 10.049   5.8401
 10.029   6.0873
 10.010   6.2521
  9.991   6.3963
  9.972   6.4478
  9.952   6.6641
  9.933   6.8186
  9.914   6.8804
  9.895   6.8598
  9.877   6.7980
  9.858   6.7465
  9.839   6.7568
  9.821   6.6847
  9.802   6.7465
  9.783   6.8804
  9.765   7.0864
  9.747   7.1688
  9.728   7.3748
  9.710   7.6014
  9.692   7.9104
  9.674   8.1267
  9.656   8.4048
  9.638   8.6314
  9.620   8.8786
  9.602   8.9095
  9.585   9.0125
  9.567   9.0949
  9.549   9.1876
  9.532   9.1567
  9.514   9.1773
  9.497   9.1876
  9.479   9.2391
  9.462   9.2494
  9.445   9.3524
  9.428   9.4245
  9.411   9.6099
  9.394   9.8262
  9.377  10.0734
  9.360  10.2382
  9.343  10.4339
  9.326  10.6811
  9.309  10.8768
  9.293  10.9386
  9.276  11.0004
  9.259  10.9180
  9.243  10.9489
  9.226  10.9283
  9.210  10.9077
  9.194  10.8768
  9.178  10.8150
  9.161  10.6502
  9.145  10.5060
  9.129  10.3103
  9.113  10.2176
  9.097  10.1043
  9.081  10.0528
  9.065   9.7953
  9.049   9.4966
  9.034   9.2803
  9.018   9.1155
  9.002   8.8889
  8.987   8.8374
  8.971   8.7962
  8.956   8.8786
  8.940   8.9816
  8.925   9.2391
  8.909   9.3833
  8.894   9.4863
  8.879   9.5172
  8.864   9.5687
  8.849   9.5584
  8.834   9.4966
  8.819   9.4142
  8.804   9.3421
  8.789   9.1876
  8.774   9.0846
  8.759   8.8786
  8.744   8.8374
  8.730   8.7447
  8.715   8.6211
  8.700   8.4357
  8.686   8.2606
  8.671   8.0340
  8.657   7.7147
  8.642   7.3233
  8.628   6.9834
  8.614   6.7671
  8.599   6.9937
  8.585   7.3645
  8.571   7.7147
  8.557   7.9207
  8.543   8.1061
  8.529   8.1782
  8.515   8.1885
  8.501   8.2091
  8.487   8.2400
  8.473   8.1576
  8.459   8.1370
  8.445   8.1061
  8.431   8.1576
  8.418   8.1576
  8.404   8.2503
  8.391   8.2812
  8.377   8.3430
  8.363   8.3533
  8.350   8.3739
  8.337   8.3327
  8.323   8.3739
  8.310   8.4151
  8.297   8.5284
  8.283   8.6726
  8.270   8.7550
  8.257   8.7859
  8.244   8.8786
  8.231   8.9301
  8.218   9.0228
  8.205   9.1052
  8.192   9.1567
  8.179   9.0743
  8.166   8.9816
  8.153   8.7550
  8.140   8.4769
  8.128   8.1061
  8.115   7.7147
  8.102   7.2718
  8.090   6.9422
  8.077   6.6023
  8.064   6.2933
  8.052   5.9637
  8.039   5.6959
  8.027   5.3045
  8.015   5.0882
  8.002   4.8822
  7.990   4.7071
  7.978   4.5423
  7.965   4.3672
  7.953   4.1200
  7.941   4.0067
  7.929   3.7904
  7.917   3.6359
  7.905   3.4711
  7.893   3.3063
  7.881   3.1621
  7.869   3.0797
  7.857   2.9355
  7.845   2.8222
  7.833   2.7192
  7.821   2.6574
  7.809   2.5956
  7.798   2.5750
  7.786   2.5338
  7.774   2.5132
  7.763   2.4514
  7.751   2.4514
  7.739   2.4411
  7.728   2.3793
  7.716   2.2866
  7.705   2.2660
  7.694   2.2454
  7.682   2.2660
  7.671   2.1733
  7.659   2.1733
  7.648   2.1527
  7.637   2.1115
  7.626   2.0291
  7.614   2.0291
  7.603   1.9879
  7.592   1.9879
  7.581   1.9055
  7.570   1.8643
  7.559   1.9055
  7.548   1.9467
  7.537   1.9158
  7.526   1.8952
  7.515   1.8334
  7.504   1.8437
  7.493   1.8334
  7.483   1.8231
  7.472   1.7922
  7.461   1.8334
  7.450   1.7819
  7.440   1.7304
  7.429   1.6686
  7.418   1.7098
  7.408   1.6480
  7.397   1.6171
  7.387   1.6480
  7.376   1.7510
  7.366   1.6995
  7.355   1.6892
  7.345   1.6995
  7.334   1.6686
  7.324   1.6377
  7.314   1.6995
  7.303   1.6480
  7.293   1.6583
  7.283   1.6995
  7.273   1.6995
  7.263   1.6377
  7.252   1.6377
  7.242   1.5759
  7.232   1.5759
  7.222   1.5553
  7.212   1.6274
  7.202   1.6892
  7.192   1.6377
  7.182   1.5862
  7.172   1.6171
  7.162   1.6274
  7.152   1.6377
  7.143   1.6068
  7.133   1.6892
  7.123   1.6892
  7.113   1.6789
  7.103   1.6274
  7.094   1.6171
  7.084   1.6274
  7.074   1.6480
  7.065   1.6686
  7.055   1.6686
  7.046   1.6274
  7.036   1.6789
  7.026   1.6480
  7.017   1.6480
  7.007   1.6583
  6.998   1.6892
  6.989   1.6995
  6.979   1.7304
  6.970   1.7613
  6.960   1.7716
  6.951   1.6789
  6.942   1.6789
  6.932   1.7304
  6.923   1.7716
  6.914   1.7407
  6.905   1.7613
  6.896   1.7407
  6.886   1.6892
  6.877   1.6583
  6.868   1.7201
  6.859   1.7407
  6.850   1.8128
  6.841   1.8334
  6.832   1.8540
  6.823   1.8643
  6.814   1.9055
  6.805   1.8231
  6.796   1.8437
  6.787   1.8952
  6.778   1.9776
  6.770   2.0085
  6.761   2.0291
  6.752   2.0085
  6.743   2.0394
  6.734   1.9982
  6.726   1.9982
  6.717   2.0600
  6.708   2.0909
  6.700   1.9982
  6.691   2.0085
  6.682   1.9982
  6.674   1.9982
  6.665   2.0497
  6.657   2.0909
  6.648   2.0806
  6.640   2.0497
  6.631   2.0291
  6.623   2.1012
  6.614   2.1012
  6.606   2.0909
  6.597   2.0497
  6.589   1.9982
  6.581   1.9570
  6.572   1.9673
  6.564   1.9364
  6.556   1.9261
  6.547   1.9055
  6.539   1.9364
  6.531   1.9261
  6.523   1.9467
  6.514   1.9673
  6.506   2.0188
  6.498   2.0909
  6.490   2.1115
  6.482   2.0497
  6.474   2.0909
  6.466   2.1012
  6.458   2.1321
  6.450   2.1218
  6.442   2.1218
  6.434   2.1218
  6.426   2.1733
  6.418   2.1630
  6.410   2.1321
  6.402   2.1424
  6.394   2.1939
  6.386   2.2042
  6.378   2.2351
  6.370   2.1630
  6.363   2.1424
  6.355   2.1527
  6.347   2.1630
  6.339   2.1321
  6.332   2.0806
  6.324   2.0291
  6.316   2.1218
  6.308   2.1218
  6.301   2.0909
  6.293   2.0085
  6.286   1.9776
  6.278   1.9261
  6.270   1.9467
  6.263   1.9776
  6.255   1.9261
  6.248   1.8643
  6.240   1.8952
  6.233   1.8540
  6.225   1.8643
  6.218   1.8849
  6.210   1.8334
  6.203   1.8025
  6.195   1.8540
  6.188   1.8540
  6.181   1.8849
  6.173   1.8952
  6.166   1.8952
  6.159   1.8746
  6.151   1.8540
  6.144   1.8437
  6.137   1.8643
  6.130   1.8437
  6.122   1.8746
  6.115   1.9055
  6.108   1.9261
  6.101   1.8952
  6.094   1.9055
  6.086   1.8746
  6.079   1.8746
  6.072   1.9261
  6.065   1.9982
  6.058   1.8746
  6.051   1.8334
  6.044   1.8540
  6.037   1.9055
  6.030   1.9467
  6.023   2.0085
  6.016   1.9982
  6.009   1.9879
  6.002   1.9364
  5.995   1.9261
  5.988   1.9467
  5.981   1.9776
  5.974   1.9467
  5.967   1.9467
  5.960   1.9364
  5.954   1.9570
  5.947   1.9467
  5.940   1.9570
  5.933   1.9776
  5.926   2.0497
  5.920   2.0600
  5.913   2.0703
  5.906   2.1012
  5.899   2.2248
  5.893   2.2454
  5.886   2.2351
  5.879   2.3072
  5.873   2.4308
  5.866   2.4514
  5.859   2.5132
  5.853   2.5441
  5.846   2.6059
  5.840   2.6677
  5.833   2.7192
  5.827   2.7192
  5.820   2.7707
  5.813   2.8222
  5.807   2.9149
  5.800   2.9973
  5.794   3.0385
  5.788   3.0282
  5.781   3.1106
  5.775   3.1827
  5.768   3.2136
  5.762   3.2342
  5.755   3.3166
  5.749   3.3475
  5.743   3.4093
  5.736   3.4917
  5.730   3.5432
  5.724   3.5638
  5.717   3.6153
  5.711   3.6771
  5.705   3.7492
  5.698   3.8110
  5.692   3.8728
  5.686   3.8728
  5.680   3.9140
  5.674   3.9140
  5.667   3.8831
  5.661   3.8316
  5.655   3.8625
  5.649   3.8522
  5.643   3.8316
  5.637   3.7698
  5.630   3.7286
  5.624   3.7286
  5.618   3.7286
  5.612   3.6668
  5.606   3.6771
  5.600   3.6771
  5.594   3.6874
  5.588   3.6874
  5.582   3.7183
  5.576   3.7492
  5.570   3.7801
  5.564   3.7801
  5.558   3.7698
  5.552   3.8213
  5.546   3.9140
  5.540   3.9140
  5.534   3.9655
  5.528   4.0170
  5.523   4.0788
  5.517   4.1715
  5.511   4.2642
  5.505   4.2333
  5.499   4.3260
  5.493   4.4393
  5.487   4.4908
  5.482   4.4702
  5.476   4.5217
  5.470   4.6041
  5.464   4.7071
  5.459   4.7586
  5.453   4.7689
  5.447   4.7998
  5.441   4.8616
  5.436   4.8616
  5.430   4.8616
  5.424   4.7895
  5.419   4.7380
  5.413   4.6659
  5.407   4.5835
  5.402   4.5011
  5.396   4.4290
  5.390   4.2848
  5.385   4.1715
  5.379   4.0891
  5.374   4.0067
  5.368   3.9037
  5.363   3.8831
  5.357   3.8625
  5.352   3.7904
  5.346   3.7904
  5.341   3.8419
  5.335   3.8419
  5.330   3.8934
  5.324   3.9346
  5.319   3.9449
  5.313   3.9243
  5.308   3.9861
  5.302   4.0067
  5.297   4.0582
  5.291   4.0994
  5.286   4.1509
  5.281   4.2024
  5.275   4.2848
  5.270   4.3672
  5.265   4.4496
  5.259   4.5114
  5.254   4.6247
  5.249   4.7277
  5.243   4.8719
  5.238   4.9646
  5.233   5.0985
  5.227   5.1912
  5.222   5.3251
  5.217   5.4487
  5.212   5.5929
  5.206   5.6753
  5.201   5.7783
  5.196   5.8298
  5.191   5.9019
  5.186   5.8916
  5.180   5.9019
  5.175   5.9225
  5.170   5.9637
  5.165   5.9225
  5.160   5.9328
  5.155   5.9431
  5.150   5.9946
  5.145   6.0461
  5.139   6.0564
  5.134   6.0564
  5.129   6.0564
  5.124   6.0152
  5.119   6.0667
  5.114   6.1388
  5.109   6.2006
  5.104   6.1800
  5.099   6.1594
  5.094   6.1388
  5.089   6.1594
  5.084   6.1285
  5.079   6.0873
  5.074   6.0358
  5.069   6.0049
  5.064   5.9843
  5.059   6.0358
  5.054   6.0564
  5.049   6.0770
  5.044   6.0770
  5.040   6.0976
  5.035   6.0461
  5.030   6.0461
  5.025   6.0770
  5.020   6.1388
  5.015   6.1800
  5.010   6.2109
  5.005   6.2212
  5.001   6.2933
  4.996   6.3139
  4.991   6.2933
  4.986   6.3139
  4.981   6.4169
  4.977   6.5096
  4.972   6.7053
  4.967   6.8804
  4.962   7.0143
  4.958   7.1791
  4.953   7.3645
  4.948   7.4984
  4.943   7.5911
  4.939   7.6632
  4.934   7.8074
  4.929   7.8383
  4.925   7.9001
  4.920   8.0237
  4.915   8.1782
  4.911   8.3018
  4.906   8.5593
  4.901   8.8271
  4.897   9.1258
  4.892   9.3833
  4.888   9.6511
  4.883   9.8880
  4.878  10.1661
  4.874  10.3824
  4.869  10.5884
  4.865  10.7532
  4.860  10.9489
  4.856  11.1343
  4.851  11.2270
  4.846  11.2888
  4.842  11.4330
  4.837  11.5360
  4.833  11.6596
  4.828  11.7626
  4.824  11.8347
  4.819  11.8965
  4.815  11.9892
  4.810  12.0304
  4.806  12.0922
  4.802  12.1231
  4.797  12.2673
  4.793  12.3188
  4.788  12.3497
  4.784  12.3394
  4.779  12.3600
  4.775  12.4424
  4.771  12.5145
  4.766  12.5145
  4.762  12.6175
  4.758  12.7308
  4.753  12.8441
  4.749  12.8853
  4.744  12.8544
  4.740  12.8956
  4.736  13.0810
  4.731  13.1119
  4.727  13.1428
  4.723  13.2149
  4.719  13.2767
  4.714  13.2458
  4.710  13.2664
  4.706  13.2149
  4.701  13.1943
  4.697  13.1943
  4.693  13.1737
  4.689  13.0913
  4.684  13.0604
  4.680  13.1016
  4.676  13.1840
  4.672  13.2046
  4.668  13.2870
  4.663  13.4003
  4.659  13.5033
  4.655  13.6166
  4.651  13.7402
  4.647  13.8535
  4.643  14.0286
  4.638  14.1625
  4.634  14.3067
  4.630  14.3788
  4.626  14.4509
  4.622  14.5848
  4.618  14.7908
  4.614  14.8835
  4.610  14.9453
  4.605  14.9865
  4.601  15.1204
  4.597  15.2234
  4.593  15.3470
  4.589  15.4088
  4.585  15.5015
  4.581  15.5942
  4.577  15.7075
  4.573  15.6766
  4.569  15.7178
  4.565  15.8311
  4.561  15.8929
  4.557  15.9032
  4.553  15.9135
  4.549  15.8620
  4.545  15.9135
  4.541  15.9444
  4.537  15.9238
  4.533  15.9341
  4.529  15.9444
  4.525  15.8929
  4.521  15.8414
  4.517  15.6869
  4.513  15.6251
  4.509  15.5324
  4.505  15.3882
  4.502  15.2543
  4.498  15.2337
  4.494  15.2131
  4.490  15.1616
  4.486  15.0895
  4.482  15.0483
  4.478  15.0483
  4.474  15.1410
  4.470  15.1513
  4.467  15.1616
  4.463  15.1822
  4.459  15.2543
  4.455  15.3264
  4.451  15.4809
  4.447  15.6457
  4.444  15.8929
  4.440  16.0165
  4.436  16.0474
  4.432  16.0577
  4.428  16.1195
  4.425  16.1607
  4.421  16.3049
  4.417  16.4285
  4.413  16.6139
  4.410  16.6963
  4.406  16.7581
  4.402  16.8405
  4.398  16.9332
  4.395  17.1186
  4.391  17.3555
  4.387  17.4482
  4.384  17.5306
  4.380  17.6542
  4.376  17.8396
  4.372  17.9838
  4.369  18.1383
  4.365  18.2619
  4.361  18.3855
  4.358  18.4679
  4.354  18.5606
  4.350  18.6327
  4.347  18.7151
  4.343  18.8490
  4.340  19.0035
  4.336  19.1374
  4.332  19.2507
  4.329  19.1786
  4.325  19.1683
  4.321  19.2507
  4.318  19.3022
  4.314  19.2507
  4.311  19.2816
  4.307  19.3125
  4.304  19.3331
  4.300  19.3537
  4.296  19.4155
  4.293  19.4258
  4.289  19.3949
  4.286  19.3331
  4.282  19.3537
  4.279  19.2610
  4.275  19.2507
  4.272  19.1683
  4.268  19.0756
  4.265  19.0138
  4.261  19.1683
  4.258  19.3228
  4.254  19.4773
  4.251  19.6112
  4.247  19.7760
  4.244  19.8584
  4.240  19.9511
  4.237  19.9511
  4.233  19.9511
  4.230  19.9717
  4.226  20.0850
  4.223  20.1056
  4.219  20.0850
  4.216  20.1365
  4.213  20.1468
  4.209  20.0438
  4.206  20.0644
  4.202  20.0850
  4.199  20.1159
  4.196  20.1468
  4.192  20.1365
  4.189  20.1468
  4.185  20.2189
  4.182  20.1880
  4.179  20.2086
  4.175  20.2910
  4.172  20.3734
  4.169  20.4352
  4.165  20.4867
  4.162  20.4455
  4.159  20.5073
  4.155  20.6206
  4.152  20.5691
  4.149  20.5176
  4.145  20.5382
  4.142  20.5794
  4.139  20.6206
  4.135  20.5897
  4.132  20.6618
  4.129  20.7339
  4.126  20.7648
  4.122  20.7339
  4.119  20.7854
  4.116  20.8060
  4.112  20.8781
  4.109  20.9708
  4.106  21.0635
  4.103  21.0223
  4.099  21.0326
  4.096  21.0429
  4.093  21.0120
  4.090  20.9914
  4.086  21.0223
  4.083  21.1253
  4.080  21.1562
  4.077  21.0944
  4.074  21.1253
  4.070  21.2077
  4.067  21.2180
  4.064  21.1356
  4.061  21.1768
  4.058  21.1768
  4.055  21.2180
  4.051  21.2592
  4.048  21.2283
  4.045  21.1356
  4.042  21.1356
  4.039  21.1665
  4.036  21.2798
  4.032  21.2386
  4.029  21.1871
  4.026  21.1459
  4.023  21.1253
  4.020  21.0635
  4.017  21.0017
  4.014  20.8678
  4.011  20.8575
  4.008  20.8987
  4.004  20.9708
  4.001  21.0326
  3.998  21.1047
  3.995  21.0532
  3.992  20.9811
  3.989  20.9708
  3.986  21.0223
  3.983  20.9399
  3.980  21.0120
  3.977  21.1356
  3.974  21.1562
  3.971  21.0944
  3.968  21.0738
  3.965  21.0841
  3.962  21.1459
  3.959  21.1356
  3.956  21.1253
  3.953  21.0429
  3.950  21.0532
  3.947  21.1047
  3.944  21.0944
  3.941  21.1356
  3.938  21.2283
  3.935  21.1974
  3.932  21.2077
  3.929  21.2180
  3.926  21.2283
  3.923  21.2180
  3.920  21.1665
  3.917  21.1253
  3.914  21.1974
  3.911  21.1768
  3.908  21.1459
  3.905  21.1356
  3.902  21.1356
  3.899  21.0223
  3.896  20.9193
  3.893  20.8575
  3.890  20.9296
  3.887  20.9811
  3.884  21.0120
  3.882  20.9296
  3.879  20.9090
  3.876  20.9090
  3.873  20.8472
  3.870  20.6927
  3.867  20.7133
  3.864  20.7339
  3.861  20.7751
  3.858  20.7957
  3.856  20.7133
  3.853  20.6618
  3.850  20.7133
  3.847  20.6721
  3.844  20.5073
  3.841  20.4558
  3.838  20.5485
  3.836  20.5279
  3.833  20.5485
  3.830  20.4558
  3.827  20.3940
  3.824  20.3425
  3.822  20.3837
  3.819  20.4352
  3.816  20.4558
  3.813  20.3837
  3.810  20.4146
  3.807  20.3837
  3.805  20.3116
  3.802  20.2704
  3.799  20.2601
  3.796  20.1674
  3.794  20.0747
  3.791  20.0335
  3.788  20.0850
  3.785  20.0335
  3.782  19.9820
  3.780  19.9099
  3.777  19.9305
  3.774  19.8275
  3.771  19.7863
  3.769  19.7863
  3.766  19.7863
  3.763  19.7245
  3.761  19.6936
  3.758  19.6112
  3.755  19.5700
  3.752  19.5494
  3.750  19.5185
  3.747  19.3331
  3.744  19.3434
  3.742  19.2919
  3.739  19.2404
  3.736  19.1477
  3.733  19.0962
  3.731  19.0550
  3.728  18.9726
  3.725  18.8696
  3.723  18.9314
  3.720  18.9520
  3.717  18.8593
  3.715  18.7254
  3.712  18.7872
  3.709  18.7666
  3.707  18.6842
  3.704  18.6018
  3.702  18.6636
  3.699  18.6636
  3.696  18.6533
  3.694  18.6327
  3.691  18.5606
  3.688  18.4885
  3.686  18.5091
  3.683  18.4267
  3.680  18.3855
  3.678  18.2825
  3.675  18.3340
  3.673  18.2516
  3.670  18.1692
  3.667  18.1898
  3.665  18.2413
  3.662  18.1177
  3.660  18.0250
  3.657  17.9941
  3.655  17.9941
  3.652  17.8705
  3.649  17.7778
  3.647  17.7366
  3.644  17.7572
  3.642  17.6542
  3.639  17.6336
  3.637  17.6233
  3.634  17.5615
  3.632  17.4894
  3.629  17.4482
  3.626  17.3864
  3.624  17.3349
  3.621  17.2010
  3.619  17.2216
  3.616  17.0774
  3.614  16.9641
  3.611  16.9744
  3.609  16.9538
  3.606  16.7787
  3.604  16.6654
  3.601  16.6551
  3.599  16.6345
  3.596  16.4903
  3.594  16.4388
  3.591  16.3770
  3.589  16.3152
  3.586  16.3049
  3.584  16.2225
