Name: Basalt
Type: Rock
Class: Igneous
Subclass: Mafic
Particle Size: Whole rock chips
Sample No.: Me28
Owner: Lawrence Rowan, USGS Reston
Wavelength range: 0.40 - 14.05 um
Origin: K. Ata, Middle East

Description: Basalt, cut surface, base fragment of basalt vessel





Measurement: Directional Hemispherical Reflectance
First Column: X
Second Column: Y
X Units: Wavelength (micrometers)
Y Units: Reflectance (percent)
First X Value: 14.05105
Last X Value: 0.40000
Number of X Values: 2231
Additional Information: me28a.txt

 14.051   3.1724
 14.013   3.1724
 13.975   3.2651
 13.938   3.0488
 13.900   2.9664
 13.863   2.8634
 13.826   3.1724
 13.790   3.1003
 13.753   3.1106
 13.717   3.0282
 13.680   3.1930
 13.644   3.2033
 13.609   3.2754
 13.573   3.2136
 13.538   3.2754
 13.502   3.2239
 13.467   3.3166
 13.432   3.2651
 13.398   3.2651
 13.363   3.2033
 13.329   3.2651
 13.295   3.2445
 13.261   3.3269
 13.227   3.3269
 13.193   3.3681
 13.160   3.3269
 13.126   3.4093
 13.093   3.3063
 13.060   3.3269
 13.027   3.3681
 12.995   3.4505
 12.962   3.3681
 12.930   3.2754
 12.898   3.2960
 12.866   3.4711
 12.834   3.4505
 12.802   3.4299
 12.771   3.3578
 12.739   3.5432
 12.708   3.5432
 12.677   3.5329
 12.646   3.4814
 12.616   3.5741
 12.585   3.6256
 12.554   3.7286
 12.524   3.6462
 12.494   3.6668
 12.464   3.6977
 12.434   3.9140
 12.404   3.9243
 12.375   3.9964
 12.345   4.0067
 12.316   4.1715
 12.287   4.2436
 12.258   4.3672
 12.229   4.4805
 12.200   4.5835
 12.171   4.5629
 12.143   4.7586
 12.115   4.7586
 12.086   4.8204
 12.058   4.8410
 12.030   5.0161
 12.002   5.1397
 11.975   5.2015
 11.947   5.1809
 11.920   5.2839
 11.892   5.3354
 11.865   5.3972
 11.838   5.4899
 11.811   5.6547
 11.784   5.6959
 11.757   5.8607
 11.731   5.9534
 11.704   6.1182
 11.678   6.2521
 11.652   6.4890
 11.626   6.5302
 11.600   6.5817
 11.574   6.6229
 11.548   6.8289
 11.522   7.0143
 11.497   7.3336
 11.471   7.3233
 11.446   7.3542
 11.421   7.3954
 11.396   7.5499
 11.371   7.7662
 11.346   8.0237
 11.321   8.0443
 11.297   8.1885
 11.272   8.3121
 11.248   8.4254
 11.223   8.4769
 11.199   8.6417
 11.175   8.7550
 11.151   8.7859
 11.127   8.7241
 11.103   8.8477
 11.079   8.9198
 11.056   8.9919
 11.032   9.1052
 11.009   9.1670
 10.985   9.1155
 10.962   9.1979
 10.939   9.2288
 10.916   9.3524
 10.893   9.3421
 10.870   9.3215
 10.848   9.2803
 10.825   9.3730
 10.802   9.3730
 10.780   9.3318
 10.758   9.2494
 10.735   9.3112
 10.713   9.2391
 10.691   9.1361
 10.669   9.0022
 10.647   8.9816
 10.625   8.8992
 10.604   8.8580
 10.582   8.7859
 10.560   8.7550
 10.539   8.6314
 10.518   8.6314
 10.496   8.6108
 10.475   8.6623
 10.454   8.7550
 10.433   8.9095
 10.412   8.8374
 10.391   8.8477
 10.370   8.8580
 10.350   8.8477
 10.329   8.7241
 10.309   8.6726
 10.288   8.5799
 10.268   8.5593
 10.247   8.5181
 10.227   8.5490
 10.207   8.5078
 10.187   8.4563
 10.167   8.3121
 10.147   8.2915
 10.127   8.3018
 10.108   8.3842
 10.088   8.4151
 10.068   8.4975
 10.049   8.4048
 10.029   8.5181
 10.010   8.6314
  9.991   8.7241
  9.972   8.7138
  9.952   8.7035
  9.933   8.6726
  9.914   8.7344
  9.895   8.7138
  9.877   8.7756
  9.858   8.7344
  9.839   8.7859
  9.821   8.7859
  9.802   8.7653
  9.783   8.6829
  9.765   8.7859
  9.747   8.7756
  9.728   8.7653
  9.710   8.6932
  9.692   8.6417
  9.674   8.5902
  9.656   8.5490
  9.638   8.4872
  9.620   8.5181
  9.602   8.4975
  9.585   8.5696
  9.567   8.4357
  9.549   8.3533
  9.532   8.2915
  9.514   8.3121
  9.497   8.1679
  9.479   8.0340
  9.462   8.0443
  9.445   8.1679
  9.428   8.0649
  9.411   7.9928
  9.394   7.9310
  9.377   7.9516
  9.360   7.8280
  9.343   7.8280
  9.326   7.7662
  9.309   7.7250
  9.293   7.6735
  9.276   7.6941
  9.259   7.5602
  9.243   7.4984
  9.226   7.5190
  9.210   7.4778
  9.194   7.3645
  9.178   7.4881
  9.161   7.5190
  9.145   7.5087
  9.129   7.4984
  9.113   7.6014
  9.097   7.5087
  9.081   7.5087
  9.065   7.5293
  9.049   7.5705
  9.034   7.5396
  9.018   7.5499
  9.002   7.4675
  8.987   7.4984
  8.971   7.4572
  8.956   7.4263
  8.940   7.3542
  8.925   7.2924
  8.909   7.1070
  8.894   7.1379
  8.879   7.1070
  8.864   7.0143
  8.849   6.7774
  8.834   6.7053
  8.819   6.5302
  8.804   6.4581
  8.789   6.3139
  8.774   6.2418
  8.759   6.1388
  8.744   6.0255
  8.730   5.9740
  8.715   6.0358
  8.700   5.9843
  8.686   6.0049
  8.671   5.9431
  8.657   5.8916
  8.642   5.8092
  8.628   5.7474
  8.614   5.7062
  8.599   5.7371
  8.585   5.7062
  8.571   5.6959
  8.557   5.6753
  8.543   5.6444
  8.529   5.5826
  8.515   5.6135
  8.501   5.5414
  8.487   5.5826
  8.473   5.5517
  8.459   5.5723
  8.445   5.5002
  8.431   5.5105
  8.418   5.4899
  8.404   5.4178
  8.391   5.2942
  8.377   5.2736
  8.363   5.1294
  8.350   4.9955
  8.337   4.8307
  8.323   4.7483
  8.310   4.5938
  8.297   4.3672
  8.283   4.1509
  8.270   3.9861
  8.257   3.6977
  8.244   3.5741
  8.231   3.3166
  8.218   3.0488
  8.205   2.8325
  8.192   2.7089
  8.179   2.5235
  8.166   2.3793
  8.153   2.2557
  8.140   2.1424
  8.128   2.0394
  8.115   1.9776
  8.102   1.7922
  8.090   1.7613
  8.077   1.7098
  8.064   1.6789
  8.052   1.6789
  8.039   1.7098
  8.027   1.6274
  8.015   1.6068
  8.002   1.5965
  7.990   1.5862
  7.978   1.5656
  7.965   1.5759
  7.953   1.5450
  7.941   1.5656
  7.929   1.5862
  7.917   1.6171
  7.905   1.5141
  7.893   1.5450
  7.881   1.5965
  7.869   1.6068
  7.857   1.5759
  7.845   1.6274
  7.833   1.5244
  7.821   1.4832
  7.809   1.5553
  7.798   1.6068
  7.786   1.6480
  7.774   1.7201
  7.763   1.6274
  7.751   1.6068
  7.739   1.6583
  7.728   1.7407
  7.716   1.7407
  7.705   1.7304
  7.694   1.6892
  7.682   1.6892
  7.671   1.6995
  7.659   1.7510
  7.648   1.7201
  7.637   1.7304
  7.626   1.7819
  7.614   1.8231
  7.603   1.7407
  7.592   1.7613
  7.581   1.7922
  7.570   1.8643
  7.559   1.8128
  7.548   1.8849
  7.537   1.9673
  7.526   1.9055
  7.515   1.8746
  7.504   1.9982
  7.493   1.9982
  7.483   1.9982
  7.472   2.0394
  7.461   2.0600
  7.450   2.0188
  7.440   2.0291
  7.429   1.9879
  7.418   2.0600
  7.408   2.1218
  7.397   2.1218
  7.387   2.0497
  7.376   2.1012
  7.366   2.1115
  7.355   2.0806
  7.345   2.1218
  7.334   2.2248
  7.324   2.1939
  7.314   2.2145
  7.303   2.2557
  7.293   2.2969
  7.283   2.2557
  7.273   2.2763
  7.263   2.1939
  7.252   2.1836
  7.242   2.2454
  7.232   2.3381
  7.222   2.2866
  7.212   2.2660
  7.202   2.2763
  7.192   2.3175
  7.182   2.2660
  7.172   2.2351
  7.162   2.2660
  7.152   2.3587
  7.143   2.3587
  7.133   2.4205
  7.123   2.4411
  7.113   2.4926
  7.103   2.4720
  7.094   2.4514
  7.084   2.4411
  7.074   2.5029
  7.065   2.4926
  7.055   2.4823
  7.046   2.4617
  7.036   2.4926
  7.026   2.4720
  7.017   2.5235
  7.007   2.5235
  6.998   2.5338
  6.989   2.5338
  6.979   2.6059
  6.970   2.6059
  6.960   2.5750
  6.951   2.5338
  6.942   2.5441
  6.932   2.5956
  6.923   2.6677
  6.914   2.5956
  6.905   2.5235
  6.896   2.5132
  6.886   2.6162
  6.877   2.6677
  6.868   2.6780
  6.859   2.6986
  6.850   2.7089
  6.841   2.6883
  6.832   2.7089
  6.823   2.6780
  6.814   2.7295
  6.805   2.7295
  6.796   2.7707
  6.787   2.7501
  6.778   2.7089
  6.770   2.6574
  6.761   2.6368
  6.752   2.6574
  6.743   2.7501
  6.734   2.7604
  6.726   2.7810
  6.717   2.8119
  6.708   2.8428
  6.700   2.8222
  6.691   2.8016
  6.682   2.7707
  6.674   2.8016
  6.665   2.7913
  6.657   2.8222
  6.648   2.8634
  6.640   2.8737
  6.631   2.8016
  6.623   2.8222
  6.614   2.9046
  6.606   2.9458
  6.597   2.8943
  6.589   2.8737
  6.581   2.9046
  6.572   2.8943
  6.564   2.8119
  6.556   2.8737
  6.547   2.9252
  6.539   2.9252
  6.531   2.9046
  6.523   2.9561
  6.514   2.9252
  6.506   2.9046
  6.498   2.9355
  6.490   2.9767
  6.482   2.9355
  6.474   2.9046
  6.466   2.9149
  6.458   2.9458
  6.450   2.9149
  6.442   2.9664
  6.434   2.9252
  6.426   2.9149
  6.418   2.9870
  6.410   3.0591
  6.402   3.0385
  6.394   2.9767
  6.386   2.9252
  6.378   2.9561
  6.370   2.9561
  6.363   2.9561
  6.355   2.9252
  6.347   2.9355
  6.339   2.9458
  6.332   2.9149
  6.324   2.9149
  6.316   2.9458
  6.308   2.9561
  6.301   2.9561
  6.293   2.8943
  6.286   2.9149
  6.278   3.0076
  6.270   3.0385
  6.263   2.9973
  6.255   2.9664
  6.248   2.9252
  6.240   2.9252
  6.233   2.9252
  6.225   2.9561
  6.218   2.9252
  6.210   2.9458
  6.203   2.9355
  6.195   2.9870
  6.188   2.9870
  6.181   2.9664
  6.173   2.8840
  6.166   2.8428
  6.159   2.8531
  6.151   2.8634
  6.144   2.8531
  6.137   2.8634
  6.130   2.8119
  6.122   2.7913
  6.115   2.7913
  6.108   2.8325
  6.101   2.8119
  6.094   2.8016
  6.086   2.7810
  6.079   2.8325
  6.072   2.8943
  6.065   2.9561
  6.058   2.8943
  6.051   2.8737
  6.044   2.9149
  6.037   2.9870
  6.030   2.9870
  6.023   2.9664
  6.016   2.9458
  6.009   2.9355
  6.002   2.9252
  5.995   2.9561
  5.988   2.9973
  5.981   3.0076
  5.974   3.0179
  5.967   3.0797
  5.960   3.0900
  5.954   3.0797
  5.947   3.1106
  5.940   3.1827
  5.933   3.2033
  5.926   3.1724
  5.920   3.1827
  5.913   3.2548
  5.906   3.2960
  5.899   3.3166
  5.893   3.3269
  5.886   3.4196
  5.879   3.4402
  5.873   3.4402
  5.866   3.4505
  5.859   3.4402
  5.853   3.4093
  5.846   3.4814
  5.840   3.5123
  5.833   3.5535
  5.827   3.5638
  5.820   3.5329
  5.813   3.6153
  5.807   3.5947
  5.800   3.5329
  5.794   3.5329
  5.788   3.5226
  5.781   3.5947
  5.775   3.6771
  5.768   3.7080
  5.762   3.7286
  5.755   3.7080
  5.749   3.6565
  5.743   3.6668
  5.736   3.6771
  5.730   3.6874
  5.724   3.6771
  5.717   3.6874
  5.711   3.6874
  5.705   3.7286
  5.698   3.7801
  5.692   3.8213
  5.686   3.8213
  5.680   3.8522
  5.674   3.8934
  5.667   3.8625
  5.661   3.8007
  5.655   3.8316
  5.649   3.8831
  5.643   3.8934
  5.637   3.8831
  5.630   3.9037
  5.624   3.9140
  5.618   3.9037
  5.612   3.8728
  5.606   3.9243
  5.600   3.8934
  5.594   3.9037
  5.588   3.9552
  5.582   3.9346
  5.576   3.9037
  5.570   3.9552
  5.564   3.9655
  5.558   3.9758
  5.552   3.9964
  5.546   4.0170
  5.540   4.0273
  5.534   4.0479
  5.528   4.0788
  5.523   4.0788
  5.517   4.0891
  5.511   4.0994
  5.505   4.0994
  5.499   4.1303
  5.493   4.1509
  5.487   4.1303
  5.482   4.1406
  5.476   4.1921
  5.470   4.1715
  5.464   4.1921
  5.459   4.2436
  5.453   4.2539
  5.447   4.2333
  5.441   4.2539
  5.436   4.2333
  5.430   4.2024
  5.424   4.2539
  5.419   4.3363
  5.413   4.3466
  5.407   4.3157
  5.402   4.3054
  5.396   4.3054
  5.390   4.3054
  5.385   4.3466
  5.379   4.3775
  5.374   4.4084
  5.368   4.4290
  5.363   4.4393
  5.357   4.4290
  5.352   4.4702
  5.346   4.4805
  5.341   4.4599
  5.335   4.4290
  5.330   4.4496
  5.324   4.5114
  5.319   4.5011
  5.313   4.5011
  5.308   4.5114
  5.302   4.5320
  5.297   4.5629
  5.291   4.5217
  5.286   4.5423
  5.281   4.5732
  5.275   4.5835
  5.270   4.5835
  5.265   4.6453
  5.259   4.7071
  5.254   4.7174
  5.249   4.6659
  5.243   4.6762
  5.238   4.7277
  5.233   4.7277
  5.227   4.7483
  5.222   4.7586
  5.217   4.7380
  5.212   4.7174
  5.206   4.7380
  5.201   4.7895
  5.196   4.7998
  5.191   4.8307
  5.186   4.8616
  5.180   4.9028
  5.175   4.9234
  5.170   4.9234
  5.165   4.9131
  5.160   4.9131
  5.155   4.9852
  5.150   5.0573
  5.145   5.0470
  5.139   5.0161
  5.134   5.0264
  5.129   5.0161
  5.124   5.0264
  5.119   5.0161
  5.114   4.9852
  5.109   5.0367
  5.104   5.1191
  5.099   5.1500
  5.094   5.1706
  5.089   5.1603
  5.084   5.1397
  5.079   5.1912
  5.074   5.1706
  5.069   5.1809
  5.064   5.2427
  5.059   5.2633
  5.054   5.3148
  5.049   5.3663
  5.044   5.3560
  5.040   5.3354
  5.035   5.3457
  5.030   5.3560
  5.025   5.3766
  5.020   5.3972
  5.015   5.4075
  5.010   5.3766
  5.005   5.3972
  5.001   5.4590
  4.996   5.4899
  4.991   5.4693
  4.986   5.4796
  4.981   5.5208
  4.977   5.5311
  4.972   5.5517
  4.967   5.5826
  4.962   5.6135
  4.958   5.5929
  4.953   5.5929
  4.948   5.6032
  4.943   5.6547
  4.939   5.7165
  4.934   5.7268
  4.929   5.7165
  4.925   5.6959
  4.920   5.7577
  4.915   5.7886
  4.911   5.7474
  4.906   5.7989
  4.901   5.8504
  4.897   5.8298
  4.892   5.7886
  4.888   5.8298
  4.883   5.9019
  4.878   5.9225
  4.874   5.8813
  4.869   5.8195
  4.865   5.8504
  4.860   5.9225
  4.856   5.9431
  4.851   5.9431
  4.846   5.9843
  4.842   6.0770
  4.837   6.1285
  4.833   6.0770
  4.828   6.0049
  4.824   5.9946
  4.819   6.0358
  4.815   6.0770
  4.810   6.0770
  4.806   6.0667
  4.802   6.1388
  4.797   6.1285
  4.793   6.1182
  4.788   6.1800
  4.784   6.1903
  4.779   6.1285
  4.775   6.1388
  4.771   6.2521
  4.766   6.2727
  4.762   6.2830
  4.758   6.3036
  4.753   6.3345
  4.749   6.3036
  4.744   6.2933
  4.740   6.3242
  4.736   6.3448
  4.731   6.3654
  4.727   6.3757
  4.723   6.3654
  4.719   6.4066
  4.714   6.4581
  4.710   6.4684
  4.706   6.4375
  4.701   6.4478
  4.697   6.4787
  4.693   6.5302
  4.689   6.5920
  4.684   6.5714
  4.680   6.5611
  4.676   6.5405
  4.672   6.5714
  4.668   6.6538
  4.663   6.6538
  4.659   6.6332
  4.655   6.6950
  4.651   6.7568
  4.647   6.7568
  4.643   6.7980
  4.638   6.7980
  4.634   6.8083
  4.630   6.8083
  4.626   6.8598
  4.622   6.9113
  4.618   6.9319
  4.614   6.9010
  4.610   6.9216
  4.605   6.9319
  4.601   6.9731
  4.597   7.0246
  4.593   7.0349
  4.589   7.0864
  4.585   7.1276
  4.581   7.1379
  4.577   7.0864
  4.573   7.1070
  4.569   7.2203
  4.565   7.3027
  4.561   7.2924
  4.557   7.3027
  4.553   7.2924
  4.549   7.2924
  4.545   7.3130
  4.541   7.3439
  4.537   7.3542
  4.533   7.3542
  4.529   7.4366
  4.525   7.4675
  4.521   7.4469
  4.517   7.4469
  4.513   7.5087
  4.509   7.5808
  4.505   7.6117
  4.502   7.7250
  4.498   7.7044
  4.494   7.6529
  4.490   7.6735
  4.486   7.7147
  4.482   7.6838
  4.478   7.6735
  4.474   7.6838
  4.470   7.7044
  4.467   7.7353
  4.463   7.7559
  4.459   7.8074
  4.455   7.8177
  4.451   7.8692
  4.447   7.9001
  4.444   7.9207
  4.440   7.9104
  4.436   7.8589
  4.432   7.9516
  4.428   8.0134
  4.425   8.0134
  4.421   8.0649
  4.417   8.0649
  4.413   8.0237
  4.410   8.1164
  4.406   8.1164
  4.402   8.0752
  4.398   8.1782
  4.395   8.2606
  4.391   8.2194
  4.387   8.2503
  4.384   8.2812
  4.380   8.2400
  4.376   8.2915
  4.372   8.3842
  4.369   8.3533
  4.365   8.3945
  4.361   8.3842
  4.358   8.3945
  4.354   8.3327
  4.350   8.3430
  4.347   8.4460
  4.343   8.4254
  4.340   8.4254
  4.336   8.4975
  4.332   8.5284
  4.329   8.5799
  4.325   8.5902
  4.321   8.6314
  4.318   8.6726
  4.314   8.7241
  4.311   8.7241
  4.307   8.7653
  4.304   8.7653
  4.300   8.7344
  4.296   8.7550
  4.293   8.8168
  4.289   8.8786
  4.286   8.9198
  4.282   8.9713
  4.279   8.9919
  4.275   8.9919
  4.272   8.9919
  4.268   9.0022
  4.265   8.9610
  4.261   8.9198
  4.258   9.0125
  4.254   9.0125
  4.251   9.0228
  4.247   9.0434
  4.244   9.0743
  4.240   9.1979
  4.237   9.2906
  4.233   9.3009
  4.230   9.3524
  4.226   9.3524
  4.223   9.3009
  4.219   9.2803
  4.216   9.3112
  4.213   9.2597
  4.209   9.2082
  4.206   9.2494
  4.202   9.3009
  4.199   9.3112
  4.196   9.3421
  4.192   9.3730
  4.189   9.3627
  4.185   9.3215
  4.182   9.2906
  4.179   9.3112
  4.175   9.3627
  4.172   9.3936
  4.169   9.4554
  4.165   9.4039
  4.162   9.3730
  4.159   9.3833
  4.155   9.4760
  4.152   9.5378
  4.149   9.5790
  4.145   9.4863
  4.142   9.4245
  4.139   9.4760
  4.135   9.5275
  4.132   9.5481
  4.129   9.6099
  4.126   9.6099
  4.122   9.5996
  4.119   9.5172
  4.116   9.5584
  4.112   9.5996
  4.109   9.6614
  4.106   9.6408
  4.103   9.6614
  4.099   9.6305
  4.096   9.6511
  4.093   9.7026
  4.090   9.7129
  4.086   9.6923
  4.083   9.7335
  4.080   9.8159
  4.077   9.9189
  4.074   9.9189
  4.070   9.8365
  4.067   9.7953
  4.064   9.8365
  4.061   9.8056
  4.058   9.8262
  4.055   9.8983
  4.051   9.9807
  4.048   9.9395
  4.045   9.8880
  4.042   9.9910
  4.039   9.9910
  4.036   9.9807
  4.032  10.0116
  4.029   9.9704
  4.026   9.9601
  4.023  10.0425
  4.020  10.0940
  4.017  10.0734
  4.014  10.0322
  4.011   9.9910
  4.008   9.9498
  4.004   9.9498
  4.001  10.0219
  3.998  10.0322
  3.995  10.0219
  3.992  10.0219
  3.989  10.0528
  3.986   9.9807
  3.983   9.9910
  3.980  10.0528
  3.977  10.0837
  3.974  10.0219
  3.971  10.0013
  3.968  10.0528
  3.965  10.1455
  3.962  10.2073
  3.959  10.2279
  3.956  10.2073
  3.953  10.1661
  3.950  10.1455
  3.947  10.2382
  3.944  10.1867
  3.941  10.2176
  3.938  10.2588
  3.935  10.2382
  3.932  10.2794
  3.929  10.2897
  3.926  10.1764
  3.923  10.2382
  3.920  10.2485
  3.917  10.1661
  3.914  10.1867
  3.911  10.3618
  3.908  10.3515
  3.905  10.2485
  3.902  10.2794
  3.899  10.4030
  3.896  10.3515
  3.893  10.3206
  3.890  10.3206
  3.887  10.3309
  3.884  10.4545
  3.882  10.5266
  3.879  10.3618
  3.876  10.3515
  3.873  10.3206
  3.870  10.2279
  3.867  10.2485
  3.864  10.4339
  3.861  10.4545
  3.858  10.3927
  3.856  10.3927
  3.853  10.4030
  3.850  10.3824
  3.847  10.3515
  3.844  10.3206
  3.841  10.4339
  3.838  10.3824
  3.836  10.3824
  3.833  10.4030
  3.830  10.4236
  3.827  10.4133
  3.824  10.4957
  3.822  10.5472
  3.819  10.5472
  3.816  10.4751
  3.813  10.4545
  3.810  10.4648
  3.807  10.5266
  3.805  10.5472
  3.802  10.5369
  3.799  10.4442
  3.796  10.4442
  3.794  10.4339
  3.791  10.4442
  3.788  10.5266
  3.785  10.5369
  3.782  10.4648
  3.780  10.4957
  3.777  10.4854
  3.774  10.4854
  3.771  10.5060
  3.769  10.5060
  3.766  10.4236
  3.763  10.3721
  3.761  10.4442
  3.758  10.5060
  3.755  10.4545
  3.752  10.3927
  3.750  10.3824
  3.747  10.4339
  3.744  10.5060
  3.742  10.4442
  3.739  10.3309
  3.736  10.3000
  3.733  10.2897
  3.731  10.3309
  3.728  10.3515
  3.725  10.4339
  3.723  10.4030
  3.720  10.3412
  3.717  10.3000
  3.715  10.2691
  3.712  10.2794
  3.709  10.3309
  3.707  10.3103
  3.704  10.3309
  3.702  10.3103
  3.699  10.2176
  3.696  10.1455
  3.694  10.1249
  3.691  10.1867
  3.688  10.3206
  3.686  10.3000
  3.683  10.1867
  3.680  10.1146
  3.678  10.1970
  3.675  10.1867
  3.673  10.1352
  3.670  10.1558
  3.667  10.1970
  3.665  10.2382
  3.662  10.1764
  3.660  10.0940
  3.657  10.1249
  3.655  10.0940
  3.652  10.0631
  3.649  10.0219
  3.647  10.0322
  3.644  10.0425
  3.642  10.0940
  3.639  10.0734
  3.637  10.0734
  3.634  10.0425
  3.632   9.9807
  3.629   9.9601
  3.626  10.0013
  3.624  10.0322
  3.621  10.0013
  3.619   9.9807
  3.616  10.0013
  3.614  10.0013
  3.611   9.9601
  3.609   9.9292
  3.606   9.9189
  3.604   9.8365
  3.601   9.8056
  3.599   9.7541
  3.596   9.8159
  3.594   9.7747
  3.591   9.7644
  3.589   9.7850
  3.586   9.7747
  3.584   9.7541
  3.581   9.7438
