Name: Basalt
Type: Rock
Class: Igneous
Subclass: Mafic
Particle Size: Whole rock chips
Sample No.: Me16b
Owner: Lawrence Rowan, USGS Reston
Wavelength range: 0.40 - 14.05 um
Origin: El Hammah, Middle East

Description: Basalt, fresh surface





Measurement: Directional Hemispherical Reflectance
First Column: X
Second Column: Y
X Units: Wavelength (micrometers)
Y Units: Reflectance (percent)
First X Value: 14.05105
Last X Value: 0.40000
Number of X Values: 2231
Additional Information: me16ba.txt

 14.051   3.9449
 14.013   3.6977
 13.975   3.7080
 13.938   3.5020
 13.900   3.6874
 13.863   3.7904
 13.826   3.6977
 13.790   3.6359
 13.753   3.8522
 13.717   3.6874
 13.680   3.7080
 13.644   3.6977
 13.609   3.7698
 13.573   3.6977
 13.538   3.8007
 13.502   3.7492
 13.467   3.7492
 13.432   3.7080
 13.398   3.7801
 13.363   3.6668
 13.329   3.6668
 13.295   3.6359
 13.261   3.7492
 13.227   3.7286
 13.193   3.7595
 13.160   3.6977
 13.126   3.7389
 13.093   3.6874
 13.060   3.8007
 13.027   3.7801
 12.995   3.8316
 12.962   3.8419
 12.930   3.9140
 12.898   3.8007
 12.866   3.8419
 12.834   3.8728
 12.802   4.0376
 12.771   3.9964
 12.739   3.9346
 12.708   3.8934
 12.677   3.9861
 12.646   3.9861
 12.616   4.0685
 12.585   4.0582
 12.554   4.0376
 12.524   4.0170
 12.494   4.1509
 12.464   4.1509
 12.434   4.2848
 12.404   4.3466
 12.375   4.4599
 12.345   4.4393
 12.316   4.5423
 12.287   4.6659
 12.258   4.8307
 12.229   4.9131
 12.200   5.0882
 12.171   5.1706
 12.143   5.3045
 12.115   5.3045
 12.086   5.3148
 12.058   5.3560
 12.030   5.5414
 12.002   5.6135
 11.975   5.8195
 11.947   5.9019
 11.920   5.9843
 11.892   5.9946
 11.865   5.9843
 11.838   5.9019
 11.811   6.0873
 11.784   6.2315
 11.757   6.3551
 11.731   6.4581
 11.704   6.6641
 11.678   6.7465
 11.652   6.9525
 11.626   7.0452
 11.600   7.1997
 11.574   7.2924
 11.548   7.4366
 11.522   7.5293
 11.497   7.7971
 11.471   7.9619
 11.446   8.1370
 11.421   8.2606
 11.396   8.4769
 11.371   8.6211
 11.346   8.9404
 11.321   9.0640
 11.297   9.1361
 11.272   9.1052
 11.248   9.1979
 11.223   9.2082
 11.199   9.3524
 11.175   9.4348
 11.151   9.5996
 11.127   9.7438
 11.103   9.8983
 11.079   9.9292
 11.056  10.0322
 11.032  10.0322
 11.009  10.1661
 10.985  10.3309
 10.962  10.4854
 10.939  10.5369
 10.916  10.6605
 10.893  10.6708
 10.870  10.7635
 10.848  10.8562
 10.825  10.9592
 10.802  10.9489
 10.780  11.0416
 10.758  11.0931
 10.735  11.1961
 10.713  11.1137
 10.691  11.1343
 10.669  11.1446
 10.647  11.1343
 10.625  11.2167
 10.604  11.3815
 10.582  11.3712
 10.560  11.3506
 10.539  11.2270
 10.518  11.1549
 10.496  11.1137
 10.475  11.1137
 10.454  11.0828
 10.433  11.2373
 10.412  11.3918
 10.391  11.4948
 10.370  11.5463
 10.350  11.6390
 10.329  11.6802
 10.309  11.7626
 10.288  11.8553
 10.268  12.0304
 10.247  12.0613
 10.227  12.1540
 10.207  12.1437
 10.187  12.0304
 10.167  11.9377
 10.147  12.0407
 10.127  12.0510
 10.108  12.0304
 10.088  12.0510
 10.068  12.1334
 10.049  12.2467
 10.029  12.4424
 10.010  12.4733
  9.991  12.5557
  9.972  12.6175
  9.952  12.7617
  9.933  12.8235
  9.914  12.8544
  9.895  12.8956
  9.877  13.0707
  9.858  13.1531
  9.839  13.1016
  9.821  12.9883
  9.802  13.1016
  9.783  13.1531
  9.765  13.1428
  9.747  13.1325
  9.728  13.1943
  9.710  13.1428
  9.692  13.1531
  9.674  13.1428
  9.656  13.1531
  9.638  13.1016
  9.620  13.1840
  9.602  13.1222
  9.585  13.0295
  9.567  12.8441
  9.549  12.7514
  9.532  12.6999
  9.514  12.7102
  9.497  12.5454
  9.479  12.3188
  9.462  12.0819
  9.445  12.1025
  9.428  12.1025
  9.411  11.9377
  9.394  11.6184
  9.377  11.3815
  9.360  11.1652
  9.343  11.0004
  9.326  10.8356
  9.309  10.6914
  9.293  10.4236
  9.276  10.3206
  9.259  10.2176
  9.243  10.0425
  9.226   9.8880
  9.210   9.8468
  9.194   9.7438
  9.178   9.7438
  9.161   9.8056
  9.145   9.8571
  9.129   9.8880
  9.113   9.9807
  9.097  10.0322
  9.081  10.1146
  9.065  10.0219
  9.049  10.0528
  9.034  10.0631
  9.018  10.0013
  9.002   9.8777
  8.987   9.8674
  8.971   9.7541
  8.956   9.6408
  8.940   9.5481
  8.925   9.5481
  8.909   9.5069
  8.894   9.4966
  8.879   9.3833
  8.864   9.2494
  8.849   9.0022
  8.834   8.8992
  8.819   8.7962
  8.804   8.7653
  8.789   8.6417
  8.774   8.6417
  8.759   8.5902
  8.744   8.4769
  8.730   8.3121
  8.715   8.3224
  8.700   8.2812
  8.686   8.2194
  8.671   8.0752
  8.657   8.0443
  8.642   7.9413
  8.628   7.9104
  8.614   7.8280
  8.599   7.7456
  8.585   7.5911
  8.571   7.5602
  8.557   7.4675
  8.543   7.3542
  8.529   7.3336
  8.515   7.2821
  8.501   7.1585
  8.487   7.2409
  8.473   7.2100
  8.459   7.1585
  8.445   7.0040
  8.431   6.8701
  8.418   6.8701
  8.404   6.8804
  8.391   6.7671
  8.377   6.6538
  8.363   6.5096
  8.350   6.4169
  8.337   6.3345
  8.323   6.2727
  8.310   6.0358
  8.297   5.8607
  8.283   5.6959
  8.270   5.5517
  8.257   5.3045
  8.244   5.0573
  8.231   4.8719
  8.218   4.7380
  8.205   4.5217
  8.192   4.4187
  8.179   4.2745
  8.166   4.2127
  8.153   4.0994
  8.140   4.0376
  8.128   3.8316
  8.115   3.7492
  8.102   3.7801
  8.090   3.7801
  8.077   3.7080
  8.064   3.6668
  8.052   3.6256
  8.039   3.6359
  8.027   3.6050
  8.015   3.5844
  8.002   3.4917
  7.990   3.3990
  7.978   3.3372
  7.965   3.3990
  7.953   3.4402
  7.941   3.4711
  7.929   3.4814
  7.917   3.5226
  7.905   3.5226
  7.893   3.5947
  7.881   3.5844
  7.869   3.5638
  7.857   3.5020
  7.845   3.5329
  7.833   3.5226
  7.821   3.5020
  7.809   3.5123
  7.798   3.5947
  7.786   3.6153
  7.774   3.6050
  7.763   3.5535
  7.751   3.6668
  7.739   3.6977
  7.728   3.6874
  7.716   3.6668
  7.705   3.6153
  7.694   3.6153
  7.682   3.7286
  7.671   3.7492
  7.659   3.6771
  7.648   3.6256
  7.637   3.6462
  7.626   3.6771
  7.614   3.7492
  7.603   3.7286
  7.592   3.7492
  7.581   3.7389
  7.570   3.7698
  7.559   3.7389
  7.548   3.7492
  7.537   3.7389
  7.526   3.7904
  7.515   3.7698
  7.504   3.7801
  7.493   3.7698
  7.483   3.7904
  7.472   3.8316
  7.461   3.8934
  7.450   3.9243
  7.440   3.9346
  7.429   3.9140
  7.418   3.9140
  7.408   3.8934
  7.397   3.8625
  7.387   3.8419
  7.376   3.9243
  7.366   3.9037
  7.355   3.8934
  7.345   3.9243
  7.334   3.9758
  7.324   3.9964
  7.314   4.1097
  7.303   4.1303
  7.293   4.0582
  7.283   3.9758
  7.273   3.9964
  7.263   3.9758
  7.252   3.9655
  7.242   4.0170
  7.232   4.0376
  7.222   3.9758
  7.212   4.0273
  7.202   4.0273
  7.192   4.0685
  7.182   4.0891
  7.172   4.1509
  7.162   4.1509
  7.152   4.1303
  7.143   4.1200
  7.133   4.1921
  7.123   4.1509
  7.113   4.1303
  7.103   4.1200
  7.094   4.2024
  7.084   4.2539
  7.074   4.1921
  7.065   4.1612
  7.055   4.1818
  7.046   4.1509
  7.036   4.2024
  7.026   4.2024
  7.017   4.2436
  7.007   4.2951
  6.998   4.2539
  6.989   4.1612
  6.979   4.2539
  6.970   4.2848
  6.960   4.2848
  6.951   4.2745
  6.942   4.2539
  6.932   4.2127
  6.923   4.2436
  6.914   4.3157
  6.905   4.3672
  6.896   4.3054
  6.886   4.3260
  6.877   4.3466
  6.868   4.2745
  6.859   4.1818
  6.850   4.2642
  6.841   4.3363
  6.832   4.3569
  6.823   4.3157
  6.814   4.2951
  6.805   4.2848
  6.796   4.2951
  6.787   4.2642
  6.778   4.2436
  6.770   4.2539
  6.761   4.3363
  6.752   4.3775
  6.743   4.4290
  6.734   4.3878
  6.726   4.3054
  6.717   4.2436
  6.708   4.2642
  6.700   4.2436
  6.691   4.2539
  6.682   4.2951
  6.674   4.3775
  6.665   4.3569
  6.657   4.3672
  6.648   4.3569
  6.640   4.3466
  6.631   4.3054
  6.623   4.3363
  6.614   4.3672
  6.606   4.4290
  6.597   4.4084
  6.589   4.3569
  6.581   4.3466
  6.572   4.4084
  6.564   4.4187
  6.556   4.3672
  6.547   4.3054
  6.539   4.3054
  6.531   4.3157
  6.523   4.3363
  6.514   4.3363
  6.506   4.3466
  6.498   4.3775
  6.490   4.3466
  6.482   4.2745
  6.474   4.3260
  6.466   4.3260
  6.458   4.2951
  6.450   4.2848
  6.442   4.2642
  6.434   4.2539
  6.426   4.2642
  6.418   4.2024
  6.410   4.1818
  6.402   4.1406
  6.394   4.1612
  6.386   4.1612
  6.378   4.1406
  6.370   4.0994
  6.363   4.0788
  6.355   4.0891
  6.347   4.1715
  6.339   4.1097
  6.332   4.0170
  6.324   3.9655
  6.316   4.0067
  6.308   4.0376
  6.301   4.0376
  6.293   4.0067
  6.286   3.9552
  6.278   3.9758
  6.270   4.0170
  6.263   3.9655
  6.255   3.9758
  6.248   3.9552
  6.240   3.9346
  6.233   3.9552
  6.225   3.9655
  6.218   3.9140
  6.210   3.8934
  6.203   3.8522
  6.195   3.8934
  6.188   3.9346
  6.181   3.9140
  6.173   3.8213
  6.166   3.7904
  6.159   3.7904
  6.151   3.7698
  6.144   3.7595
  6.137   3.7595
  6.130   3.7801
  6.122   3.7595
  6.115   3.6874
  6.108   3.6874
  6.101   3.6874
  6.094   3.7183
  6.086   3.6771
  6.079   3.6668
  6.072   3.6771
  6.065   3.7389
  6.058   3.7286
  6.051   3.6771
  6.044   3.6153
  6.037   3.6462
  6.030   3.7080
  6.023   3.7080
  6.016   3.6977
  6.009   3.7389
  6.002   3.7492
  5.995   3.7595
  5.988   3.7492
  5.981   3.7904
  5.974   3.8110
  5.967   3.8728
  5.960   3.9140
  5.954   3.9243
  5.947   3.9346
  5.940   3.9861
  5.933   3.9861
  5.926   3.9861
  5.920   3.9964
  5.913   4.0376
  5.906   4.0376
  5.899   4.0685
  5.893   4.0788
  5.886   4.1097
  5.879   4.1303
  5.873   4.1818
  5.866   4.2436
  5.859   4.2436
  5.853   4.2127
  5.846   4.3054
  5.840   4.3569
  5.833   4.3672
  5.827   4.3672
  5.820   4.3466
  5.813   4.3054
  5.807   4.3363
  5.800   4.4187
  5.794   4.4290
  5.788   4.3775
  5.781   4.3981
  5.775   4.4187
  5.768   4.3672
  5.762   4.3672
  5.755   4.3878
  5.749   4.4393
  5.743   4.4496
  5.736   4.4290
  5.730   4.4599
  5.724   4.4187
  5.717   4.4084
  5.711   4.4599
  5.705   4.5217
  5.698   4.4908
  5.692   4.4702
  5.686   4.4908
  5.680   4.5423
  5.674   4.5320
  5.667   4.4599
  5.661   4.4084
  5.655   4.4599
  5.649   4.5217
  5.643   4.5526
  5.637   4.4908
  5.630   4.4702
  5.624   4.4805
  5.618   4.5011
  5.612   4.4805
  5.606   4.5217
  5.600   4.6041
  5.594   4.6350
  5.588   4.5938
  5.582   4.5732
  5.576   4.5732
  5.570   4.5423
  5.564   4.5217
  5.558   4.5629
  5.552   4.5835
  5.546   4.5938
  5.540   4.6350
  5.534   4.6556
  5.528   4.6659
  5.523   4.6556
  5.517   4.6350
  5.511   4.6659
  5.505   4.7071
  5.499   4.6968
  5.493   4.7071
  5.487   4.7174
  5.482   4.6968
  5.476   4.7483
  5.470   4.7792
  5.464   4.7483
  5.459   4.7380
  5.453   4.7483
  5.447   4.7483
  5.441   4.7895
  5.436   4.8513
  5.430   4.8616
  5.424   4.8307
  5.419   4.8101
  5.413   4.7998
  5.407   4.7895
  5.402   4.7792
  5.396   4.7998
  5.390   4.8513
  5.385   4.8616
  5.379   4.8513
  5.374   4.9131
  5.368   4.8719
  5.363   4.8513
  5.357   4.8925
  5.352   4.8925
  5.346   4.8925
  5.341   4.9234
  5.335   4.9234
  5.330   4.9440
  5.324   4.9543
  5.319   4.9131
  5.313   4.9234
  5.308   4.9440
  5.302   4.9131
  5.297   4.9646
  5.291   4.9543
  5.286   4.9646
  5.281   4.9749
  5.275   4.9543
  5.270   4.9337
  5.265   4.9646
  5.259   4.9852
  5.254   4.9852
  5.249   5.0367
  5.243   4.9955
  5.238   4.9543
  5.233   4.9955
  5.227   4.9955
  5.222   5.0470
  5.217   5.0573
  5.212   5.0470
  5.206   4.9955
  5.201   5.0058
  5.196   5.0367
  5.191   5.0367
  5.186   5.0264
  5.180   5.0367
  5.175   5.0367
  5.170   5.0470
  5.165   5.0985
  5.160   5.0882
  5.155   5.0470
  5.150   5.0882
  5.145   5.1088
  5.139   5.1088
  5.134   5.1088
  5.129   5.1088
  5.124   5.1191
  5.119   5.0779
  5.114   5.0367
  5.109   5.0470
  5.104   5.0573
  5.099   5.0882
  5.094   5.0470
  5.089   5.0264
  5.084   5.0985
  5.079   5.1706
  5.074   5.1500
  5.069   5.1294
  5.064   5.1294
  5.059   5.1397
  5.054   5.1397
  5.049   5.1500
  5.044   5.1088
  5.040   5.1397
  5.035   5.1191
  5.030   5.0882
  5.025   5.0985
  5.020   5.1294
  5.015   5.1088
  5.010   5.0882
  5.005   5.1088
  5.001   5.1294
  4.996   5.1294
  4.991   5.1603
  4.986   5.1294
  4.981   5.0676
  4.977   5.0985
  4.972   5.1809
  4.967   5.2118
  4.962   5.2633
  4.958   5.2530
  4.953   5.1706
  4.948   5.1294
  4.943   5.1809
  4.939   5.2736
  4.934   5.2839
  4.929   5.1809
  4.925   5.1603
  4.920   5.2015
  4.915   5.2427
  4.911   5.2427
  4.906   5.2427
  4.901   5.2221
  4.897   5.2118
  4.892   5.2530
  4.888   5.2530
  4.883   5.2427
  4.878   5.2942
  4.874   5.3045
  4.869   5.2633
  4.865   5.2324
  4.860   5.2736
  4.856   5.2427
  4.851   5.1500
  4.846   5.1500
  4.842   5.2427
  4.837   5.2942
  4.833   5.3045
  4.828   5.3560
  4.824   5.3251
  4.819   5.2427
  4.815   5.2324
  4.810   5.3045
  4.806   5.3354
  4.802   5.2633
  4.797   5.2427
  4.793   5.2736
  4.788   5.2942
  4.784   5.2427
  4.779   5.2015
  4.775   5.2736
  4.771   5.3457
  4.766   5.3251
  4.762   5.2633
  4.758   5.3148
  4.753   5.4075
  4.749   5.3663
  4.744   5.3045
  4.740   5.2839
  4.736   5.3148
  4.731   5.3560
  4.727   5.3560
  4.723   5.3251
  4.719   5.3148
  4.714   5.3148
  4.710   5.3560
  4.706   5.3663
  4.701   5.3457
  4.697   5.3663
  4.693   5.3663
  4.689   5.3354
  4.684   5.3045
  4.680   5.3148
  4.676   5.3251
  4.672   5.3663
  4.668   5.3869
  4.663   5.3354
  4.659   5.3560
  4.655   5.3972
  4.651   5.3972
  4.647   5.3972
  4.643   5.3766
  4.638   5.3251
  4.634   5.3148
  4.630   5.3663
  4.626   5.4281
  4.622   5.4178
  4.618   5.4281
  4.614   5.4075
  4.610   5.3972
  4.605   5.3972
  4.601   5.3972
  4.597   5.4590
  4.593   5.4693
  4.589   5.4487
  4.585   5.4590
  4.581   5.5105
  4.577   5.4590
  4.573   5.3560
  4.569   5.3354
  4.565   5.3766
  4.561   5.4178
  4.557   5.4693
  4.553   5.4075
  4.549   5.3869
  4.545   5.3972
  4.541   5.4281
  4.537   5.4899
  4.533   5.5208
  4.529   5.4384
  4.525   5.4281
  4.521   5.4693
  4.517   5.4796
  4.513   5.4487
  4.509   5.4693
  4.505   5.5002
  4.502   5.5208
  4.498   5.4899
  4.494   5.4590
  4.490   5.4384
  4.486   5.4384
  4.482   5.4487
  4.478   5.5002
  4.474   5.5105
  4.470   5.4487
  4.467   5.4075
  4.463   5.4384
  4.459   5.5105
  4.455   5.5723
  4.451   5.5311
  4.447   5.4796
  4.444   5.4590
  4.440   5.5002
  4.436   5.5002
  4.432   5.4487
  4.428   5.4590
  4.425   5.5414
  4.421   5.4899
  4.417   5.4281
  4.413   5.4384
  4.410   5.4693
  4.406   5.4693
  4.402   5.4796
  4.398   5.4693
  4.395   5.4590
  4.391   5.4590
  4.387   5.5311
  4.384   5.5929
  4.380   5.5002
  4.376   5.3972
  4.372   5.4384
  4.369   5.4796
  4.365   5.4693
  4.361   5.5002
  4.358   5.5517
  4.354   5.5105
  4.350   5.5208
  4.347   5.5414
  4.343   5.4796
  4.340   5.4384
  4.336   5.4281
  4.332   5.4693
  4.329   5.5002
  4.325   5.5002
  4.321   5.5208
  4.318   5.4899
  4.314   5.4693
  4.311   5.3869
  4.307   5.3457
  4.304   5.2736
  4.300   5.3354
  4.296   5.4281
  4.293   5.5208
  4.289   5.5311
  4.286   5.4487
  4.282   5.4075
  4.279   5.3972
  4.275   5.3869
  4.272   5.5208
  4.268   5.5208
  4.265   5.5002
  4.261   5.4796
  4.258   5.4178
  4.254   5.3972
  4.251   5.4487
  4.247   5.4384
  4.244   5.4178
  4.240   5.4178
  4.237   5.3869
  4.233   5.3560
  4.230   5.4178
  4.226   5.4693
  4.223   5.4487
  4.219   5.3972
  4.216   5.4590
  4.213   5.4487
  4.209   5.4075
  4.206   5.4590
  4.202   5.4693
  4.199   5.4384
  4.196   5.4693
  4.192   5.5208
  4.189   5.5208
  4.185   5.4178
  4.182   5.3560
  4.179   5.4075
  4.175   5.4899
  4.172   5.4796
  4.169   5.4487
  4.165   5.3972
  4.162   5.4075
  4.159   5.4899
  4.155   5.4487
  4.152   5.4487
  4.149   5.4487
  4.145   5.3972
  4.142   5.4487
  4.139   5.4899
  4.135   5.4693
  4.132   5.4178
  4.129   5.4590
  4.126   5.5002
  4.122   5.4178
  4.119   5.3354
  4.116   5.3869
  4.112   5.4281
  4.109   5.4590
  4.106   5.3972
  4.103   5.3663
  4.099   5.3972
  4.096   5.4075
  4.093   5.3663
  4.090   5.3663
  4.086   5.3663
  4.083   5.4590
  4.080   5.5414
  4.077   5.5620
  4.074   5.4796
  4.070   5.4384
  4.067   5.3972
  4.064   5.3766
  4.061   5.4075
  4.058   5.4590
  4.055   5.4487
  4.051   5.4281
  4.048   5.4075
  4.045   5.3354
  4.042   5.3045
  4.039   5.4590
  4.036   5.4384
  4.032   5.3251
  4.029   5.4178
  4.026   5.4796
  4.023   5.3663
  4.020   5.2633
  4.017   5.2015
  4.014   5.3148
  4.011   5.4075
  4.008   5.4075
  4.004   5.3457
  4.001   5.2530
  3.998   5.2221
  3.995   5.3251
  3.992   5.3457
  3.989   5.2839
  3.986   5.2633
  3.983   5.2839
  3.980   5.2221
  3.977   5.1088
  3.974   5.1706
  3.971   5.3663
  3.968   5.3663
  3.965   5.3148
  3.962   5.2942
  3.959   5.2427
  3.956   5.2221
  3.953   5.1603
  3.950   5.2015
  3.947   5.3354
  3.944   5.3148
  3.941   5.2839
  3.938   5.3354
  3.935   5.3354
  3.932   5.3560
  3.929   5.4384
  3.926   5.3766
  3.923   5.3251
  3.920   5.3251
  3.917   5.2839
  3.914   5.2633
  3.911   5.3148
  3.908   5.2221
  3.905   5.1500
  3.902   5.2530
  3.899   5.4487
  3.896   5.4178
  3.893   5.3148
  3.890   5.3251
  3.887   5.2942
  3.884   5.1809
  3.882   5.1500
  3.879   5.1912
  3.876   5.3148
  3.873   5.2839
  3.870   5.2633
  3.867   5.3560
  3.864   5.3045
  3.861   5.3045
  3.858   5.3354
  3.856   5.3148
  3.853   5.2736
  3.850   5.1500
  3.847   5.1603
  3.844   5.2118
  3.841   5.2736
  3.838   5.2736
  3.836   5.2324
  3.833   5.2942
  3.830   5.3560
  3.827   5.2942
  3.824   5.2633
  3.822   5.2427
  3.819   5.2324
  3.816   5.2736
  3.813   5.3148
  3.810   5.3045
  3.807   5.3354
  3.805   5.2942
  3.802   5.2839
  3.799   5.3148
  3.796   5.3663
  3.794   5.3457
  3.791   5.2530
  3.788   5.2530
  3.785   5.2942
  3.782   5.3148
  3.780   5.3148
  3.777   5.2118
  3.774   5.2015
  3.771   5.2530
  3.769   5.2530
  3.766   5.3251
  3.763   5.3560
  3.761   5.2530
  3.758   5.2427
  3.755   5.2633
  3.752   5.2633
  3.750   5.2530
  3.747   5.3354
  3.744   5.3045
  3.742   5.2530
  3.739   5.2324
  3.736   5.2118
  3.733   5.2221
  3.731   5.3457
  3.728   5.3354
  3.725   5.3148
  3.723   5.2736
  3.720   5.2839
  3.717   5.3251
  3.715   5.3560
  3.712   5.2839
  3.709   5.2530
  3.707   5.2118
  3.704   5.2839
  3.702   5.3251
  3.699   5.2839
  3.696   5.2839
  3.694   5.2942
  3.691   5.2736
  3.688   5.3045
  3.686   5.2633
  3.683   5.1809
  3.680   5.2633
  3.678   5.4178
  3.675   5.3663
  3.673   5.3560
  3.670   5.3766
  3.667   5.3457
  3.665   5.2942
  3.662   5.2427
  3.660   5.1706
  3.657   5.1088
  3.655   5.0985
  3.652   5.2015
  3.649   5.2633
  3.647   5.2839
  3.644   5.3251
  3.642   5.2427
  3.639   5.1809
  3.637   5.3251
  3.634   5.3354
  3.632   5.2633
  3.629   5.1500
  3.626   5.1294
  3.624   5.2427
  3.621   5.2221
  3.619   5.1500
  3.616   5.2118
  3.614   5.2015
  3.611   5.2221
  3.609   5.2633
  3.606   5.2839
  3.604   5.2118
  3.601   5.1706
  3.599   5.1809
  3.596   5.1912
  3.594   5.2221
  3.591   5.3766
  3.589   5.3972
  3.586   5.3045
  3.584   5.1397
  3.581   5.0985
  3.579   5.1603
