Name: Rhyolite
Type: Rock
Class: Igneous
Subclass: Felsic
Particle Size: Whole Rock Chips
Sample No.: AP-937-182
Owner: United States Geological Survey, L. C. Rowan
Wavelength range: 0.405 - 14.05 um
Origin: Iberian Pyrite Belt, Spain

Description: Rhyolite, cut, altered





Measurement: Directional Hemispherical Reflectance
First Column: X
Second Column: Y
X Units: Wavelength (micrometers)
Y Units: Reflectance (percent)
First X Value: 14.05105
Last X Value: 0.40500
Number of X Values: 2530
Additional Information: rhy182a.txt

 14.051   2.8016
 14.013   2.9355
 13.975   3.0385
 13.938   2.9149
 13.900   3.0179
 13.863   3.0797
 13.826   3.2548
 13.790   3.3372
 13.753   3.3063
 13.717   3.1827
 13.680   3.1724
 13.644   3.2136
 13.609   3.4402
 13.573   3.3990
 13.538   3.4711
 13.502   3.5947
 13.467   3.6565
 13.432   3.6153
 13.398   3.6977
 13.363   3.6359
 13.329   3.6874
 13.295   3.6153
 13.261   3.7389
 13.227   3.8728
 13.193   3.8522
 13.160   3.7698
 13.126   4.0067
 13.093   4.1406
 13.060   4.1509
 13.027   4.0788
 12.995   4.1097
 12.962   4.2333
 12.930   4.4187
 12.898   4.5011
 12.866   4.7998
 12.834   5.0882
 12.802   5.2736
 12.771   5.2324
 12.739   5.1706
 12.708   4.9337
 12.677   4.7071
 12.646   4.3981
 12.616   4.3260
 12.585   4.3775
 12.554   4.5526
 12.524   4.6453
 12.494   4.6762
 12.464   4.5217
 12.434   4.3569
 12.404   4.0685
 12.375   3.5844
 12.345   3.0179
 12.316   2.6574
 12.287   2.3484
 12.258   2.2866
 12.229   2.3793
 12.200   2.6059
 12.171   2.6265
 12.143   2.7192
 12.115   2.8016
 12.086   2.8737
 12.058   2.8634
 12.030   2.9561
 12.002   2.9870
 11.975   3.1106
 11.947   3.1621
 11.920   3.2342
 11.892   3.1724
 11.865   3.2033
 11.838   3.2651
 11.811   3.3475
 11.784   3.4196
 11.757   3.4917
 11.731   3.4608
 11.704   3.5535
 11.678   3.6359
 11.652   3.6668
 11.626   3.6462
 11.600   3.7286
 11.574   3.8213
 11.548   3.9346
 11.522   3.9346
 11.497   3.9758
 11.471   3.9758
 11.446   4.0582
 11.421   4.1612
 11.396   4.2642
 11.371   4.2848
 11.346   4.3981
 11.321   4.4496
 11.297   4.4908
 11.272   4.5011
 11.248   4.6556
 11.223   4.7174
 11.199   4.7380
 11.175   4.7277
 11.151   4.8513
 11.127   4.8410
 11.103   4.9131
 11.079   4.9852
 11.056   4.9955
 11.032   4.9440
 11.009   4.9955
 10.985   5.0573
 10.962   5.0985
 10.939   5.0573
 10.916   5.0264
 10.893   5.0161
 10.870   5.0058
 10.848   4.9234
 10.825   4.9337
 10.802   4.9131
 10.780   4.9337
 10.758   4.9543
 10.735   5.0779
 10.713   5.1191
 10.691   5.2015
 10.669   5.3354
 10.647   5.4178
 10.625   5.3663
 10.604   5.4281
 10.582   5.5208
 10.560   5.7680
 10.539   5.9225
 10.518   5.9946
 10.496   6.0770
 10.475   6.2212
 10.454   6.3757
 10.433   6.5405
 10.412   6.6435
 10.391   6.8598
 10.370   7.0658
 10.350   7.2100
 10.329   7.3542
 10.309   7.6426
 10.288   7.7971
 10.268   7.9413
 10.247   8.1885
 10.227   8.4460
 10.207   8.5902
 10.187   8.7756
 10.167   8.9507
 10.147   9.1155
 10.127   9.2288
 10.108   9.4451
 10.088   9.6305
 10.068   9.8880
 10.049  10.0940
 10.029  10.2073
 10.010  10.3515
  9.991  10.6399
  9.972  10.8150
  9.952  11.0519
  9.933  11.1652
  9.914  11.3197
  9.895  11.4948
  9.877  11.6493
  9.858  11.6493
  9.839  11.7317
  9.821  11.8656
  9.802  11.8553
  9.783  11.8965
  9.765  12.1849
  9.747  12.5248
  9.728  12.8647
  9.710  13.1634
  9.692  13.5960
  9.674  14.0286
  9.656  14.5436
  9.638  14.8835
  9.620  15.1925
  9.602  15.4809
  9.585  15.6766
  9.567  15.6869
  9.549  15.8414
  9.532  15.9753
  9.514  15.9959
  9.497  15.8826
  9.479  15.8208
  9.462  15.7796
  9.445  15.9135
  9.428  16.0989
  9.411  16.3770
  9.394  16.7787
  9.377  17.2731
  9.360  17.6851
  9.343  18.2413
  9.326  18.6842
  9.309  19.0447
  9.293  19.3228
  9.276  19.5700
  9.259  19.6833
  9.243  19.6833
  9.226  19.7348
  9.210  19.9305
  9.194  20.0129
  9.178  20.1159
  9.161  20.2292
  9.145  20.3116
  9.129  20.3940
  9.113  20.4146
  9.097  20.3734
  9.081  20.4043
  9.065  20.2498
  9.049  20.1056
  9.034  19.9511
  9.018  19.8481
  9.002  19.6112
  8.987  19.4567
  8.971  19.3743
  8.956  19.3743
  8.940  19.1992
  8.925  19.0241
  8.909  18.8696
  8.894  18.8181
  8.879  18.7254
  8.864  18.6430
  8.849  18.5400
  8.834  18.4267
  8.819  18.3031
  8.804  18.2722
  8.789  18.1486
  8.774  18.0559
  8.759  17.9323
  8.744  17.8705
  8.730  17.7263
  8.715  17.5512
  8.700  17.2937
  8.686  17.0362
  8.671  16.6036
  8.657  15.9135
  8.642  14.8526
  8.628  13.8020
  8.614  13.3282
  8.599  13.7196
  8.585  14.5848
  8.571  15.3161
  8.557  15.7899
  8.543  16.0886
  8.529  16.2328
  8.515  16.3461
  8.501  16.3461
  8.487  16.4388
  8.473  16.3873
  8.459  16.2740
  8.445  16.1607
  8.431  16.0680
  8.418  15.8826
  8.404  15.7899
  8.391  15.7075
  8.377  15.6560
  8.363  15.5942
  8.350  15.5736
  8.337  15.4912
  8.323  15.4088
  8.310  15.3367
  8.297  15.4397
  8.283  15.5736
  8.270  15.6663
  8.257  15.7075
  8.244  15.9032
  8.231  15.9959
  8.218  16.0474
  8.205  16.0886
  8.192  16.1298
  8.179  15.9444
  8.166  15.6251
  8.153  15.2337
  8.140  14.7599
  8.128  14.1110
  8.115  13.4209
  8.102  12.5557
  8.090  11.7626
  8.077  11.0313
  8.064  10.2691
  8.052   9.4863
  8.039   8.8580
  8.027   8.3327
  8.015   7.8589
  8.002   7.3027
  7.990   6.8289
  7.978   6.3963
  7.965   5.9843
  7.953   5.5620
  7.941   5.2324
  7.929   4.8101
  7.917   4.4599
  7.905   4.1303
  7.893   3.8213
  7.881   3.5741
  7.869   3.3990
  7.857   3.1621
  7.845   2.9561
  7.833   2.8016
  7.821   2.7707
  7.809   2.6677
  7.798   2.5441
  7.786   2.3793
  7.774   2.3484
  7.763   2.2969
  7.751   2.2866
  7.739   2.2351
  7.728   2.1836
  7.716   2.0806
  7.705   2.0394
  7.694   1.9982
  7.682   1.9879
  7.671   1.9570
  7.659   1.9467
  7.648   1.8437
  7.637   1.7716
  7.626   1.6995
  7.614   1.6274
  7.603   1.6068
  7.592   1.6480
  7.581   1.5553
  7.570   1.5244
  7.559   1.5141
  7.548   1.5553
  7.537   1.4935
  7.526   1.4832
  7.515   1.5244
  7.504   1.5450
  7.493   1.4317
  7.483   1.4214
  7.472   1.3699
  7.461   1.3184
  7.450   1.2875
  7.440   1.3802
  7.429   1.3802
  7.418   1.3493
  7.408   1.3184
  7.397   1.3184
  7.387   1.2772
  7.376   1.3081
  7.366   1.2772
  7.355   1.2566
  7.345   1.2257
  7.334   1.2566
  7.324   1.2669
  7.314   1.2463
  7.303   1.2875
  7.293   1.2978
  7.283   1.2566
  7.273   1.2566
  7.263   1.2360
  7.252   1.2669
  7.242   1.2051
  7.232   1.2875
  7.222   1.3287
  7.212   1.3287
  7.202   1.2772
  7.192   1.2669
  7.182   1.2566
  7.172   1.2875
  7.162   1.2772
  7.152   1.2875
  7.143   1.2154
  7.133   1.2257
  7.123   1.2978
  7.113   1.3390
  7.103   1.3081
  7.094   1.3905
  7.084   1.4008
  7.074   1.3081
  7.065   1.2051
  7.055   1.1845
  7.046   1.1536
  7.036   1.1639
  7.026   1.1948
  7.017   1.2463
  7.007   1.2360
  6.998   1.2669
  6.989   1.2360
  6.979   1.2257
  6.970   1.2875
  6.960   1.3493
  6.951   1.3287
  6.942   1.3802
  6.932   1.3802
  6.923   1.3287
  6.914   1.3184
  6.905   1.3596
  6.896   1.2978
  6.886   1.2772
  6.877   1.2772
  6.868   1.2978
  6.859   1.3081
  6.850   1.2463
  6.841   1.2360
  6.832   1.3390
  6.823   1.3287
  6.814   1.2875
  6.805   1.2463
  6.796   1.3184
  6.787   1.3699
  6.778   1.3596
  6.770   1.2669
  6.761   1.2772
  6.752   1.2875
  6.743   1.2875
  6.734   1.2875
  6.726   1.2978
  6.717   1.2875
  6.708   1.3184
  6.700   1.3184
  6.691   1.3699
  6.682   1.3390
  6.674   1.3596
  6.665   1.3905
  6.657   1.4111
  6.648   1.3699
  6.640   1.3390
  6.631   1.2978
  6.623   1.3390
  6.614   1.4111
  6.606   1.4214
  6.597   1.3802
  6.589   1.3905
  6.581   1.3699
  6.572   1.3390
  6.564   1.3390
  6.556   1.3699
  6.547   1.3493
  6.539   1.4008
  6.531   1.4111
  6.523   1.4523
  6.514   1.4214
  6.506   1.3905
  6.498   1.4214
  6.490   1.5141
  6.482   1.5141
  6.474   1.5038
  6.466   1.5244
  6.458   1.5862
  6.450   1.5656
  6.442   1.4935
  6.434   1.5244
  6.426   1.6171
  6.418   1.5759
  6.410   1.5862
  6.402   1.5553
  6.394   1.5656
  6.386   1.5656
  6.378   1.5656
  6.370   1.5141
  6.363   1.5038
  6.355   1.5450
  6.347   1.6171
  6.339   1.5553
  6.332   1.5347
  6.324   1.5450
  6.316   1.5347
  6.308   1.4729
  6.301   1.4523
  6.293   1.3905
  6.286   1.4008
  6.278   1.3905
  6.270   1.4214
  6.263   1.4523
  6.255   1.4317
  6.248   1.3699
  6.240   1.4111
  6.233   1.4214
  6.225   1.3905
  6.218   1.3390
  6.210   1.3905
  6.203   1.4111
  6.195   1.4111
  6.188   1.3802
  6.181   1.4523
  6.173   1.4317
  6.166   1.4008
  6.159   1.4111
  6.151   1.4626
  6.144   1.4626
  6.137   1.4832
  6.130   1.4935
  6.122   1.4935
  6.115   1.4935
  6.108   1.5141
  6.101   1.5244
  6.094   1.5656
  6.086   1.6068
  6.079   1.6068
  6.072   1.5347
  6.065   1.5038
  6.058   1.5244
  6.051   1.5965
  6.044   1.5862
  6.037   1.5965
  6.030   1.5965
  6.023   1.6274
  6.016   1.6171
  6.009   1.5862
  6.002   1.5450
  5.995   1.5553
  5.988   1.6068
  5.981   1.6274
  5.974   1.5553
  5.967   1.5141
  5.960   1.5038
  5.954   1.5038
  5.947   1.5141
  5.940   1.5553
  5.933   1.5141
  5.926   1.4729
  5.920   1.4832
  5.913   1.5759
  5.906   1.6377
  5.899   1.6789
  5.893   1.6583
  5.886   1.6583
  5.879   1.6583
  5.873   1.6377
  5.866   1.5965
  5.859   1.6171
  5.853   1.6377
  5.846   1.6892
  5.840   1.7201
  5.833   1.7613
  5.827   1.8025
  5.820   1.8437
  5.813   1.8128
  5.807   1.8025
  5.800   1.7819
  5.794   1.8231
  5.788   1.8643
  5.781   1.8643
  5.775   1.8231
  5.768   1.8334
  5.762   1.8437
  5.755   1.9158
  5.749   1.9261
  5.743   1.9055
  5.736   1.8849
  5.730   1.8849
  5.724   1.8746
  5.717   1.9261
  5.711   1.9158
  5.705   1.9261
  5.698   1.8952
  5.692   1.8849
  5.686   1.8849
  5.680   1.8952
  5.674   1.8643
  5.667   1.8643
  5.661   1.8231
  5.655   1.8437
  5.649   1.8540
  5.643   1.8643
  5.637   1.8334
  5.630   1.8128
  5.624   1.8025
  5.618   1.7922
  5.612   1.7407
  5.606   1.7407
  5.600   1.7716
  5.594   1.8231
  5.588   1.8128
  5.582   1.8334
  5.576   1.8231
  5.570   1.8128
  5.564   1.7716
  5.558   1.7922
  5.552   1.7510
  5.546   1.7819
  5.540   1.8025
  5.534   1.8334
  5.528   1.8540
  5.523   1.9261
  5.517   1.9158
  5.511   1.9158
  5.505   1.9158
  5.499   1.9261
  5.493   1.9158
  5.487   1.9364
  5.482   1.9364
  5.476   1.9673
  5.470   1.9982
  5.464   2.0291
  5.459   2.0085
  5.453   2.0188
  5.447   2.0188
  5.441   2.0394
  5.436   2.0188
  5.430   2.0188
  5.424   1.9879
  5.419   2.0085
  5.413   2.0085
  5.407   2.0085
  5.402   1.9673
  5.396   1.9364
  5.390   1.9055
  5.385   1.8952
  5.379   1.8540
  5.374   1.9158
  5.368   1.8746
  5.363   1.8334
  5.357   1.8540
  5.352   1.8540
  5.346   1.8437
  5.341   1.8643
  5.335   1.8540
  5.330   1.8746
  5.324   1.8540
  5.319   1.8334
  5.313   1.8437
  5.308   1.8746
  5.302   1.9055
  5.297   1.8952
  5.291   1.8849
  5.286   1.9158
  5.281   1.9158
  5.275   1.9261
  5.270   1.9570
  5.265   1.9570
  5.259   1.9261
  5.254   1.9570
  5.249   1.9467
  5.243   1.9673
  5.238   2.0085
  5.233   2.1115
  5.227   2.1424
  5.222   2.1630
  5.217   2.1630
  5.212   2.1733
  5.206   2.2248
  5.201   2.2660
  5.196   2.2660
  5.191   2.2763
  5.186   2.2763
  5.180   2.2660
  5.175   2.2557
  5.170   2.3175
  5.165   2.3793
  5.160   2.3278
  5.155   2.2454
  5.150   2.2557
  5.145   2.3072
  5.139   2.2969
  5.134   2.2557
  5.129   2.2969
  5.124   2.3175
  5.119   2.3278
  5.114   2.2866
  5.109   2.2763
  5.104   2.3175
  5.099   2.3896
  5.094   2.3793
  5.089   2.3484
  5.084   2.3381
  5.079   2.2866
  5.074   2.2454
  5.069   2.2969
  5.064   2.2763
  5.059   2.2866
  5.054   2.3072
  5.049   2.2763
  5.044   2.2557
  5.040   2.2969
  5.035   2.2660
  5.030   2.2763
  5.025   2.3278
  5.020   2.3690
  5.015   2.2969
  5.010   2.2866
  5.005   2.2660
  5.001   2.2763
  4.996   2.2866
  4.991   2.3175
  4.986   2.3381
  4.981   2.3793
  4.977   2.3896
  4.972   2.4205
  4.967   2.4102
  4.962   2.4720
  4.958   2.5132
  4.953   2.5132
  4.948   2.5029
  4.943   2.5544
  4.939   2.5853
  4.934   2.5956
  4.929   2.5956
  4.925   2.6574
  4.920   2.6677
  4.915   2.6574
  4.911   2.6883
  4.906   2.8016
  4.901   2.8119
  4.897   2.8222
  4.892   2.8943
  4.888   2.9664
  4.883   2.9973
  4.878   3.0282
  4.874   3.0694
  4.869   3.1209
  4.865   3.1106
  4.860   3.1930
  4.856   3.3063
  4.851   3.3063
  4.846   3.3063
  4.842   3.4402
  4.837   3.4814
  4.833   3.4917
  4.828   3.4299
  4.824   3.4505
  4.819   3.4711
  4.815   3.4711
  4.810   3.5226
  4.806   3.5432
  4.802   3.5844
  4.797   3.6153
  4.793   3.6050
  4.788   3.6668
  4.784   3.6771
  4.779   3.6771
  4.775   3.6668
  4.771   3.7389
  4.766   3.7595
  4.762   3.7698
  4.758   3.7492
  4.753   3.8110
  4.749   3.8522
  4.744   3.8728
  4.740   3.8213
  4.736   3.8625
  4.731   3.9243
  4.727   3.9758
  4.723   3.9758
  4.719   4.0273
  4.714   4.0582
  4.710   4.0685
  4.706   4.0479
  4.701   4.0376
  4.697   3.9758
  4.693   3.9758
  4.689   3.9861
  4.684   3.9861
  4.680   3.9861
  4.676   4.0273
  4.672   4.0273
  4.668   4.1097
  4.663   4.1612
  4.659   4.1818
  4.655   4.1612
  4.651   4.1612
  4.647   4.1921
  4.643   4.2230
  4.638   4.2230
  4.634   4.3878
  4.630   4.4908
  4.626   4.5217
  4.622   4.4908
  4.618   4.5217
  4.614   4.5835
  4.610   4.6453
  4.605   4.6453
  4.601   4.6865
  4.597   4.7586
  4.593   4.7998
  4.589   4.7998
  4.585   4.8616
  4.581   4.8513
  4.577   4.8719
  4.573   4.8925
  4.569   4.9234
  4.565   4.9440
  4.561   4.9852
  4.557   4.9646
  4.553   4.9852
  4.549   5.0367
  4.545   5.0470
  4.541   5.0676
  4.537   5.1088
  4.533   4.9955
  4.529   4.9646
  4.525   4.9749
  4.521   4.9131
  4.517   4.8822
  4.513   4.8719
  4.509   4.8307
  4.505   4.7689
  4.502   4.7277
  4.498   4.7895
  4.494   4.7380
  4.490   4.6453
  4.486   4.6041
  4.482   4.6556
  4.478   4.6659
  4.474   4.7174
  4.470   4.7277
  4.467   4.7071
  4.463   4.6762
  4.459   4.6762
  4.455   4.6968
  4.451   4.8307
  4.447   4.9234
  4.444   5.0264
  4.440   5.0573
  4.436   5.0573
  4.432   5.0573
  4.428   5.1294
  4.425   5.1809
  4.421   5.1809
  4.417   5.2427
  4.413   5.3560
  4.410   5.3457
  4.406   5.3766
  4.402   5.4693
  4.398   5.5311
  4.395   5.5517
  4.391   5.6238
  4.387   5.7371
  4.384   5.8092
  4.380   5.8710
  4.376   5.9431
  4.372   6.0255
  4.369   6.1594
  4.365   6.1697
  4.361   6.2109
  4.358   6.2315
  4.354   6.3551
  4.350   6.3963
  4.347   6.4272
  4.343   6.4787
  4.340   6.5920
  4.336   6.6538
  4.332   6.7465
  4.329   6.7362
  4.325   6.7465
  4.321   6.6950
  4.318   6.7259
  4.314   6.7465
  4.311   6.7671
  4.307   6.7877
  4.304   6.7671
  4.300   6.7465
  4.296   6.7877
  4.293   6.7465
  4.289   6.7980
  4.286   6.9010
  4.282   6.9525
  4.279   6.8598
  4.275   6.8907
  4.272   6.9937
  4.268   7.0658
  4.265   7.1379
  4.261   7.1688
  4.258   7.1791
  4.254   7.1997
  4.251   7.2512
  4.247   7.3439
  4.244   7.2924
  4.240   7.2100
  4.237   7.2100
  4.233   7.2409
  4.230   7.1997
  4.226   7.2203
  4.223   7.3027
  4.219   7.4057
  4.216   7.4675
  4.213   7.4675
  4.209   7.4366
  4.206   7.4572
  4.202   7.4778
  4.199   7.5087
  4.196   7.5499
  4.192   7.6323
  4.189   7.7353
  4.185   7.7765
  4.182   7.7250
  4.179   7.7765
  4.175   7.8589
  4.172   7.9310
  4.169   7.9619
  4.165   7.9928
  4.162   8.0237
  4.159   8.0752
  4.155   8.0649
  4.152   8.1164
  4.149   8.0958
  4.145   8.1782
  4.142   8.2297
  4.139   8.2400
  4.135   8.2709
  4.132   8.3224
  4.129   8.3945
  4.126   8.4975
  4.122   8.5181
  4.119   8.4872
  4.116   8.4357
  4.112   8.5181
  4.109   8.5799
  4.106   8.7138
  4.103   8.8065
  4.099   8.7344
  4.096   8.7241
  4.093   8.8065
  4.090   8.8477
  4.086   8.9610
  4.083   8.9919
  4.080   8.9404
  4.077   8.9713
  4.074   9.0640
  4.070   9.0331
  4.067   9.0537
  4.064   9.1258
  4.061   9.2082
  4.058   9.2597
  4.055   9.3009
  4.051   9.2700
  4.048   9.2288
  4.045   9.1876
  4.042   9.1567
  4.039   9.1464
  4.036   9.1876
  4.032   9.2494
  4.029   9.2597
  4.026   9.2082
  4.023   9.2494
  4.020   9.2391
  4.017   9.3009
  4.014   9.2700
  4.011   9.2185
  4.008   9.2494
  4.004   9.3112
  4.001   9.3936
  3.998   9.3627
  3.995   9.3421
  3.992   9.3936
  3.989   9.4348
  3.986   9.4554
  3.983   9.4348
  3.980   9.4451
  3.977   9.4657
  3.974   9.5069
  3.971   9.4863
  3.968   9.4966
  3.965   9.6099
  3.962   9.7438
  3.959   9.8056
  3.956   9.7953
  3.953   9.6820
  3.950   9.7335
  3.947   9.8880
  3.944   9.9807
  3.941   9.9807
  3.938  10.0219
  3.935   9.9807
  3.932  10.0837
  3.929  10.1249
  3.926  10.0940
  3.923  10.1043
  3.920  10.0940
  3.917  10.1352
  3.914  10.2279
  3.911  10.2073
  3.908  10.1764
  3.905  10.0528
  3.902  10.1352
  3.899  10.1764
  3.896  10.1764
  3.893  10.1352
  3.890  10.1249
  3.887  10.0425
  3.884  10.0940
  3.882  10.1558
  3.879  10.1249
  3.876  10.0837
  3.873  10.1352
  3.870  10.1558
  3.867  10.1558
  3.864  10.0940
  3.861  10.0013
  3.858   9.8983
  3.856   9.9704
  3.853  10.0425
  3.850  10.0940
  3.847  10.0219
  3.844  10.0116
  3.841   9.9910
  3.838  10.0013
  3.836  10.0013
  3.833  10.0116
  3.830  10.0425
  3.827  10.1146
  3.824  10.0940
  3.822  10.1455
  3.819  10.1146
  3.816  10.0837
  3.813  10.1249
  3.810  10.1867
  3.807  10.1764
  3.805  10.0940
  3.802  10.0322
  3.799  10.1352
  3.796  10.1558
  3.794  10.1146
  3.791  10.0013
  3.788  10.0322
  3.785  10.1146
  3.782  10.0631
  3.780   9.8777
  3.777   9.9086
  3.774   9.8983
  3.771   9.8880
  3.769   9.8365
  3.766   9.7747
  3.763   9.7850
  3.761   9.7747
  3.758   9.6923
  3.755   9.6511
  3.752   9.4657
  3.750   9.4451
  3.747   9.5687
  3.744   9.5996
  3.742   9.5275
  3.739   9.4760
  3.736   9.4451
  3.733   9.5172
  3.731   9.4451
  3.728   9.3524
  3.725   9.3215
  3.723   9.4245
  3.720   9.4966
  3.717   9.5069
  3.715   9.4245
  3.712   9.3936
  3.709   9.3730
  3.707   9.4348
  3.704   9.4451
  3.702   9.4657
  3.699   9.4348
  3.696   9.4348
  3.694   9.4451
  3.691   9.4760
  3.688   9.4039
  3.686   9.4245
  3.683   9.4039
  3.680   9.4142
  3.678   9.4142
  3.675   9.4760
  3.673   9.4657
  3.670   9.4348
  3.667   9.4348
  3.665   9.4451
  3.662   9.3524
  3.660   9.3936
  3.657   9.3524
  3.655   9.3112
  3.652   9.2906
  3.649   9.3318
  3.647   9.4039
  3.644   9.4039
  3.642   9.3215
  3.639   9.3112
  3.637   9.3009
  3.634   9.3730
  3.632   9.2906
  3.629   9.2185
  3.626   9.2185
  3.624   9.1361
  3.621   9.0228
  3.619   9.0743
  3.616   9.1155
  3.614   9.0640
  3.611   9.0125
  3.609   9.0640
  3.606   9.0331
  3.604   8.8580
  3.601   8.7962
  3.599   8.8889
  3.596   8.8992
  3.594   8.7756
  3.591   8.6623
  3.589   8.6417
  3.586   8.5284
  3.584   8.4460
  3.581   8.4460
