Name: Rhyolite
Type: Rock
Class: Igneous
Subclass: Felsic
Particle Size: Whole Rock Chips
Sample No.: AP-939-221
Owner: United States Geological Survey, L. C. Rowan
Wavelength range: 0.405 - 14.05 um
Origin: Iberian Pyrite Belt, Spain

Description: Rhyolite, greenish, altered





Measurement: Directional Hemispherical Reflectance
First Column: X
Second Column: Y
X Units: Wavelength (micrometers)
Y Units: Reflectance (percent)
First X Value: 14.05105
Last X Value: 0.40500
Number of X Values: 2530
Additional Information: rhy221a.txt

 14.051   1.5965
 14.013   1.5141
 13.975   1.8231
 13.938   1.9055
 13.900   2.0291
 13.863   2.1012
 13.826   2.2351
 13.790   2.2145
 13.753   2.2660
 13.717   2.3896
 13.680   2.3999
 13.644   2.2660
 13.609   2.2969
 13.573   2.2866
 13.538   2.5029
 13.502   2.4308
 13.467   2.4617
 13.432   2.5235
 13.398   2.6471
 13.363   2.6883
 13.329   2.6677
 13.295   2.5029
 13.261   2.5029
 13.227   2.6162
 13.193   2.8325
 13.160   2.8222
 13.126   2.9046
 13.093   2.9252
 13.060   2.9870
 13.027   2.9973
 12.995   3.0385
 12.962   2.9870
 12.930   3.1209
 12.898   3.2239
 12.866   3.3372
 12.834   3.4093
 12.802   3.5226
 12.771   3.4608
 12.739   3.3578
 12.708   3.2239
 12.677   3.1312
 12.646   2.9561
 12.616   2.9870
 12.585   3.0591
 12.554   3.1518
 12.524   3.1724
 12.494   3.2342
 12.464   3.1415
 12.434   3.1209
 12.404   2.9561
 12.375   2.8634
 12.345   2.7501
 12.316   2.6780
 12.287   2.6265
 12.258   2.6574
 12.229   2.6471
 12.200   2.6986
 12.171   2.7398
 12.143   2.8222
 12.115   2.8531
 12.086   2.9149
 12.058   2.8943
 12.030   2.9870
 12.002   2.9561
 11.975   2.9767
 11.947   3.0488
 11.920   3.2136
 11.892   3.1827
 11.865   3.2342
 11.838   3.2754
 11.811   3.3681
 11.784   3.4402
 11.757   3.4917
 11.731   3.3887
 11.704   3.3990
 11.678   3.3887
 11.652   3.5638
 11.626   3.7595
 11.600   3.8213
 11.574   3.8213
 11.548   3.8419
 11.522   3.9243
 11.497   4.1097
 11.471   4.0582
 11.446   4.0994
 11.421   4.2333
 11.396   4.3981
 11.371   4.3569
 11.346   4.3466
 11.321   4.4393
 11.297   4.5835
 11.272   4.5732
 11.248   4.5938
 11.223   4.6350
 11.199   4.7792
 11.175   4.8307
 11.151   4.9646
 11.127   5.1912
 11.103   5.3972
 11.079   5.4899
 11.056   5.5826
 11.032   5.6444
 11.009   5.7989
 10.985   5.9637
 10.962   6.0461
 10.939   5.9431
 10.916   5.8195
 10.893   5.5826
 10.870   5.3869
 10.848   5.1603
 10.825   5.0161
 10.802   4.7792
 10.780   4.7277
 10.758   4.6865
 10.735   4.5938
 10.713   4.4599
 10.691   4.4599
 10.669   4.5217
 10.647   4.6144
 10.625   4.5629
 10.604   4.6144
 10.582   4.6144
 10.560   4.6350
 10.539   4.6659
 10.518   4.7277
 10.496   4.7792
 10.475   4.9337
 10.454   5.0779
 10.433   5.2942
 10.412   5.3560
 10.391   5.4590
 10.370   5.6547
 10.350   5.9328
 10.329   6.0152
 10.309   6.2212
 10.288   6.4581
 10.268   6.6744
 10.247   6.8186
 10.227   7.0967
 10.207   7.3542
 10.187   7.7250
 10.167   7.9928
 10.147   8.2091
 10.127   8.4151
 10.108   8.7344
 10.088   9.1155
 10.068   9.5584
 10.049   9.8983
 10.029  10.2691
 10.010  10.5987
  9.991  11.0313
  9.972  11.4433
  9.952  11.8244
  9.933  12.1128
  9.914  12.5145
  9.895  12.7308
  9.877  12.8235
  9.858  12.8235
  9.839  12.8750
  9.821  12.8750
  9.802  12.9471
  9.783  13.0707
  9.765  13.2664
  9.747  13.4930
  9.728  14.0183
  9.710  14.5951
  9.692  15.1101
  9.674  15.6251
  9.656  16.2019
  9.638  16.6139
  9.620  17.0465
  9.602  17.4585
  9.585  17.9220
  9.567  18.2310
  9.549  18.5400
  9.532  18.8078
  9.514  19.0962
  9.497  19.3022
  9.479  19.6009
  9.462  19.7245
  9.445  19.8893
  9.428  20.0232
  9.411  20.1159
  9.394  20.0953
  9.377  20.1262
  9.360  20.0541
  9.343  19.8790
  9.326  19.5391
  9.309  19.2816
  9.293  18.9108
  9.276  18.5400
  9.259  18.0868
  9.243  17.5821
  9.226  17.0465
  9.210  16.6139
  9.194  16.2019
  9.178  15.7590
  9.161  15.2028
  9.145  14.6672
  9.129  14.0801
  9.113  13.4827
  9.097  12.9883
  9.081  12.5969
  9.065  12.0922
  9.049  11.5875
  9.034  11.0004
  9.018  10.5472
  9.002  10.2279
  8.987  10.0940
  8.971  10.0631
  8.956  10.2485
  8.940  10.4236
  8.925  10.7738
  8.909  11.1652
  8.894  11.4536
  8.879  11.7523
  8.864  12.0407
  8.849  12.0510
  8.834  12.0098
  8.819  11.8450
  8.804  11.6699
  8.789  11.5257
  8.774  11.3815
  8.759  11.0725
  8.744  10.8356
  8.730  10.5678
  8.715  10.2691
  8.700  10.0013
  8.686   9.7953
  8.671   9.4039
  8.657   9.0228
  8.642   8.5902
  8.628   8.1782
  8.614   7.8383
  8.599   7.7765
  8.585   7.8074
  8.571   7.8589
  8.557   7.8074
  8.543   7.7765
  8.529   7.7353
  8.515   7.6941
  8.501   7.6220
  8.487   7.5602
  8.473   7.5602
  8.459   7.6941
  8.445   7.6014
  8.431   7.4675
  8.418   7.3851
  8.404   7.4160
  8.391   7.5190
  8.377   7.5396
  8.363   7.5499
  8.350   7.6426
  8.337   7.6941
  8.323   7.7559
  8.310   7.7456
  8.297   7.7971
  8.283   7.8692
  8.270   7.9207
  8.257   7.9001
  8.244   7.9928
  8.231   8.0237
  8.218   8.0031
  8.205   8.0237
  8.192   8.0134
  8.179   7.9722
  8.166   7.9516
  8.153   7.8486
  8.140   7.6735
  8.128   7.3130
  8.115   6.9216
  8.102   6.6023
  8.090   6.3551
  8.077   5.9740
  8.064   5.5723
  8.052   5.3148
  8.039   5.0985
  8.027   4.7689
  8.015   4.5114
  8.002   4.3157
  7.990   4.0582
  7.978   3.8110
  7.965   3.7389
  7.953   3.6153
  7.941   3.4608
  7.929   3.3063
  7.917   3.1106
  7.905   2.8737
  7.893   2.6883
  7.881   2.5132
  7.869   2.4823
  7.857   2.4102
  7.845   2.3175
  7.833   2.2454
  7.821   2.1836
  7.809   2.0600
  7.798   1.9982
  7.786   1.9776
  7.774   1.9776
  7.763   1.9776
  7.751   2.0085
  7.739   1.9982
  7.728   2.0085
  7.716   1.9158
  7.705   1.8437
  7.694   1.7819
  7.682   1.8025
  7.671   1.7819
  7.659   1.7510
  7.648   1.7098
  7.637   1.6789
  7.626   1.6480
  7.614   1.6583
  7.603   1.5862
  7.592   1.5862
  7.581   1.5656
  7.570   1.5656
  7.559   1.5347
  7.548   1.5347
  7.537   1.5244
  7.526   1.5656
  7.515   1.5759
  7.504   1.6068
  7.493   1.5759
  7.483   1.5656
  7.472   1.5141
  7.461   1.4626
  7.450   1.4420
  7.440   1.4935
  7.429   1.4935
  7.418   1.4626
  7.408   1.4317
  7.397   1.4317
  7.387   1.4214
  7.376   1.4729
  7.366   1.4935
  7.355   1.4729
  7.345   1.4317
  7.334   1.4832
  7.324   1.4420
  7.314   1.4008
  7.303   1.4008
  7.293   1.4111
  7.283   1.3287
  7.273   1.3493
  7.263   1.4626
  7.252   1.5244
  7.242   1.4626
  7.232   1.4111
  7.222   1.4317
  7.212   1.4523
  7.202   1.4729
  7.192   1.4420
  7.182   1.3905
  7.172   1.4420
  7.162   1.4523
  7.152   1.4729
  7.143   1.3802
  7.133   1.3905
  7.123   1.4317
  7.113   1.4111
  7.103   1.3905
  7.094   1.3596
  7.084   1.4111
  7.074   1.4523
  7.065   1.3699
  7.055   1.3493
  7.046   1.3493
  7.036   1.3699
  7.026   1.3905
  7.017   1.3390
  7.007   1.3184
  6.998   1.3802
  6.989   1.3493
  6.979   1.3493
  6.970   1.3596
  6.960   1.3596
  6.951   1.3905
  6.942   1.4420
  6.932   1.4008
  6.923   1.4317
  6.914   1.4729
  6.905   1.4626
  6.896   1.4420
  6.886   1.4626
  6.877   1.4317
  6.868   1.4008
  6.859   1.3905
  6.850   1.4935
  6.841   1.5656
  6.832   1.5553
  6.823   1.4626
  6.814   1.4832
  6.805   1.5347
  6.796   1.5862
  6.787   1.6171
  6.778   1.6068
  6.770   1.5553
  6.761   1.5553
  6.752   1.5759
  6.743   1.6068
  6.734   1.5656
  6.726   1.5553
  6.717   1.5759
  6.708   1.6377
  6.700   1.6480
  6.691   1.6377
  6.682   1.6171
  6.674   1.6377
  6.665   1.6274
  6.657   1.7098
  6.648   1.7716
  6.640   1.7407
  6.631   1.6995
  6.623   1.6789
  6.614   1.6480
  6.606   1.7098
  6.597   1.7304
  6.589   1.7407
  6.581   1.7922
  6.572   1.7716
  6.564   1.6995
  6.556   1.6995
  6.547   1.7304
  6.539   1.7304
  6.531   1.7201
  6.523   1.7819
  6.514   1.8334
  6.506   1.8643
  6.498   1.8746
  6.490   1.9158
  6.482   1.9158
  6.474   1.9570
  6.466   1.9467
  6.458   1.9055
  6.450   1.9158
  6.442   1.9261
  6.434   1.9364
  6.426   2.0085
  6.418   2.0085
  6.410   2.0188
  6.402   1.9879
  6.394   1.9467
  6.386   1.9570
  6.378   1.9673
  6.370   1.9467
  6.363   1.9570
  6.355   1.8849
  6.347   1.8540
  6.339   1.8643
  6.332   1.8437
  6.324   1.8437
  6.316   1.8334
  6.308   1.7613
  6.301   1.7407
  6.293   1.6995
  6.286   1.6686
  6.278   1.6789
  6.270   1.6480
  6.263   1.6480
  6.255   1.6377
  6.248   1.6171
  6.240   1.6480
  6.233   1.6377
  6.225   1.6686
  6.218   1.6480
  6.210   1.5656
  6.203   1.4935
  6.195   1.4832
  6.188   1.4729
  6.181   1.5141
  6.173   1.5141
  6.166   1.5553
  6.159   1.5347
  6.151   1.5141
  6.144   1.5450
  6.137   1.5862
  6.130   1.5553
  6.122   1.4729
  6.115   1.4626
  6.108   1.5244
  6.101   1.5553
  6.094   1.5450
  6.086   1.5141
  6.079   1.5759
  6.072   1.5450
  6.065   1.5038
  6.058   1.5450
  6.051   1.5965
  6.044   1.5450
  6.037   1.5759
  6.030   1.6171
  6.023   1.6171
  6.016   1.6068
  6.009   1.5862
  6.002   1.5244
  5.995   1.5244
  5.988   1.5965
  5.981   1.6583
  5.974   1.6480
  5.967   1.6377
  5.960   1.6274
  5.954   1.6068
  5.947   1.5862
  5.940   1.6377
  5.933   1.6686
  5.926   1.6686
  5.920   1.6480
  5.913   1.6686
  5.906   1.7098
  5.899   1.7716
  5.893   1.7819
  5.886   1.8231
  5.879   1.8540
  5.873   1.8540
  5.866   1.8746
  5.859   1.8849
  5.853   1.8643
  5.846   1.9158
  5.840   1.9364
  5.833   1.9879
  5.827   1.9982
  5.820   1.9982
  5.813   2.0703
  5.807   2.0806
  5.800   2.0806
  5.794   2.1527
  5.788   2.2248
  5.781   2.2454
  5.775   2.1939
  5.768   2.1527
  5.762   2.1630
  5.755   2.2145
  5.749   2.1836
  5.743   2.1733
  5.736   2.1527
  5.730   2.1630
  5.724   2.2145
  5.717   2.2866
  5.711   2.3175
  5.705   2.3072
  5.698   2.2557
  5.692   2.2454
  5.686   2.2763
  5.680   2.2969
  5.674   2.2866
  5.667   2.2866
  5.661   2.2763
  5.655   2.2866
  5.649   2.2969
  5.643   2.2763
  5.637   2.2454
  5.630   2.2145
  5.624   2.1939
  5.618   2.1939
  5.612   2.1733
  5.606   2.1321
  5.600   2.0909
  5.594   2.1012
  5.588   2.1733
  5.582   2.2248
  5.576   2.2145
  5.570   2.2145
  5.564   2.1733
  5.558   2.1939
  5.552   2.2145
  5.546   2.1733
  5.540   2.2248
  5.534   2.2763
  5.528   2.2454
  5.523   2.2969
  5.517   2.2969
  5.511   2.2866
  5.505   2.2660
  5.499   2.2660
  5.493   2.2969
  5.487   2.3175
  5.482   2.3175
  5.476   2.3381
  5.470   2.3896
  5.464   2.4102
  5.459   2.4308
  5.453   2.4514
  5.447   2.4205
  5.441   2.3999
  5.436   2.4308
  5.430   2.4617
  5.424   2.4617
  5.419   2.4514
  5.413   2.4102
  5.407   2.3587
  5.402   2.3690
  5.396   2.3690
  5.390   2.3690
  5.385   2.3690
  5.379   2.2969
  5.374   2.3175
  5.368   2.3381
  5.363   2.2763
  5.357   2.2660
  5.352   2.2763
  5.346   2.2454
  5.341   2.2969
  5.335   2.3072
  5.330   2.3278
  5.324   2.3278
  5.319   2.2454
  5.313   2.2351
  5.308   2.2866
  5.302   2.2866
  5.297   2.3484
  5.291   2.4308
  5.286   2.4514
  5.281   2.4308
  5.275   2.4514
  5.270   2.5029
  5.265   2.5647
  5.259   2.5853
  5.254   2.5544
  5.249   2.5235
  5.243   2.6059
  5.238   2.6986
  5.233   2.7501
  5.227   2.7604
  5.222   2.7810
  5.217   2.8222
  5.212   2.8634
  5.206   2.9252
  5.201   2.9561
  5.196   2.9355
  5.191   2.9458
  5.186   2.9664
  5.180   2.9973
  5.175   3.0591
  5.170   3.0694
  5.165   3.0591
  5.160   3.0694
  5.155   3.0694
  5.150   3.0797
  5.145   3.0591
  5.139   3.0385
  5.134   3.0694
  5.129   3.1621
  5.124   3.2033
  5.119   3.1930
  5.114   3.1827
  5.109   3.2239
  5.104   3.2239
  5.099   3.1827
  5.094   3.1518
  5.089   3.1827
  5.084   3.2445
  5.079   3.2136
  5.074   3.1518
  5.069   3.1827
  5.064   3.2136
  5.059   3.2548
  5.054   3.2445
  5.049   3.2033
  5.044   3.1827
  5.040   3.2239
  5.035   3.2445
  5.030   3.2754
  5.025   3.3166
  5.020   3.2857
  5.015   3.2754
  5.010   3.3063
  5.005   3.3166
  5.001   3.2857
  4.996   3.2754
  4.991   3.3578
  4.986   3.4196
  4.981   3.4711
  4.977   3.5020
  4.972   3.5329
  4.967   3.6359
  4.962   3.7801
  4.958   3.8213
  4.953   3.8213
  4.948   3.8419
  4.943   3.8831
  4.939   3.9449
  4.934   3.9964
  4.929   4.0376
  4.925   4.0891
  4.920   4.1200
  4.915   4.2024
  4.911   4.2951
  4.906   4.3981
  4.901   4.5114
  4.897   4.6041
  4.892   4.7586
  4.888   4.8925
  4.883   5.0058
  4.878   5.1294
  4.874   5.2324
  4.869   5.3869
  4.865   5.5002
  4.860   5.5620
  4.856   5.6032
  4.851   5.7165
  4.846   5.8504
  4.842   5.9225
  4.837   5.9843
  4.833   6.0564
  4.828   6.1388
  4.824   6.2109
  4.819   6.2109
  4.815   6.2315
  4.810   6.2521
  4.806   6.3242
  4.802   6.3345
  4.797   6.2933
  4.793   6.3036
  4.788   6.4272
  4.784   6.5199
  4.779   6.5302
  4.775   6.5405
  4.771   6.6023
  4.766   6.6744
  4.762   6.7156
  4.758   6.7671
  4.753   6.7980
  4.749   6.7877
  4.744   6.8598
  4.740   6.9834
  4.736   7.0040
  4.731   7.0555
  4.727   7.1791
  4.723   7.1791
  4.719   7.1791
  4.714   7.2306
  4.710   7.2409
  4.706   7.2409
  4.701   7.2615
  4.697   7.2615
  4.693   7.2718
  4.689   7.2718
  4.684   7.1997
  4.680   7.1894
  4.676   7.2100
  4.672   7.2924
  4.668   7.4057
  4.663   7.4881
  4.659   7.4778
  4.655   7.5499
  4.651   7.7559
  4.647   7.9310
  4.643   8.0443
  4.638   8.1576
  4.634   8.3018
  4.630   8.3533
  4.626   8.3533
  4.622   8.4666
  4.618   8.6005
  4.614   8.6932
  4.610   8.7859
  4.605   8.8992
  4.601   9.0228
  4.597   9.1052
  4.593   9.1876
  4.589   9.2494
  4.585   9.2494
  4.581   9.3215
  4.577   9.4142
  4.573   9.4863
  4.569   9.5687
  4.565   9.5790
  4.561   9.5893
  4.557   9.6202
  4.553   9.6099
  4.549   9.6408
  4.545   9.6511
  4.541   9.6408
  4.537   9.6717
  4.533   9.6614
  4.529   9.6305
  4.525   9.5996
  4.521   9.4966
  4.517   9.3524
  4.513   9.2700
  4.509   9.2288
  4.505   9.1464
  4.502   9.0537
  4.498   9.0331
  4.494   9.0022
  4.490   8.9301
  4.486   8.9301
  4.482   8.9713
  4.478   9.0331
  4.474   8.9404
  4.470   8.8992
  4.467   8.9713
  4.463   9.0434
  4.459   9.1258
  4.455   9.2494
  4.451   9.3936
  4.447   9.4554
  4.444   9.5584
  4.440   9.6717
  4.436   9.7541
  4.432   9.8571
  4.428   9.9498
  4.425  10.1043
  4.421  10.1970
  4.417  10.2897
  4.413  10.4030
  4.410  10.5060
  4.406  10.6193
  4.402  10.7635
  4.398  10.8768
  4.395  11.0416
  4.391  11.2476
  4.387  11.3918
  4.384  11.5257
  4.380  11.6493
  4.376  11.8759
  4.372  12.0407
  4.369  12.0819
  4.365  12.2673
  4.361  12.4836
  4.358  12.6278
  4.354  12.7617
  4.350  12.8544
  4.347  12.9059
  4.343  13.0501
  4.340  13.1634
  4.336  13.2561
  4.332  13.3076
  4.329  13.4106
  4.325  13.4930
  4.321  13.5239
  4.318  13.5857
  4.314  13.6372
  4.311  13.6578
  4.307  13.6269
  4.304  13.6166
  4.300  13.6784
  4.296  13.6990
  4.293  13.6578
  4.289  13.6887
  4.286  13.7711
  4.282  13.8535
  4.279  13.8741
  4.275  13.9256
  4.272  14.0286
  4.268  14.0595
  4.265  14.0698
  4.261  14.1419
  4.258  14.2964
  4.254  14.3891
  4.251  14.4921
  4.247  14.6157
  4.244  14.6054
  4.240  14.5436
  4.237  14.5745
  4.233  14.5848
  4.230  14.5745
  4.226  14.6878
  4.223  14.7187
  4.219  14.6878
  4.216  14.7599
  4.213  14.7908
  4.209  14.8526
  4.206  14.9556
  4.202  15.0071
  4.199  15.0174
  4.196  14.9350
  4.192  14.9556
  4.189  15.0483
  4.185  15.0586
  4.182  15.1925
  4.179  15.3264
  4.175  15.3367
  4.172  15.3470
  4.169  15.3573
  4.165  15.4706
  4.162  15.6354
  4.159  15.6663
  4.155  15.6766
  4.152  15.7281
  4.149  15.7693
  4.145  15.8414
  4.142  15.9650
  4.139  16.0474
  4.135  16.0783
  4.132  16.0886
  4.129  16.1195
  4.126  16.1916
  4.122  16.2843
  4.119  16.3049
  4.116  16.3152
  4.112  16.3976
  4.109  16.5418
  4.106  16.6345
  4.103  16.6654
  4.099  16.6757
  4.096  16.7684
  4.093  16.7890
  4.090  16.8405
  4.086  16.9332
  4.083  17.0362
  4.080  17.0671
  4.077  17.1804
  4.074  17.2628
  4.070  17.2525
  4.067  17.2628
  4.064  17.3555
  4.061  17.3864
  4.058  17.3349
  4.055  17.2834
  4.051  17.2937
  4.048  17.2628
  4.045  17.3246
  4.042  17.4276
  4.039  17.4482
  4.036  17.3864
  4.032  17.3864
  4.029  17.4276
  4.026  17.4585
  4.023  17.4379
  4.020  17.3658
  4.017  17.3143
  4.014  17.3452
  4.011  17.3452
  4.008  17.3761
  4.004  17.4173
  4.001  17.3967
  3.998  17.3143
  3.995  17.3040
  3.992  17.3143
  3.989  17.3555
  3.986  17.3143
  3.983  17.2937
  3.980  17.2937
  3.977  17.3761
  3.974  17.4173
  3.971  17.4482
  3.968  17.4585
  3.965  17.5306
  3.962  17.6130
  3.959  17.7366
  3.956  17.8190
  3.953  17.8808
  3.950  17.8705
  3.947  17.9323
  3.944  18.0662
  3.941  18.1692
  3.938  18.2310
  3.935  18.2413
  3.932  18.2722
  3.929  18.3649
  3.926  18.4164
  3.923  18.3958
  3.920  18.4267
  3.917  18.4679
  3.914  18.4576
  3.911  18.4576
  3.908  18.4164
  3.905  18.4267
  3.902  18.4267
  3.899  18.4267
  3.896  18.4473
  3.893  18.4782
  3.890  18.4782
  3.887  18.4473
  3.884  18.2722
  3.882  18.2104
  3.879  18.2413
  3.876  18.3134
  3.873  18.3443
  3.870  18.2722
  3.867  18.2207
  3.864  18.3443
  3.861  18.4267
  3.858  18.2928
  3.856  18.0971
  3.853  18.1177
  3.850  18.1795
  3.847  18.1486
  3.844  18.1589
  3.841  18.1898
  3.838  18.0868
  3.836  18.0868
  3.833  18.0971
  3.830  18.1383
  3.827  18.1589
  3.824  18.2413
  3.822  18.3340
  3.819  18.3340
  3.816  18.2207
  3.813  18.2516
  3.810  18.2207
  3.807  18.1795
  3.805  18.2928
  3.802  18.2619
  3.799  18.1486
  3.796  18.0662
  3.794  17.9735
  3.791  17.9941
  3.788  17.9529
  3.785  17.8705
  3.782  17.8705
  3.780  17.8705
  3.777  17.7572
  3.774  17.6336
  3.771  17.5409
  3.769  17.4688
  3.766  17.3864
  3.763  17.3967
  3.761  17.3040
  3.758  17.1701
  3.755  17.0362
  3.752  16.9744
  3.750  16.8920
  3.747  16.8199
  3.744  16.7375
  3.742  16.7066
  3.739  16.7169
  3.736  16.6860
  3.733  16.5933
  3.731  16.5727
  3.728  16.5315
  3.725  16.4594
  3.723  16.4491
  3.720  16.4388
  3.717  16.3976
  3.715  16.3358
  3.712  16.3049
  3.709  16.2534
  3.707  16.2534
  3.704  16.3152
  3.702  16.2740
  3.699  16.2225
  3.696  16.2225
  3.694  16.2431
  3.691  16.2225
  3.688  16.1504
  3.686  16.0577
  3.683  16.1401
  3.680  16.1607
  3.678  16.1607
  3.675  16.1504
  3.673  16.0886
  3.670  16.0783
  3.667  16.0783
  3.665  16.0268
  3.662  16.0062
  3.660  15.9856
  3.657  16.0268
  3.655  16.0371
  3.652  15.9650
  3.649  15.8517
  3.647  15.7899
  3.644  15.7281
  3.642  15.6972
  3.639  15.7075
  3.637  15.7590
  3.634  15.6045
  3.632  15.4912
  3.629  15.4912
  3.626  15.5015
  3.624  15.4809
  3.621  15.4191
  3.619  15.2543
  3.616  15.1616
  3.614  15.0895
  3.611  15.0895
  3.609  15.0998
  3.606  14.9453
  3.604  14.7908
  3.601  14.8011
  3.599  14.7702
  3.596  14.6260
  3.594  14.5024
  3.591  14.3788
  3.589  14.2758
  3.586  14.2861
  3.584  14.2140
