Name: Rhyolite
Type: Rock
Class: Igneous
Subclass: Felsic
Particle Size: Whole Rock Chips
Sample No.: AP-960-134
Owner: United States Geological Survey, L. C. Rowan
Wavelength range: 0.405 - 14.05 um
Origin: Iberian Pyrite Belt, Spain

Description: Rhyolite, phyllic





Measurement: Directional Hemispherical Reflectance
First Column: X
Second Column: Y
X Units: Wavelength (micrometers)
Y Units: Reflectance (percent)
First X Value: 14.05105
Last X Value: 0.40500
Number of X Values: 2530
Additional Information: rhy134a.txt

 14.051   2.6986
 14.013   2.8222
 13.975   2.9355
 13.938   2.9973
 13.900   3.1106
 13.863   2.9252
 13.826   3.0694
 13.790   3.0694
 13.753   3.1312
 13.717   3.0694
 13.680   2.9973
 13.644   2.7810
 13.609   2.8428
 13.573   2.9973
 13.538   3.1209
 13.502   3.0694
 13.467   3.1827
 13.432   3.2342
 13.398   3.3372
 13.363   3.1930
 13.329   3.0900
 13.295   3.0900
 13.261   3.2136
 13.227   3.2960
 13.193   3.4196
 13.160   3.4917
 13.126   3.6977
 13.093   3.7698
 13.060   3.8213
 13.027   3.7389
 12.995   3.7389
 12.962   3.7389
 12.930   3.8007
 12.898   3.9758
 12.866   4.3260
 12.834   4.4908
 12.802   4.6968
 12.771   4.7174
 12.739   4.6247
 12.708   4.2951
 12.677   4.0891
 12.646   3.8007
 12.616   3.5535
 12.585   3.5226
 12.554   3.7080
 12.524   3.7492
 12.494   3.8728
 12.464   4.0067
 12.434   3.9964
 12.404   3.6153
 12.375   3.1518
 12.345   2.5647
 12.316   2.0909
 12.287   1.8746
 12.258   1.8643
 12.229   1.9055
 12.200   1.9879
 12.171   1.9570
 12.143   2.0188
 12.115   2.0600
 12.086   2.1733
 12.058   2.2145
 12.030   2.2969
 12.002   2.3690
 11.975   2.4617
 11.947   2.4514
 11.920   2.5544
 11.892   2.5338
 11.865   2.6162
 11.838   2.6265
 11.811   2.6986
 11.784   2.7398
 11.757   2.8943
 11.731   2.8943
 11.704   2.8737
 11.678   2.8325
 11.652   2.9664
 11.626   2.9973
 11.600   3.1209
 11.574   3.1415
 11.548   3.1930
 11.522   3.1827
 11.497   3.2342
 11.471   3.2754
 11.446   3.3784
 11.421   3.3372
 11.396   3.4711
 11.371   3.4917
 11.346   3.5741
 11.321   3.5638
 11.297   3.5844
 11.272   3.5947
 11.248   3.6668
 11.223   3.6050
 11.199   3.6565
 11.175   3.8110
 11.151   3.9552
 11.127   3.9449
 11.103   3.9552
 11.079   3.8831
 11.056   3.8831
 11.032   3.9140
 11.009   3.9655
 10.985   3.9655
 10.962   4.0891
 10.939   4.1406
 10.916   4.1509
 10.893   4.1715
 10.870   4.2745
 10.848   4.2848
 10.825   4.3363
 10.802   4.2745
 10.780   4.3466
 10.758   4.4393
 10.735   4.5011
 10.713   4.4908
 10.691   4.5526
 10.669   4.5629
 10.647   4.6247
 10.625   4.7895
 10.604   4.9337
 10.582   4.9543
 10.560   4.9852
 10.539   5.0161
 10.518   5.1397
 10.496   5.1912
 10.475   5.3457
 10.454   5.4075
 10.433   5.4693
 10.412   5.6341
 10.391   5.8195
 10.370   5.8195
 10.350   6.0049
 10.329   6.1594
 10.309   6.3036
 10.288   6.4272
 10.268   6.6435
 10.247   6.7980
 10.227   7.0246
 10.207   7.1997
 10.187   7.4263
 10.167   7.5911
 10.147   7.8486
 10.127   8.0649
 10.108   8.3121
 10.088   8.4460
 10.068   8.6211
 10.049   8.6932
 10.029   8.8683
 10.010   9.0537
  9.991   9.3009
  9.972   9.5069
  9.952   9.7232
  9.933   9.7644
  9.914   9.8262
  9.895   9.8571
  9.877   9.9086
  9.858   9.9292
  9.839   9.9395
  9.821   9.8674
  9.802   9.7644
  9.783   9.7438
  9.765   9.8880
  9.747  10.0425
  9.728  10.3103
  9.710  10.5884
  9.692  10.8871
  9.674  11.1755
  9.656  11.5257
  9.638  11.7008
  9.620  11.8038
  9.602  11.8038
  9.585  11.8862
  9.567  11.9583
  9.549  11.9995
  9.532  11.9377
  9.514  11.8347
  9.497  11.8656
  9.479  11.9480
  9.462  11.9171
  9.445  12.1025
  9.428  12.3085
  9.411  12.6175
  9.394  12.9368
  9.377  13.3797
  9.360  13.8123
  9.343  14.2140
  9.326  14.5024
  9.309  14.7702
  9.293  14.9247
  9.276  15.0895
  9.259  15.0998
  9.243  15.0792
  9.226  15.1101
  9.210  15.1513
  9.194  15.0380
  9.178  14.9453
  9.161  14.8320
  9.145  14.7805
  9.129  14.6775
  9.113  14.6054
  9.097  14.4818
  9.081  14.3479
  9.065  14.2861
  9.049  14.2758
  9.034  14.1728
  9.018  14.1213
  9.002  14.0595
  8.987  14.0389
  8.971  13.9771
  8.956  13.9771
  8.940  13.9050
  8.925  13.9565
  8.909  14.0904
  8.894  14.2552
  8.879  14.2037
  8.864  14.1831
  8.849  14.1728
  8.834  14.1831
  8.819  14.2243
  8.804  14.2655
  8.789  14.2346
  8.774  14.2758
  8.759  14.2552
  8.744  14.2243
  8.730  14.2037
  8.715  14.2758
  8.700  14.2449
  8.686  14.1419
  8.671  13.8020
  8.657  13.3694
  8.642  12.8132
  8.628  12.2776
  8.614  12.0716
  8.599  12.4424
  8.585  13.1428
  8.571  13.8535
  8.557  14.3273
  8.543  14.6466
  8.529  14.8423
  8.515  15.0277
  8.501  15.0998
  8.487  15.1719
  8.473  15.1719
  8.459  15.2234
  8.445  15.3264
  8.431  15.3985
  8.418  15.3470
  8.404  15.3470
  8.391  15.3161
  8.377  15.3161
  8.363  15.2852
  8.350  15.2543
  8.337  15.2749
  8.323  15.2749
  8.310  15.1822
  8.297  15.2234
  8.283  15.1925
  8.270  15.1307
  8.257  15.0586
  8.244  15.0174
  8.231  15.0380
  8.218  15.0895
  8.205  14.9041
  8.192  14.6260
  8.179  14.2964
  8.166  13.8638
  8.153  13.1840
  8.140  12.4012
  8.128  11.4227
  8.115  10.5163
  8.102   9.7026
  8.090   8.9507
  8.077   8.2503
  8.064   7.6838
  8.052   7.0555
  8.039   6.5405
  8.027   6.0358
  8.015   5.6341
  8.002   5.2530
  7.990   4.9234
  7.978   4.5114
  7.965   4.1509
  7.953   3.9243
  7.941   3.7286
  7.929   3.3372
  7.917   3.1312
  7.905   2.9870
  7.893   2.7501
  7.881   2.4514
  7.869   2.3175
  7.857   2.1939
  7.845   2.1321
  7.833   2.0497
  7.821   1.9467
  7.809   1.8334
  7.798   1.8231
  7.786   1.7510
  7.774   1.7098
  7.763   1.6274
  7.751   1.5656
  7.739   1.4935
  7.728   1.5244
  7.716   1.5038
  7.705   1.4420
  7.694   1.4008
  7.682   1.4008
  7.671   1.3390
  7.659   1.2772
  7.648   1.1845
  7.637   1.1433
  7.626   1.1639
  7.614   1.2051
  7.603   1.1742
  7.592   1.1433
  7.581   1.0506
  7.570   0.9991
  7.559   0.9888
  7.548   1.0197
  7.537   0.9991
  7.526   1.0197
  7.515   0.9785
  7.504   1.0094
  7.493   0.9682
  7.483   0.9270
  7.472   0.9270
  7.461   0.9682
  7.450   0.9682
  7.440   0.9064
  7.429   0.8652
  7.418   0.9167
  7.408   0.9064
  7.397   0.8961
  7.387   0.8446
  7.376   0.8755
  7.366   0.8961
  7.355   0.8652
  7.345   0.8034
  7.334   0.8034
  7.324   0.8446
  7.314   0.9064
  7.303   0.8961
  7.293   0.8652
  7.283   0.8549
  7.273   0.9270
  7.263   0.8858
  7.252   0.8652
  7.242   0.8137
  7.232   0.8549
  7.222   0.8652
  7.212   0.8858
  7.202   0.9167
  7.192   0.9785
  7.182   0.9373
  7.172   0.9064
  7.162   0.8652
  7.152   0.9064
  7.143   0.9270
  7.133   0.9270
  7.123   0.8652
  7.113   0.8961
  7.103   0.9167
  7.094   0.9373
  7.084   0.9476
  7.074   0.9991
  7.065   0.9682
  7.055   0.9064
  7.046   0.8858
  7.036   0.9270
  7.026   0.9270
  7.017   0.9888
  7.007   0.9888
  6.998   0.9682
  6.989   0.9373
  6.979   0.9579
  6.970   0.9476
  6.960   1.0197
  6.951   1.0197
  6.942   0.9888
  6.932   0.9579
  6.923   0.9991
  6.914   1.0094
  6.905   1.0403
  6.896   1.0094
  6.886   1.0300
  6.877   1.0300
  6.868   0.9991
  6.859   0.9991
  6.850   0.9991
  6.841   0.9785
  6.832   1.0094
  6.823   1.0403
  6.814   1.0712
  6.805   1.0712
  6.796   1.0918
  6.787   1.0609
  6.778   1.0403
  6.770   1.0609
  6.761   1.0712
  6.752   1.0197
  6.743   1.0197
  6.734   1.0300
  6.726   1.0197
  6.717   0.9991
  6.708   1.0712
  6.700   1.1227
  6.691   1.1433
  6.682   1.1433
  6.674   1.1536
  6.665   1.1330
  6.657   1.1330
  6.648   1.1536
  6.640   1.1639
  6.631   1.1021
  6.623   1.1227
  6.614   1.1330
  6.606   1.0918
  6.597   1.1124
  6.589   1.1742
  6.581   1.1536
  6.572   1.1536
  6.564   1.1536
  6.556   1.1536
  6.547   1.1330
  6.539   1.1433
  6.531   1.1536
  6.523   1.1330
  6.514   1.2051
  6.506   1.3184
  6.498   1.3287
  6.490   1.3390
  6.482   1.2875
  6.474   1.2875
  6.466   1.2566
  6.458   1.2566
  6.450   1.2566
  6.442   1.2978
  6.434   1.2978
  6.426   1.3184
  6.418   1.3081
  6.410   1.3493
  6.402   1.4008
  6.394   1.4214
  6.386   1.3802
  6.378   1.3081
  6.370   1.2875
  6.363   1.3390
  6.355   1.3493
  6.347   1.3390
  6.339   1.3081
  6.332   1.2669
  6.324   1.2772
  6.316   1.3081
  6.308   1.2463
  6.301   1.2154
  6.293   1.2360
  6.286   1.2772
  6.278   1.2772
  6.270   1.2669
  6.263   1.2463
  6.255   1.2566
  6.248   1.2257
  6.240   1.2257
  6.233   1.2463
  6.225   1.2154
  6.218   1.1742
  6.210   1.2463
  6.203   1.3184
  6.195   1.2875
  6.188   1.2772
  6.181   1.2875
  6.173   1.2463
  6.166   1.2257
  6.159   1.2463
  6.151   1.2669
  6.144   1.2566
  6.137   1.2978
  6.130   1.3287
  6.122   1.3493
  6.115   1.3905
  6.108   1.3905
  6.101   1.3802
  6.094   1.3905
  6.086   1.3905
  6.079   1.4317
  6.072   1.4317
  6.065   1.4008
  6.058   1.4317
  6.051   1.5038
  6.044   1.5141
  6.037   1.5141
  6.030   1.5141
  6.023   1.4729
  6.016   1.3905
  6.009   1.4111
  6.002   1.4626
  5.995   1.4420
  5.988   1.3802
  5.981   1.4111
  5.974   1.4935
  5.967   1.5347
  5.960   1.4729
  5.954   1.4420
  5.947   1.4214
  5.940   1.4317
  5.933   1.4935
  5.926   1.5553
  5.920   1.5038
  5.913   1.4523
  5.906   1.4832
  5.899   1.4729
  5.893   1.4523
  5.886   1.5141
  5.879   1.5347
  5.873   1.5244
  5.866   1.5553
  5.859   1.6377
  5.853   1.6377
  5.846   1.6686
  5.840   1.6686
  5.833   1.6583
  5.827   1.6789
  5.820   1.6583
  5.813   1.6583
  5.807   1.6995
  5.800   1.6995
  5.794   1.6995
  5.788   1.7304
  5.781   1.7922
  5.775   1.7819
  5.768   1.7613
  5.762   1.8128
  5.755   1.7716
  5.749   1.6995
  5.743   1.7716
  5.736   1.8025
  5.730   1.8128
  5.724   1.7819
  5.717   1.7613
  5.711   1.8231
  5.705   1.8231
  5.698   1.7819
  5.692   1.8025
  5.686   1.8231
  5.680   1.8025
  5.674   1.7407
  5.667   1.7407
  5.661   1.7819
  5.655   1.8025
  5.649   1.7510
  5.643   1.7819
  5.637   1.7922
  5.630   1.7819
  5.624   1.7407
  5.618   1.7613
  5.612   1.7510
  5.606   1.6995
  5.600   1.6892
  5.594   1.7510
  5.588   1.7510
  5.582   1.7304
  5.576   1.6995
  5.570   1.7098
  5.564   1.7407
  5.558   1.7407
  5.552   1.7613
  5.546   1.8025
  5.540   1.7819
  5.534   1.7510
  5.528   1.7613
  5.523   1.8025
  5.517   1.8437
  5.511   1.8952
  5.505   1.8849
  5.499   1.8746
  5.493   1.9158
  5.487   1.9158
  5.482   1.8952
  5.476   1.9673
  5.470   2.0703
  5.464   2.1012
  5.459   2.0806
  5.453   2.0909
  5.447   2.0703
  5.441   2.0600
  5.436   2.0703
  5.430   2.1012
  5.424   2.1012
  5.419   2.0703
  5.413   2.0291
  5.407   1.9982
  5.402   2.0497
  5.396   2.0703
  5.390   2.0291
  5.385   1.9879
  5.379   1.9570
  5.374   1.9364
  5.368   1.9364
  5.363   1.9055
  5.357   1.8849
  5.352   1.9055
  5.346   1.8952
  5.341   1.9261
  5.335   1.9570
  5.330   1.9467
  5.324   1.9158
  5.319   1.9364
  5.313   1.9467
  5.308   1.9570
  5.302   1.9570
  5.297   1.9570
  5.291   1.9467
  5.286   1.9570
  5.281   1.9982
  5.275   2.0394
  5.270   2.0600
  5.265   2.1218
  5.259   2.1218
  5.254   2.1012
  5.249   2.1424
  5.243   2.2145
  5.238   2.2145
  5.233   2.2042
  5.227   2.2557
  5.222   2.3175
  5.217   2.3896
  5.212   2.4411
  5.206   2.4823
  5.201   2.5235
  5.196   2.4926
  5.191   2.4720
  5.186   2.4823
  5.180   2.5029
  5.175   2.5647
  5.170   2.5853
  5.165   2.5441
  5.160   2.5647
  5.155   2.6059
  5.150   2.6265
  5.145   2.6059
  5.139   2.6265
  5.134   2.6265
  5.129   2.6265
  5.124   2.6368
  5.119   2.6574
  5.114   2.6574
  5.109   2.6059
  5.104   2.6162
  5.099   2.6883
  5.094   2.6780
  5.089   2.6368
  5.084   2.6368
  5.079   2.6780
  5.074   2.6883
  5.069   2.6677
  5.064   2.6471
  5.059   2.6471
  5.054   2.6780
  5.049   2.6574
  5.044   2.6677
  5.040   2.6986
  5.035   2.7089
  5.030   2.6883
  5.025   2.6883
  5.020   2.6677
  5.015   2.6780
  5.010   2.7398
  5.005   2.7604
  5.001   2.7604
  4.996   2.7707
  4.991   2.7810
  4.986   2.7810
  4.981   2.7810
  4.977   2.8428
  4.972   2.9252
  4.967   2.9664
  4.962   3.0282
  4.958   3.1415
  4.953   3.2548
  4.948   3.2960
  4.943   3.3166
  4.939   3.3990
  4.934   3.4608
  4.929   3.4711
  4.925   3.4505
  4.920   3.4402
  4.915   3.5432
  4.911   3.6153
  4.906   3.6771
  4.901   3.8213
  4.897   4.0170
  4.892   4.1818
  4.888   4.3054
  4.883   4.3878
  4.878   4.5526
  4.874   4.7277
  4.869   4.8307
  4.865   4.9337
  4.860   5.0882
  4.856   5.2015
  4.851   5.2839
  4.846   5.3766
  4.842   5.4590
  4.837   5.5414
  4.833   5.5723
  4.828   5.6135
  4.824   5.6650
  4.819   5.6959
  4.815   5.7577
  4.810   5.8195
  4.806   5.8298
  4.802   5.8607
  4.797   5.9122
  4.793   5.8813
  4.788   5.8607
  4.784   5.8607
  4.779   5.8710
  4.775   5.8916
  4.771   5.8916
  4.766   5.9122
  4.762   5.9740
  4.758   6.0461
  4.753   6.1182
  4.749   6.2109
  4.744   6.3139
  4.740   6.3963
  4.736   6.4993
  4.731   6.4993
  4.727   6.5920
  4.723   6.6847
  4.719   6.6744
  4.714   6.6332
  4.710   6.6641
  4.706   6.7362
  4.701   6.7362
  4.697   6.6950
  4.693   6.6847
  4.689   6.6847
  4.684   6.6847
  4.680   6.6744
  4.676   6.6744
  4.672   6.6950
  4.668   6.8083
  4.663   6.9422
  4.659   7.0658
  4.655   7.1070
  4.651   7.2100
  4.647   7.3645
  4.643   7.4881
  4.638   7.5911
  4.634   7.7353
  4.630   7.8898
  4.626   8.0031
  4.622   8.0752
  4.618   8.1988
  4.614   8.3636
  4.610   8.4151
  4.605   8.4563
  4.601   8.5696
  4.597   8.7550
  4.593   8.9095
  4.589   9.0331
  4.585   9.1052
  4.581   9.1670
  4.577   9.2288
  4.573   9.2803
  4.569   9.3627
  4.565   9.4760
  4.561   9.5172
  4.557   9.5584
  4.553   9.5790
  4.549   9.7026
  4.545   9.7644
  4.541   9.7850
  4.537   9.8056
  4.533   9.7232
  4.529   9.6923
  4.525   9.6923
  4.521   9.6614
  4.517   9.5996
  4.513   9.5378
  4.509   9.4451
  4.505   9.3215
  4.502   9.2288
  4.498   9.2082
  4.494   9.1670
  4.490   9.0949
  4.486   9.0949
  4.482   9.1670
  4.478   9.1876
  4.474   9.2082
  4.470   9.2288
  4.467   9.1773
  4.463   9.2288
  4.459   9.4142
  4.455   9.5275
  4.451   9.6511
  4.447   9.8056
  4.444   9.9601
  4.440  10.1043
  4.436  10.2073
  4.432  10.3206
  4.428  10.4030
  4.425  10.5266
  4.421  10.6914
  4.417  10.8562
  4.413  10.9489
  4.410  11.1343
  4.406  11.2991
  4.402  11.5051
  4.398  11.7111
  4.395  11.8038
  4.391  11.9583
  4.387  12.1952
  4.384  12.4115
  4.380  12.6072
  4.376  12.8441
  4.372  13.1428
  4.369  13.3282
  4.365  13.5033
  4.361  13.7402
  4.358  13.9462
  4.354  14.0904
  4.350  14.1934
  4.347  14.3376
  4.343  14.5127
  4.340  14.6981
  4.336  14.9144
  4.332  15.0586
  4.329  15.2337
  4.325  15.3573
  4.321  15.4603
  4.318  15.4294
  4.314  15.5324
  4.311  15.6045
  4.307  15.6251
  4.304  15.6972
  4.300  15.7281
  4.296  15.8311
  4.293  15.9341
  4.289  15.9753
  4.286  16.0783
  4.282  16.1401
  4.279  16.2637
  4.275  16.3255
  4.272  16.3976
  4.268  16.5933
  4.265  16.7787
  4.261  16.9641
  4.258  17.1289
  4.254  17.2422
  4.251  17.3040
  4.247  17.3349
  4.244  17.3658
  4.240  17.3452
  4.237  17.3864
  4.233  17.5306
  4.230  17.6439
  4.226  17.7057
  4.223  17.7778
  4.219  17.7881
  4.216  17.8190
  4.213  17.8911
  4.209  17.9941
  4.206  18.0559
  4.202  18.0868
  4.199  18.1795
  4.196  18.2001
  4.192  18.2619
  4.189  18.3443
  4.185  18.3958
  4.182  18.5194
  4.179  18.5812
  4.175  18.6327
  4.172  18.7666
  4.169  18.9108
  4.165  18.9829
  4.162  19.0859
  4.159  19.1477
  4.155  19.2507
  4.152  19.3331
  4.149  19.4155
  4.145  19.5494
  4.142  19.6112
  4.139  19.6318
  4.135  19.6730
  4.132  19.8275
  4.129  19.9099
  4.126  20.0335
  4.122  20.2086
  4.119  20.2601
  4.116  20.3322
  4.112  20.4764
  4.109  20.6206
  4.106  20.7339
  4.103  20.7957
  4.099  20.8678
  4.096  20.9502
  4.093  21.0429
  4.090  21.1562
  4.086  21.2901
  4.083  21.4343
  4.080  21.4137
  4.077  21.3931
  4.074  21.4652
  4.070  21.6094
  4.067  21.6609
  4.064  21.7021
  4.061  21.7948
  4.058  21.8360
  4.055  21.8360
  4.051  21.8875
  4.048  21.8978
  4.045  21.8772
  4.042  21.8154
  4.039  21.8154
  4.036  21.8772
  4.032  21.8772
  4.029  21.8154
  4.026  21.8875
  4.023  21.9184
  4.020  21.8566
  4.017  21.9184
  4.014  22.0214
  4.011  22.0111
  4.008  22.0111
  4.004  21.9390
  4.001  21.9699
  3.998  22.0626
  3.995  22.1656
  3.992  22.1244
  3.989  22.1141
  3.986  22.1553
  3.983  22.2068
  3.980  22.2583
  3.977  22.3613
  3.974  22.3922
  3.971  22.4437
  3.968  22.5364
  3.965  22.6600
  3.962  22.7012
  3.959  22.7012
  3.956  22.7424
  3.953  22.7836
  3.950  22.8248
  3.947  22.8660
  3.944  22.8248
  3.941  22.8763
  3.938  22.9484
  3.935  23.0205
  3.932  23.1132
  3.929  23.1853
  3.926  23.1956
  3.923  23.3295
  3.920  23.3398
  3.917  23.3192
  3.914  23.3501
  3.911  23.3295
  3.908  23.2986
  3.905  23.2471
  3.902  23.2059
  3.899  23.1956
  3.896  23.1132
  3.893  23.0617
  3.890  23.0411
  3.887  23.0411
  3.884  23.0926
  3.882  23.0823
  3.879  23.1132
  3.876  23.1544
  3.873  23.0720
  3.870  22.9587
  3.867  22.9072
  3.864  22.8660
  3.861  22.8557
  3.858  22.8557
  3.856  22.8248
  3.853  22.8866
  3.850  22.8763
  3.847  22.9072
  3.844  22.8969
  3.841  22.9381
  3.838  22.9484
  3.836  22.8557
  3.833  22.7527
  3.830  22.8454
  3.827  22.8969
  3.824  22.8660
  3.822  22.8351
  3.819  22.9278
  3.816  23.0308
  3.813  23.0411
  3.810  22.9587
  3.807  22.9690
  3.805  22.9381
  3.802  22.9278
  3.799  22.9896
  3.796  23.0205
  3.794  22.8763
  3.791  22.8763
  3.788  22.8660
  3.785  22.7733
  3.782  22.7527
  3.780  22.7012
  3.777  22.6291
  3.774  22.5158
  3.771  22.4643
  3.769  22.4437
  3.766  22.4231
  3.763  22.4025
  3.761  22.2892
  3.758  22.1553
  3.755  22.0935
  3.752  21.9905
  3.750  21.9184
  3.747  21.9081
  3.744  21.9493
  3.742  21.9905
  3.739  21.8566
  3.736  21.7639
  3.733  21.7227
  3.731  21.6815
  3.728  21.6712
  3.725  21.6403
  3.723  21.6609
  3.720  21.6609
  3.717  21.6712
  3.715  21.6609
  3.712  21.5476
  3.709  21.5579
  3.707  21.5476
  3.704  21.5579
  3.702  21.5682
  3.699  21.5991
  3.696  21.5167
  3.694  21.4549
  3.691  21.4446
  3.688  21.5064
  3.686  21.5785
  3.683  21.6197
  3.680  21.5888
  3.678  21.4858
  3.675  21.4652
  3.673  21.5888
  3.670  21.6300
  3.667  21.5579
  3.665  21.4446
  3.662  21.4240
  3.660  21.3931
  3.657  21.3416
  3.655  21.3313
  3.652  21.3931
  3.649  21.2901
  3.647  21.1356
  3.644  21.1459
  3.642  21.2386
  3.639  21.1356
  3.637  21.0429
  3.634  20.9708
  3.632  20.8987
  3.629  20.8266
  3.626  20.7545
  3.624  20.7030
  3.621  20.6412
  3.619  20.5073
  3.616  20.4764
  3.614  20.4558
  3.611  20.4043
  3.609  20.3116
  3.606  20.2601
  3.604  20.1571
  3.601  20.0232
  3.599  19.9099
  3.596  19.8275
  3.594  19.7245
  3.591  19.6215
  3.589  19.4567
  3.586  19.4979
  3.584  19.4979
  3.581  19.4155
