Name: Basalt
Type: Rock
Class: Igneous
Subclass: Mafic
Particle Size: Whole rock chips
Sample No.: Me13a
Owner: Lawrence Rowan, USGS Reston
Wavelength range: 0.40 - 14.05 um
Origin: Kerak Plateau, Middle East

Description: Basalt, fresh surface





Measurement: Directional Hemispherical Reflectance
First Column: X
Second Column: Y
X Units: Wavelength (micrometers)
Y Units: Reflectance (percent)
First X Value: 14.05105
Last X Value: 0.40000
Number of X Values: 2231
Additional Information: me13aa.txt

 14.051   3.3269
 14.013   3.2651
 13.975   3.2239
 13.938   3.2857
 13.900   3.4608
 13.863   3.4402
 13.826   3.5020
 13.790   3.4814
 13.753   3.5741
 13.717   3.4814
 13.680   3.4814
 13.644   3.4608
 13.609   3.5226
 13.573   3.4711
 13.538   3.5741
 13.502   3.5741
 13.467   3.6462
 13.432   3.5947
 13.398   3.6359
 13.363   3.6153
 13.329   3.7080
 13.295   3.6977
 13.261   3.7698
 13.227   3.7595
 13.193   3.7698
 13.160   3.6771
 13.126   3.7801
 13.093   3.8419
 13.060   3.8522
 13.027   3.8007
 12.995   3.8522
 12.962   3.8934
 12.930   3.9243
 12.898   3.9037
 12.866   3.9449
 12.834   3.9243
 12.802   3.9552
 12.771   3.9037
 12.739   3.9758
 12.708   3.9449
 12.677   3.9552
 12.646   3.8934
 12.616   3.9037
 12.585   3.9655
 12.554   4.1097
 12.524   4.0994
 12.494   4.1509
 12.464   4.2024
 12.434   4.3260
 12.404   4.2848
 12.375   4.3569
 12.345   4.3569
 12.316   4.4908
 12.287   4.5423
 12.258   4.6865
 12.229   4.8204
 12.200   5.0161
 12.171   5.0985
 12.143   5.2015
 12.115   5.2427
 12.086   5.3560
 12.058   5.4281
 12.030   5.6135
 12.002   5.7577
 11.975   5.8401
 11.947   5.8195
 11.920   5.9122
 11.892   5.9225
 11.865   6.0049
 11.838   6.0667
 11.811   6.2315
 11.784   6.2727
 11.757   6.4478
 11.731   6.5817
 11.704   6.7465
 11.678   6.8289
 11.652   6.9937
 11.626   7.0864
 11.600   7.2512
 11.574   7.3954
 11.548   7.6323
 11.522   7.8383
 11.497   8.0752
 11.471   8.2400
 11.446   8.5284
 11.421   8.7447
 11.396   8.9198
 11.371   9.0228
 11.346   9.2597
 11.321   9.4657
 11.297   9.6820
 11.272   9.7850
 11.248   9.8777
 11.223   9.8983
 11.199   9.9601
 11.175   9.9910
 11.151  10.1661
 11.127  10.2897
 11.103  10.3824
 11.079  10.4133
 11.056  10.5781
 11.032  10.6811
 11.009  10.8150
 10.985  10.8665
 10.962  10.9592
 10.939  11.0416
 10.916  11.1240
 10.893  11.1652
 10.870  11.3300
 10.848  11.4124
 10.825  11.4742
 10.802  11.4330
 10.780  11.4845
 10.758  11.5154
 10.735  11.5566
 10.713  11.4845
 10.691  11.4845
 10.669  11.4639
 10.647  11.5360
 10.625  11.5566
 10.604  11.4536
 10.582  11.3403
 10.560  11.3094
 10.539  11.2373
 10.518  11.2373
 10.496  11.2167
 10.475  11.2373
 10.454  11.1961
 10.433  11.2373
 10.412  11.2579
 10.391  11.3506
 10.370  11.4227
 10.350  11.4742
 10.329  11.5360
 10.309  11.6081
 10.288  11.5978
 10.268  11.5772
 10.247  11.5978
 10.227  11.6596
 10.207  11.6287
 10.187  11.6699
 10.167  11.5772
 10.147  11.5772
 10.127  11.6493
 10.108  11.7008
 10.088  11.7729
 10.068  11.9068
 10.049  11.9789
 10.029  12.0716
 10.010  12.1025
  9.991  12.1746
  9.972  12.2158
  9.952  12.3085
  9.933  12.4218
  9.914  12.5454
  9.895  12.6072
  9.877  12.6072
  9.858  12.6175
  9.839  12.6587
  9.821  12.6175
  9.802  12.6484
  9.783  12.7514
  9.765  12.8235
  9.747  12.6690
  9.728  12.6690
  9.710  12.8235
  9.692  12.9265
  9.674  12.8750
  9.656  12.7926
  9.638  12.6896
  9.620  12.6793
  9.602  12.6587
  9.585  12.6278
  9.567  12.5042
  9.549  12.4218
  9.532  12.2776
  9.514  12.2261
  9.497  12.1952
  9.479  12.1025
  9.462  11.8553
  9.445  11.6905
  9.428  11.5257
  9.411  11.4227
  9.394  11.1961
  9.377  10.9283
  9.360  10.6811
  9.343  10.4957
  9.326  10.2588
  9.309  10.1352
  9.293   9.9601
  9.276   9.7953
  9.259   9.6305
  9.243   9.4966
  9.226   9.2906
  9.210   9.3009
  9.194   9.2494
  9.178   9.1979
  9.161   9.1464
  9.145   9.1361
  9.129   9.1258
  9.113   9.1464
  9.097   9.1361
  9.081   9.2494
  9.065   9.3215
  9.049   9.4142
  9.034   9.4245
  9.018   9.4863
  9.002   9.4039
  8.987   9.3627
  8.971   9.2803
  8.956   9.3318
  8.940   9.3627
  8.925   9.3936
  8.909   9.4245
  8.894   9.4554
  8.879   9.3112
  8.864   9.1979
  8.849   9.1464
  8.834   9.1876
  8.819   9.1258
  8.804   9.0949
  8.789   9.0743
  8.774   9.1773
  8.759   9.1155
  8.744   9.0331
  8.730   8.9610
  8.715   8.9095
  8.700   8.8477
  8.686   8.8683
  8.671   8.8580
  8.657   8.8168
  8.642   8.7653
  8.628   8.7344
  8.614   8.6417
  8.599   8.5799
  8.585   8.4666
  8.571   8.4048
  8.557   8.4254
  8.543   8.4666
  8.529   8.3842
  8.515   8.3018
  8.501   8.1885
  8.487   8.1267
  8.473   8.0958
  8.459   8.0752
  8.445   7.9104
  8.431   7.8383
  8.418   7.8074
  8.404   7.7559
  8.391   7.5602
  8.377   7.4675
  8.363   7.3645
  8.350   7.2100
  8.337   6.9319
  8.323   6.7259
  8.310   6.5405
  8.297   6.3345
  8.283   6.0255
  8.270   5.7165
  8.257   5.3457
  8.244   4.9852
  8.231   4.5938
  8.218   4.2848
  8.205   3.9243
  8.192   3.6153
  8.179   3.3475
  8.166   3.1415
  8.153   2.9355
  8.140   2.8325
  8.128   2.6986
  8.115   2.6162
  8.102   2.4617
  8.090   2.3793
  8.077   2.2454
  8.064   2.1733
  8.052   2.1630
  8.039   2.1527
  8.027   2.0806
  8.015   2.0497
  8.002   2.0085
  7.990   2.0085
  7.978   1.9364
  7.965   1.8746
  7.953   1.8437
  7.941   1.9055
  7.929   1.8849
  7.917   1.8746
  7.905   1.8025
  7.893   1.8128
  7.881   1.7716
  7.869   1.7716
  7.857   1.7819
  7.845   1.8025
  7.833   1.7922
  7.821   1.7922
  7.809   1.7819
  7.798   1.7613
  7.786   1.7613
  7.774   1.7819
  7.763   1.7922
  7.751   1.8231
  7.739   1.8025
  7.728   1.8437
  7.716   1.8643
  7.705   1.8128
  7.694   1.7716
  7.682   1.8437
  7.671   1.8540
  7.659   1.8952
  7.648   1.9673
  7.637   1.9982
  7.626   1.9261
  7.614   1.9261
  7.603   1.9364
  7.592   1.9261
  7.581   1.8643
  7.570   1.8952
  7.559   1.8746
  7.548   1.9158
  7.537   1.9776
  7.526   1.9570
  7.515   1.9364
  7.504   1.9776
  7.493   1.9982
  7.483   1.9879
  7.472   1.9776
  7.461   2.0394
  7.450   2.0188
  7.440   2.0806
  7.429   2.0909
  7.418   2.0909
  7.408   2.0600
  7.397   2.0806
  7.387   2.1012
  7.376   2.1115
  7.366   2.1115
  7.355   2.1836
  7.345   2.1939
  7.334   2.1836
  7.324   2.1836
  7.314   2.1836
  7.303   2.1630
  7.293   2.1939
  7.283   2.2351
  7.273   2.2763
  7.263   2.3072
  7.252   2.3587
  7.242   2.2969
  7.232   2.3072
  7.222   2.3690
  7.212   2.4102
  7.202   2.4411
  7.192   2.4823
  7.182   2.4720
  7.172   2.4926
  7.162   2.5029
  7.152   2.5750
  7.143   2.6471
  7.133   2.6265
  7.123   2.6059
  7.113   2.6677
  7.103   2.6883
  7.094   2.7501
  7.084   2.7295
  7.074   2.7810
  7.065   2.8222
  7.055   2.8325
  7.046   2.8222
  7.036   2.8531
  7.026   2.8737
  7.017   2.8428
  7.007   2.8634
  6.998   2.8943
  6.989   2.8840
  6.979   2.9561
  6.970   2.9767
  6.960   2.9973
  6.951   3.0076
  6.942   3.0694
  6.932   3.0797
  6.923   3.0694
  6.914   3.0591
  6.905   3.0694
  6.896   3.0282
  6.886   2.9767
  6.877   2.9767
  6.868   3.0797
  6.859   3.0900
  6.850   3.0694
  6.841   3.0282
  6.832   3.1209
  6.823   3.1930
  6.814   3.1621
  6.805   3.1209
  6.796   3.1724
  6.787   3.1518
  6.778   3.2136
  6.770   3.2754
  6.761   3.3166
  6.752   3.1724
  6.743   3.1003
  6.734   3.1415
  6.726   3.2033
  6.717   3.2754
  6.708   3.3372
  6.700   3.3578
  6.691   3.3784
  6.682   3.3372
  6.674   3.3475
  6.665   3.3063
  6.657   3.3166
  6.648   3.3372
  6.640   3.4505
  6.631   3.5020
  6.623   3.4402
  6.614   3.3887
  6.606   3.3578
  6.597   3.3578
  6.589   3.3990
  6.581   3.4299
  6.572   3.4299
  6.564   3.4299
  6.556   3.4814
  6.547   3.4608
  6.539   3.4196
  6.531   3.4093
  6.523   3.4196
  6.514   3.4505
  6.506   3.4505
  6.498   3.4299
  6.490   3.4402
  6.482   3.4299
  6.474   3.3681
  6.466   3.3063
  6.458   3.2960
  6.450   3.3372
  6.442   3.2857
  6.434   3.2033
  6.426   3.1827
  6.418   3.1415
  6.410   3.0900
  6.402   3.0591
  6.394   3.0694
  6.386   3.0076
  6.378   2.9561
  6.370   2.9664
  6.363   2.9870
  6.355   2.8840
  6.347   2.8222
  6.339   2.8428
  6.332   2.8325
  6.324   2.7501
  6.316   2.6883
  6.308   2.6471
  6.301   2.6986
  6.293   2.7707
  6.286   2.7913
  6.278   2.7604
  6.270   2.7913
  6.263   2.7810
  6.255   2.7192
  6.248   2.6883
  6.240   2.6677
  6.233   2.6368
  6.225   2.6677
  6.218   2.7295
  6.210   2.6986
  6.203   2.6574
  6.195   2.6677
  6.188   2.6368
  6.181   2.6677
  6.173   2.6677
  6.166   2.6265
  6.159   2.5853
  6.151   2.5956
  6.144   2.6368
  6.137   2.6265
  6.130   2.5956
  6.122   2.6059
  6.115   2.5647
  6.108   2.5441
  6.101   2.5647
  6.094   2.5647
  6.086   2.5235
  6.079   2.5544
  6.072   2.5750
  6.065   2.5853
  6.058   2.5853
  6.051   2.6471
  6.044   2.6368
  6.037   2.6059
  6.030   2.6368
  6.023   2.6986
  6.016   2.6368
  6.009   2.5853
  6.002   2.6265
  5.995   2.6471
  5.988   2.6677
  5.981   2.6677
  5.974   2.6471
  5.967   2.6471
  5.960   2.7089
  5.954   2.8222
  5.947   2.8222
  5.940   2.7707
  5.933   2.7398
  5.926   2.7604
  5.920   2.8325
  5.913   2.8840
  5.906   2.8428
  5.899   2.8222
  5.893   2.8531
  5.886   2.8943
  5.879   2.8840
  5.873   2.8943
  5.866   2.8737
  5.859   2.8737
  5.853   2.8943
  5.846   2.9355
  5.840   2.9767
  5.833   3.0179
  5.827   3.0076
  5.820   3.0282
  5.813   3.0385
  5.807   3.0282
  5.800   2.9767
  5.794   3.0282
  5.788   3.0694
  5.781   3.0591
  5.775   3.0385
  5.768   3.0591
  5.762   3.0900
  5.755   3.1312
  5.749   3.1312
  5.743   3.1106
  5.736   3.0900
  5.730   3.0591
  5.724   3.0694
  5.717   3.1106
  5.711   3.1003
  5.705   3.1003
  5.698   3.0900
  5.692   3.0797
  5.686   3.1003
  5.680   3.1209
  5.674   3.1621
  5.667   3.2239
  5.661   3.2239
  5.655   3.1621
  5.649   3.1209
  5.643   3.1415
  5.637   3.1930
  5.630   3.2239
  5.624   3.2239
  5.618   3.2342
  5.612   3.2136
  5.606   3.2445
  5.600   3.2754
  5.594   3.2754
  5.588   3.2857
  5.582   3.2754
  5.576   3.2136
  5.570   3.2445
  5.564   3.2960
  5.558   3.2754
  5.552   3.2342
  5.546   3.2651
  5.540   3.2857
  5.534   3.3063
  5.528   3.3372
  5.523   3.3269
  5.517   3.2857
  5.511   3.3166
  5.505   3.3784
  5.499   3.3887
  5.493   3.3681
  5.487   3.3784
  5.482   3.3887
  5.476   3.4093
  5.470   3.4402
  5.464   3.4196
  5.459   3.3990
  5.453   3.4196
  5.447   3.4299
  5.441   3.4814
  5.436   3.4711
  5.430   3.4814
  5.424   3.5226
  5.419   3.5432
  5.413   3.5432
  5.407   3.5432
  5.402   3.5535
  5.396   3.5535
  5.390   3.5329
  5.385   3.5638
  5.379   3.6153
  5.374   3.5741
  5.368   3.5432
  5.363   3.5741
  5.357   3.5741
  5.352   3.5535
  5.346   3.6050
  5.341   3.6462
  5.335   3.6153
  5.330   3.6153
  5.324   3.6565
  5.319   3.6771
  5.313   3.6771
  5.308   3.7080
  5.302   3.6874
  5.297   3.6565
  5.291   3.6668
  5.286   3.6874
  5.281   3.6874
  5.275   3.6977
  5.270   3.6977
  5.265   3.7286
  5.259   3.7904
  5.254   3.7801
  5.249   3.7492
  5.243   3.7595
  5.238   3.7492
  5.233   3.7595
  5.227   3.7904
  5.222   3.7904
  5.217   3.7698
  5.212   3.8213
  5.206   3.8522
  5.201   3.8728
  5.196   3.8625
  5.191   3.8625
  5.186   3.8934
  5.180   3.8831
  5.175   3.8728
  5.170   3.8831
  5.165   3.9140
  5.160   3.9037
  5.155   3.9140
  5.150   3.9449
  5.145   3.9552
  5.139   3.9655
  5.134   3.9861
  5.129   4.0067
  5.124   4.0170
  5.119   3.9964
  5.114   4.0067
  5.109   3.9964
  5.104   3.9758
  5.099   3.9655
  5.094   4.0067
  5.089   3.9964
  5.084   3.9964
  5.079   4.0273
  5.074   4.0582
  5.069   4.0891
  5.064   4.0891
  5.059   4.0376
  5.054   4.0685
  5.049   4.1406
  5.044   4.1509
  5.040   4.1509
  5.035   4.1921
  5.030   4.1303
  5.025   4.1200
  5.020   4.1406
  5.015   4.1715
  5.010   4.2024
  5.005   4.2333
  5.001   4.2024
  4.996   4.1818
  4.991   4.1818
  4.986   4.1818
  4.981   4.2230
  4.977   4.2745
  4.972   4.2848
  4.967   4.2333
  4.962   4.2230
  4.958   4.3157
  4.953   4.3775
  4.948   4.3775
  4.943   4.3569
  4.939   4.3569
  4.934   4.3054
  4.929   4.2642
  4.925   4.2951
  4.920   4.3466
  4.915   4.3878
  4.911   4.3672
  4.906   4.3775
  4.901   4.4290
  4.897   4.4393
  4.892   4.4599
  4.888   4.4599
  4.883   4.4290
  4.878   4.4496
  4.874   4.4599
  4.869   4.4290
  4.865   4.3981
  4.860   4.4496
  4.856   4.4908
  4.851   4.4805
  4.846   4.4702
  4.842   4.4908
  4.837   4.5114
  4.833   4.4908
  4.828   4.4702
  4.824   4.4496
  4.819   4.5011
  4.815   4.5732
  4.810   4.5526
  4.806   4.5320
  4.802   4.5526
  4.797   4.5835
  4.793   4.5732
  4.788   4.5835
  4.784   4.5938
  4.779   4.5732
  4.775   4.5732
  4.771   4.5526
  4.766   4.5732
  4.762   4.6659
  4.758   4.7174
  4.753   4.6968
  4.749   4.6556
  4.744   4.6453
  4.740   4.6865
  4.736   4.7277
  4.731   4.7174
  4.727   4.6659
  4.723   4.6556
  4.719   4.7380
  4.714   4.7689
  4.710   4.7792
  4.706   4.7895
  4.701   4.7689
  4.697   4.7689
  4.693   4.8101
  4.689   4.8616
  4.684   4.8925
  4.680   4.8719
  4.676   4.8204
  4.672   4.8616
  4.668   4.8616
  4.663   4.8307
  4.659   4.8410
  4.655   4.8616
  4.651   4.8822
  4.647   4.8925
  4.643   4.9337
  4.638   4.9543
  4.634   4.8616
  4.630   4.8616
  4.626   4.9131
  4.622   4.9131
  4.618   4.9646
  4.614   5.0161
  4.610   5.0058
  4.605   5.0264
  4.601   5.0779
  4.597   5.0779
  4.593   5.0676
  4.589   5.0367
  4.585   4.9852
  4.581   5.0470
  4.577   5.0573
  4.573   5.0676
  4.569   5.0882
  4.565   5.0985
  4.561   5.1294
  4.557   5.1397
  4.553   5.1500
  4.549   5.1912
  4.545   5.2633
  4.541   5.2942
  4.537   5.2839
  4.533   5.2530
  4.529   5.2118
  4.525   5.1912
  4.521   5.1912
  4.517   5.2015
  4.513   5.2736
  4.509   5.3251
  4.505   5.2633
  4.502   5.2530
  4.498   5.3045
  4.494   5.3457
  4.490   5.3354
  4.486   5.3045
  4.482   5.3354
  4.478   5.3251
  4.474   5.3663
  4.470   5.4590
  4.467   5.4693
  4.463   5.3663
  4.459   5.3354
  4.455   5.4178
  4.451   5.4693
  4.447   5.4693
  4.444   5.3972
  4.440   5.4384
  4.436   5.4487
  4.432   5.4899
  4.428   5.5414
  4.425   5.5002
  4.421   5.4487
  4.417   5.4796
  4.413   5.5517
  4.410   5.5620
  4.406   5.5311
  4.402   5.5620
  4.398   5.5620
  4.395   5.5208
  4.391   5.5414
  4.387   5.5517
  4.384   5.5208
  4.380   5.5002
  4.376   5.5208
  4.372   5.6032
  4.369   5.6341
  4.365   5.6238
  4.361   5.5826
  4.358   5.6238
  4.354   5.7062
  4.350   5.6856
  4.347   5.5826
  4.343   5.6135
  4.340   5.6547
  4.336   5.6753
  4.332   5.6444
  4.329   5.6341
  4.325   5.6753
  4.321   5.7062
  4.318   5.7886
  4.314   5.7680
  4.311   5.7062
  4.307   5.7268
  4.304   5.7886
  4.300   5.8710
  4.296   5.8607
  4.293   5.9328
  4.289   5.9534
  4.286   5.9225
  4.282   5.9431
  4.279   5.9431
  4.275   5.9225
  4.272   5.8916
  4.268   5.8607
  4.265   5.8710
  4.261   5.8710
  4.258   5.8092
  4.254   5.8195
  4.251   5.9122
  4.247   5.9843
  4.244   6.0461
  4.240   5.9843
  4.237   5.9843
  4.233   6.0976
  4.230   6.0873
  4.226   5.9637
  4.223   5.9534
  4.219   5.9946
  4.216   6.0461
  4.213   6.0770
  4.209   6.0564
  4.206   5.9637
  4.202   5.8710
  4.199   5.8298
  4.196   5.8092
  4.192   5.8504
  4.189   5.9122
  4.185   5.9019
  4.182   5.9122
  4.179   5.8916
  4.175   5.8195
  4.172   5.7577
  4.169   5.8298
  4.165   5.9328
  4.162   5.9534
  4.159   5.9225
  4.155   5.9637
  4.152   5.9843
  4.149   5.9843
  4.145   5.9225
  4.142   5.8401
  4.139   5.8813
  4.135   5.9843
  4.132   5.9534
  4.129   5.9328
  4.126   5.9431
  4.122   5.9122
  4.119   5.9637
  4.116   5.9946
  4.112   5.9843
  4.109   5.9328
  4.106   5.9122
  4.103   5.9225
  4.099   5.9122
  4.096   5.9637
  4.093   6.0461
  4.090   6.0873
  4.086   6.0255
  4.083   5.9637
  4.080   5.9946
  4.077   6.0873
  4.074   6.0873
  4.070   6.0049
  4.067   5.9122
  4.064   5.9431
  4.061   6.0049
  4.058   5.9740
  4.055   5.9019
  4.051   5.9019
  4.048   5.8813
  4.045   5.9019
  4.042   5.8813
  4.039   5.9637
  4.036   5.9946
  4.032   5.9534
  4.029   5.8916
  4.026   5.9534
  4.023   5.9431
  4.020   5.8813
  4.017   5.8195
  4.014   5.8195
  4.011   5.9328
  4.008   5.9534
  4.004   5.8710
  4.001   5.8504
  3.998   5.8504
  3.995   5.8401
  3.992   5.8607
  3.989   5.9019
  3.986   5.9019
  3.983   5.8607
  3.980   5.7886
  3.977   5.7989
  3.974   5.7989
  3.971   5.7989
  3.968   5.8195
  3.965   5.9328
  3.962   5.9431
  3.959   5.9019
  3.956   5.9328
  3.953   5.9637
  3.950   5.8916
  3.947   5.9431
  3.944   5.9431
  3.941   5.8813
  3.938   5.8607
  3.935   5.9122
  3.932   5.9328
  3.929   5.9225
  3.926   5.9122
  3.923   5.9534
  3.920   6.0049
  3.917   5.9843
  3.914   5.9225
  3.911   6.0255
  3.908   6.0255
  3.905   5.9431
  3.902   5.9534
  3.899   5.9843
  3.896   5.9431
  3.893   5.9534
  3.890   5.9328
  3.887   6.0358
  3.884   6.1079
  3.882   6.0976
  3.879   6.0976
  3.876   6.0358
  3.873   5.9534
  3.870   6.0667
  3.867   6.0564
  3.864   5.9534
  3.861   5.9946
  3.858   6.0461
  3.856   6.0255
  3.853   6.0564
  3.850   6.0564
  3.847   6.0358
  3.844   5.9740
  3.841   6.0461
  3.838   6.1182
  3.836   6.0873
  3.833   6.0255
  3.830   5.9534
  3.827   5.9431
  3.824   6.0564
  3.822   6.1079
  3.819   6.0976
  3.816   6.0667
  3.813   6.1285
  3.810   6.2006
  3.807   6.1079
  3.805   6.0564
  3.802   6.0976
  3.799   6.0770
  3.796   6.0461
  3.794   6.1079
  3.791   6.1594
  3.788   6.1388
  3.785   6.1388
  3.782   6.1079
  3.780   6.1491
  3.777   6.1388
  3.774   6.1182
  3.771   6.1594
  3.769   6.1697
  3.766   6.1182
  3.763   6.1594
  3.761   6.1697
  3.758   6.2315
  3.755   6.2212
  3.752   6.2006
  3.750   6.1285
  3.747   6.1594
  3.744   6.2212
  3.742   6.1594
  3.739   6.0873
  3.736   6.1285
  3.733   6.1697
  3.731   6.1388
  3.728   6.1079
  3.725   6.0976
  3.723   6.0976
  3.720   6.1285
  3.717   6.1285
  3.715   6.2109
  3.712   6.1903
  3.709   6.1285
  3.707   6.0976
  3.704   6.1182
  3.702   6.0873
  3.699   6.1491
  3.696   6.1285
  3.694   6.0770
  3.691   6.0873
  3.688   6.1491
  3.686   6.1491
  3.683   6.1594
  3.680   6.0667
  3.678   6.0049
  3.675   5.9225
  3.673   6.0358
  3.670   6.1491
  3.667   6.1182
  3.665   6.0873
  3.662   6.1079
  3.660   6.0976
  3.657   6.1388
  3.655   6.0976
  3.652   6.0873
  3.649   6.0461
  3.647   6.0770
  3.644   6.0667
  3.642   6.0255
  3.639   6.0049
  3.637   5.9534
  3.634   5.9225
  3.632   6.0976
  3.629   6.1388
  3.626   6.1697
  3.624   6.1697
  3.621   6.1182
  3.619   6.0049
  3.616   5.9637
  3.614   5.9946
  3.611   6.0049
  3.609   5.9534
  3.606   5.9946
  3.604   6.0358
  3.601   6.0770
  3.599   6.0770
  3.596   6.1079
  3.594   6.0976
  3.591   6.0049
  3.589   5.8298
  3.586   5.7989
  3.584   5.8916
  3.581   5.9431
  3.579   5.9534
