Name: Basalt
Type: Rock
Class: Igneous
Subclass: Mafic
Particle Size: Whole rock chips
Sample No.: Me64
Owner: Lawrence Rowan, USGS Reston
Wavelength range: 0.40 - 14.05 um
Origin: Tel Megadiur, Middle East

Description: Basalt, fresh surface





Measurement: Directional Hemispherical Reflectance
First Column: X
Second Column: Y
X Units: Wavelength (micrometers)
Y Units: Reflectance (percent)
First X Value: 14.05105
Last X Value: 0.40000
Number of X Values: 2231
Additional Information: me64a.txt

 14.051   2.2351
 14.013   2.0703
 13.975   2.2557
 13.938   2.2557
 13.900   2.3587
 13.863   2.2660
 13.826   2.2557
 13.790   2.2351
 13.753   2.3381
 13.717   2.2763
 13.680   2.2763
 13.644   2.1527
 13.609   2.2351
 13.573   2.2454
 13.538   2.3175
 13.502   2.2660
 13.467   2.3690
 13.432   2.4102
 13.398   2.4617
 13.363   2.4205
 13.329   2.4926
 13.295   2.4308
 13.261   2.4102
 13.227   2.4205
 13.193   2.4720
 13.160   2.3690
 13.126   2.3896
 13.093   2.2557
 13.060   2.3072
 13.027   2.3896
 12.995   2.4411
 12.962   2.3587
 12.930   2.3999
 12.898   2.4102
 12.866   2.4926
 12.834   2.4102
 12.802   2.4102
 12.771   2.4205
 12.739   2.4823
 12.708   2.4205
 12.677   2.4514
 12.646   2.4411
 12.616   2.4720
 12.585   2.3999
 12.554   2.4926
 12.524   2.5235
 12.494   2.5441
 12.464   2.4720
 12.434   2.6059
 12.404   2.7089
 12.375   2.7810
 12.345   2.7913
 12.316   2.8016
 12.287   2.7913
 12.258   2.9561
 12.229   3.0076
 12.200   2.9767
 12.171   2.9252
 12.143   3.0694
 12.115   3.1312
 12.086   3.2754
 12.058   3.2960
 12.030   3.3990
 12.002   3.3681
 11.975   3.3475
 11.947   3.3784
 11.920   3.4711
 11.892   3.4299
 11.865   3.3681
 11.838   3.2445
 11.811   3.3372
 11.784   3.4917
 11.757   3.6462
 11.731   3.5741
 11.704   3.5226
 11.678   3.5741
 11.652   3.7286
 11.626   3.7698
 11.600   3.8522
 11.574   3.8934
 11.548   4.1097
 11.522   4.2539
 11.497   4.3775
 11.471   4.4290
 11.446   4.5629
 11.421   4.6762
 11.396   4.7689
 11.371   4.8307
 11.346   4.9749
 11.321   4.9955
 11.297   5.1294
 11.272   5.2942
 11.248   5.3354
 11.223   5.1706
 11.199   5.1294
 11.175   5.0985
 11.151   5.2015
 11.127   5.1912
 11.103   5.2324
 11.079   5.2530
 11.056   5.2530
 11.032   5.2736
 11.009   5.3972
 10.985   5.3972
 10.962   5.4075
 10.939   5.4384
 10.916   5.4796
 10.893   5.4693
 10.870   5.6135
 10.848   5.6135
 10.825   5.5723
 10.802   5.5414
 10.780   5.5311
 10.758   5.4487
 10.735   5.4899
 10.713   5.4590
 10.691   5.4899
 10.669   5.4693
 10.647   5.4178
 10.625   5.2736
 10.604   5.2015
 10.582   5.2427
 10.560   5.3045
 10.539   5.2633
 10.518   5.3148
 10.496   5.2839
 10.475   5.2427
 10.454   5.2324
 10.433   5.3148
 10.412   5.2839
 10.391   5.2736
 10.370   5.2633
 10.350   5.2736
 10.329   5.1809
 10.309   5.2221
 10.288   5.2221
 10.268   5.2118
 10.247   5.1912
 10.227   5.2015
 10.207   5.1603
 10.187   5.1912
 10.167   5.1706
 10.147   5.1603
 10.127   5.1603
 10.108   5.3148
 10.088   5.3457
 10.068   5.3457
 10.049   5.3457
 10.029   5.4075
 10.010   5.3972
  9.991   5.4796
  9.972   5.5208
  9.952   5.5517
  9.933   5.5929
  9.914   5.6135
  9.895   5.5414
  9.877   5.6238
  9.858   5.6959
  9.839   5.7680
  9.821   5.7165
  9.802   5.6547
  9.783   5.6032
  9.765   5.6856
  9.747   5.6959
  9.728   5.6753
  9.710   5.6959
  9.692   5.7680
  9.674   5.7371
  9.656   5.6753
  9.638   5.6341
  9.620   5.7062
  9.602   5.6753
  9.585   5.5620
  9.567   5.4487
  9.549   5.4899
  9.532   5.4487
  9.514   5.3766
  9.497   5.3457
  9.479   5.3251
  9.462   5.2530
  9.445   5.1912
  9.428   5.0779
  9.411   5.1088
  9.394   5.0882
  9.377   5.0779
  9.360   4.9646
  9.343   4.8616
  9.326   4.6865
  9.309   4.6865
  9.293   4.7792
  9.276   4.8616
  9.259   4.7689
  9.243   4.7277
  9.226   4.6453
  9.210   4.6144
  9.194   4.5114
  9.178   4.5835
  9.161   4.6247
  9.145   4.6350
  9.129   4.5835
  9.113   4.6041
  9.097   4.6041
  9.081   4.6865
  9.065   4.6041
  9.049   4.5732
  9.034   4.5835
  9.018   4.6350
  9.002   4.6144
  8.987   4.6350
  8.971   4.6453
  8.956   4.6041
  8.940   4.5217
  8.925   4.6144
  8.909   4.5629
  8.894   4.4702
  8.879   4.3981
  8.864   4.4084
  8.849   4.3260
  8.834   4.3157
  8.819   4.2642
  8.804   4.2539
  8.789   4.1612
  8.774   4.1612
  8.759   4.0788
  8.744   4.1200
  8.730   4.0685
  8.715   3.9655
  8.700   3.9449
  8.686   3.9655
  8.671   3.9140
  8.657   3.9243
  8.642   3.9243
  8.628   3.8625
  8.614   3.7698
  8.599   3.7286
  8.585   3.6256
  8.571   3.5844
  8.557   3.5638
  8.543   3.5844
  8.529   3.5020
  8.515   3.4711
  8.501   3.4196
  8.487   3.4505
  8.473   3.3784
  8.459   3.2754
  8.445   3.2651
  8.431   3.2342
  8.418   3.1518
  8.404   3.1106
  8.391   3.0694
  8.377   3.0797
  8.363   3.0488
  8.350   3.0179
  8.337   2.8943
  8.323   2.7295
  8.310   2.5750
  8.297   2.5338
  8.283   2.4926
  8.270   2.4720
  8.257   2.2866
  8.244   2.1527
  8.231   2.0497
  8.218   1.9364
  8.205   1.8025
  8.192   1.7922
  8.179   1.7201
  8.166   1.5862
  8.153   1.4935
  8.140   1.5244
  8.128   1.4832
  8.115   1.4317
  8.102   1.3699
  8.090   1.4420
  8.077   1.4729
  8.064   1.4111
  8.052   1.2360
  8.039   1.2154
  8.027   1.2875
  8.015   1.2978
  8.002   1.2772
  7.990   1.3184
  7.978   1.3287
  7.965   1.3596
  7.953   1.3390
  7.941   1.3184
  7.929   1.2978
  7.917   1.3287
  7.905   1.3699
  7.893   1.3287
  7.881   1.2463
  7.869   1.2669
  7.857   1.2154
  7.845   1.2669
  7.833   1.2875
  7.821   1.2669
  7.809   1.2154
  7.798   1.2360
  7.786   1.2463
  7.774   1.3802
  7.763   1.3699
  7.751   1.3184
  7.739   1.3699
  7.728   1.3699
  7.716   1.2360
  7.705   1.2978
  7.694   1.3802
  7.682   1.4008
  7.671   1.3287
  7.659   1.3287
  7.648   1.3184
  7.637   1.3699
  7.626   1.3493
  7.614   1.3802
  7.603   1.4214
  7.592   1.4317
  7.581   1.4214
  7.570   1.4626
  7.559   1.4317
  7.548   1.4214
  7.537   1.3905
  7.526   1.4317
  7.515   1.4420
  7.504   1.4626
  7.493   1.4420
  7.483   1.4626
  7.472   1.4523
  7.461   1.4729
  7.450   1.4626
  7.440   1.4523
  7.429   1.4832
  7.418   1.5759
  7.408   1.5965
  7.397   1.4935
  7.387   1.4420
  7.376   1.5141
  7.366   1.5244
  7.355   1.6171
  7.345   1.6068
  7.334   1.5759
  7.324   1.5450
  7.314   1.5450
  7.303   1.5656
  7.293   1.5656
  7.283   1.5450
  7.273   1.6068
  7.263   1.6274
  7.252   1.6274
  7.242   1.6377
  7.232   1.6686
  7.222   1.6377
  7.212   1.6686
  7.202   1.6995
  7.192   1.7407
  7.182   1.7304
  7.172   1.7613
  7.162   1.7716
  7.152   1.8025
  7.143   1.8128
  7.133   1.8643
  7.123   1.8437
  7.113   1.8643
  7.103   1.9158
  7.094   1.9879
  7.084   1.9879
  7.074   2.0085
  7.065   2.0394
  7.055   2.0291
  7.046   1.9673
  7.036   1.9776
  7.026   1.9570
  7.017   2.0085
  7.007   2.0703
  6.998   2.1218
  6.989   2.0909
  6.979   2.0497
  6.970   2.0085
  6.960   2.0703
  6.951   2.1321
  6.942   2.1733
  6.932   2.0806
  6.923   1.9982
  6.914   1.9879
  6.905   2.0394
  6.896   2.0703
  6.886   2.1012
  6.877   2.0806
  6.868   2.1115
  6.859   2.1321
  6.850   2.1424
  6.841   2.1115
  6.832   2.1424
  6.823   2.1218
  6.814   2.1630
  6.805   2.1939
  6.796   2.2145
  6.787   2.1733
  6.778   2.2042
  6.770   2.2248
  6.761   2.2248
  6.752   2.1939
  6.743   2.2248
  6.734   2.2557
  6.726   2.2969
  6.717   2.2866
  6.708   2.2866
  6.700   2.2969
  6.691   2.3278
  6.682   2.2763
  6.674   2.2145
  6.665   2.2763
  6.657   2.4102
  6.648   2.3793
  6.640   2.3587
  6.631   2.3690
  6.623   2.3999
  6.614   2.4308
  6.606   2.3999
  6.597   2.4102
  6.589   2.4514
  6.581   2.4514
  6.572   2.4617
  6.564   2.4411
  6.556   2.4308
  6.547   2.4926
  6.539   2.5132
  6.531   2.4617
  6.523   2.4720
  6.514   2.5235
  6.506   2.5647
  6.498   2.5029
  6.490   2.4205
  6.482   2.3999
  6.474   2.4617
  6.466   2.4514
  6.458   2.4411
  6.450   2.4514
  6.442   2.3896
  6.434   2.3072
  6.426   2.2557
  6.418   2.2042
  6.410   2.1321
  6.402   2.0703
  6.394   2.0703
  6.386   2.0394
  6.378   2.0085
  6.370   1.9673
  6.363   1.9776
  6.355   1.9261
  6.347   1.8643
  6.339   1.8437
  6.332   1.9055
  6.324   1.9261
  6.316   1.8643
  6.308   1.7922
  6.301   1.8231
  6.293   1.8128
  6.286   1.7716
  6.278   1.7510
  6.270   1.8231
  6.263   1.8540
  6.255   1.8334
  6.248   1.7819
  6.240   1.7819
  6.233   1.7922
  6.225   1.8025
  6.218   1.7922
  6.210   1.8437
  6.203   1.7819
  6.195   1.7716
  6.188   1.7510
  6.181   1.7407
  6.173   1.7304
  6.166   1.7716
  6.159   1.7510
  6.151   1.7407
  6.144   1.7819
  6.137   1.8643
  6.130   1.8025
  6.122   1.7819
  6.115   1.7819
  6.108   1.7819
  6.101   1.7613
  6.094   1.7819
  6.086   1.8231
  6.079   1.7819
  6.072   1.7407
  6.065   1.7716
  6.058   1.8025
  6.051   1.7613
  6.044   1.7098
  6.037   1.7613
  6.030   1.8025
  6.023   1.8540
  6.016   1.8746
  6.009   1.8746
  6.002   1.8540
  5.995   1.8849
  5.988   1.8746
  5.981   1.8540
  5.974   1.8128
  5.967   1.8128
  5.960   1.8952
  5.954   1.9055
  5.947   1.7922
  5.940   1.8025
  5.933   1.8746
  5.926   1.9364
  5.920   1.9467
  5.913   1.9879
  5.906   1.9055
  5.899   1.8643
  5.893   1.8849
  5.886   1.9158
  5.879   1.9467
  5.873   1.9879
  5.866   2.0085
  5.859   2.0497
  5.853   2.0085
  5.846   2.0085
  5.840   2.0291
  5.833   2.0291
  5.827   2.0085
  5.820   2.0188
  5.813   2.0394
  5.807   2.0291
  5.800   2.0394
  5.794   2.1218
  5.788   2.1733
  5.781   2.1218
  5.775   2.0806
  5.768   2.1424
  5.762   2.1630
  5.755   2.1218
  5.749   2.1218
  5.743   2.1527
  5.736   2.1630
  5.730   2.1321
  5.724   2.1630
  5.717   2.2351
  5.711   2.1939
  5.705   2.1218
  5.698   2.1115
  5.692   2.1424
  5.686   2.1630
  5.680   2.1836
  5.674   2.1939
  5.667   2.1630
  5.661   2.1630
  5.655   2.1836
  5.649   2.1630
  5.643   2.2042
  5.637   2.2454
  5.630   2.2763
  5.624   2.2351
  5.618   2.1836
  5.612   2.1836
  5.606   2.1939
  5.600   2.2145
  5.594   2.2351
  5.588   2.2145
  5.582   2.2145
  5.576   2.2145
  5.570   2.2557
  5.564   2.2248
  5.558   2.2454
  5.552   2.2557
  5.546   2.2351
  5.540   2.2763
  5.534   2.3690
  5.528   2.3175
  5.523   2.2454
  5.517   2.2557
  5.511   2.3484
  5.505   2.3793
  5.499   2.3484
  5.493   2.3793
  5.487   2.3999
  5.482   2.3896
  5.476   2.3999
  5.470   2.3587
  5.464   2.3999
  5.459   2.4514
  5.453   2.4102
  5.447   2.4308
  5.441   2.4411
  5.436   2.3896
  5.430   2.4926
  5.424   2.5235
  5.419   2.4926
  5.413   2.4926
  5.407   2.5132
  5.402   2.5132
  5.396   2.5235
  5.390   2.5544
  5.385   2.5647
  5.379   2.5441
  5.374   2.5544
  5.368   2.5956
  5.363   2.6162
  5.357   2.5647
  5.352   2.5338
  5.346   2.5235
  5.341   2.5544
  5.335   2.5956
  5.330   2.5853
  5.324   2.6162
  5.319   2.6780
  5.313   2.6883
  5.308   2.6471
  5.302   2.6265
  5.297   2.6677
  5.291   2.6780
  5.286   2.6780
  5.281   2.6883
  5.275   2.7089
  5.270   2.6883
  5.265   2.6986
  5.259   2.6574
  5.254   2.6677
  5.249   2.7089
  5.243   2.7398
  5.238   2.7398
  5.233   2.7501
  5.227   2.7501
  5.222   2.7810
  5.217   2.7913
  5.212   2.7810
  5.206   2.8119
  5.201   2.8634
  5.196   2.8222
  5.191   2.7810
  5.186   2.7913
  5.180   2.8531
  5.175   2.8737
  5.170   2.8737
  5.165   2.8737
  5.160   2.9149
  5.155   2.9355
  5.150   2.9252
  5.145   2.8840
  5.139   2.9046
  5.134   2.9355
  5.129   2.9252
  5.124   2.9252
  5.119   2.9561
  5.114   2.9458
  5.109   2.9458
  5.104   2.9252
  5.099   2.9149
  5.094   2.9767
  5.089   3.0076
  5.084   2.9973
  5.079   2.9973
  5.074   2.9973
  5.069   3.0385
  5.064   3.0797
  5.059   3.1106
  5.054   3.1003
  5.049   3.0694
  5.044   3.0797
  5.040   3.1106
  5.035   3.1518
  5.030   3.1415
  5.025   3.1415
  5.020   3.1209
  5.015   3.1003
  5.010   3.1724
  5.005   3.2033
  5.001   3.1724
  4.996   3.2136
  4.991   3.2445
  4.986   3.2033
  4.981   3.1930
  4.977   3.2136
  4.972   3.2754
  4.967   3.2548
  4.962   3.2136
  4.958   3.2239
  4.953   3.2857
  4.948   3.2754
  4.943   3.2651
  4.939   3.3166
  4.934   3.3578
  4.929   3.3578
  4.925   3.3475
  4.920   3.3269
  4.915   3.3475
  4.911   3.3578
  4.906   3.3372
  4.901   3.3269
  4.897   3.3269
  4.892   3.3681
  4.888   3.3681
  4.883   3.4196
  4.878   3.4711
  4.874   3.4505
  4.869   3.3887
  4.865   3.4299
  4.860   3.4917
  4.856   3.4505
  4.851   3.4711
  4.846   3.5226
  4.842   3.4608
  4.837   3.4093
  4.833   3.4402
  4.828   3.4093
  4.824   3.4505
  4.819   3.5226
  4.815   3.5329
  4.810   3.5432
  4.806   3.5741
  4.802   3.5741
  4.797   3.5844
  4.793   3.5947
  4.788   3.5535
  4.784   3.5638
  4.779   3.5638
  4.775   3.5226
  4.771   3.5329
  4.766   3.5947
  4.762   3.6565
  4.758   3.6050
  4.753   3.6050
  4.749   3.7183
  4.744   3.7183
  4.740   3.6153
  4.736   3.5844
  4.731   3.6153
  4.727   3.6565
  4.723   3.6668
  4.719   3.6359
  4.714   3.6153
  4.710   3.5844
  4.706   3.6153
  4.701   3.6668
  4.697   3.7492
  4.693   3.7492
  4.689   3.6668
  4.684   3.6771
  4.680   3.7183
  4.676   3.7286
  4.672   3.7698
  4.668   3.7389
  4.663   3.7389
  4.659   3.7801
  4.655   3.7698
  4.651   3.7183
  4.647   3.6771
  4.643   3.7698
  4.638   3.8934
  4.634   3.8625
  4.630   3.8110
  4.626   3.8522
  4.622   3.9346
  4.618   3.9861
  4.614   3.9552
  4.610   3.9037
  4.605   3.9243
  4.601   3.9655
  4.597   4.0067
  4.593   4.0170
  4.589   3.9964
  4.585   4.0273
  4.581   4.0685
  4.577   4.0788
  4.573   4.0685
  4.569   4.0788
  4.565   4.0891
  4.561   4.0273
  4.557   4.0376
  4.553   4.0273
  4.549   3.9861
  4.545   4.0582
  4.541   4.1715
  4.537   4.1303
  4.533   4.0891
  4.529   4.1509
  4.525   4.2127
  4.521   4.2230
  4.517   4.2333
  4.513   4.2024
  4.509   4.2127
  4.505   4.2230
  4.502   4.2848
  4.498   4.2333
  4.494   4.2539
  4.490   4.3466
  4.486   4.3569
  4.482   4.3466
  4.478   4.3569
  4.474   4.3260
  4.470   4.2951
  4.467   4.2951
  4.463   4.3260
  4.459   4.4084
  4.455   4.4908
  4.451   4.5320
  4.447   4.5217
  4.444   4.4393
  4.440   4.4290
  4.436   4.3775
  4.432   4.3981
  4.428   4.5114
  4.425   4.5526
  4.421   4.5320
  4.417   4.4805
  4.413   4.4393
  4.410   4.4702
  4.406   4.4805
  4.402   4.5011
  4.398   4.5938
  4.395   4.6041
  4.391   4.5217
  4.387   4.4702
  4.384   4.4908
  4.380   4.5011
  4.376   4.6144
  4.372   4.6247
  4.369   4.5938
  4.365   4.6041
  4.361   4.5629
  4.358   4.5732
  4.354   4.6659
  4.350   4.7483
  4.347   4.6968
  4.343   4.6041
  4.340   4.6041
  4.336   4.6762
  4.332   4.7174
  4.329   4.6865
  4.325   4.6556
  4.321   4.6350
  4.318   4.6247
  4.314   4.6350
  4.311   4.6659
  4.307   4.7071
  4.304   4.7277
  4.300   4.7483
  4.296   4.7380
  4.293   4.7277
  4.289   4.7071
  4.286   4.6556
  4.282   4.6453
  4.279   4.6865
  4.275   4.6865
  4.272   4.7277
  4.268   4.7380
  4.265   4.7174
  4.261   4.7689
  4.258   4.8307
  4.254   4.8204
  4.251   4.8513
  4.247   4.7998
  4.244   4.8101
  4.240   4.9028
  4.237   4.8925
  4.233   4.7998
  4.230   4.8307
  4.226   4.8307
  4.223   4.8307
  4.219   4.8822
  4.216   4.8719
  4.213   4.8513
  4.209   4.8616
  4.206   4.9749
  4.202   5.0573
  4.199   4.9955
  4.196   4.9337
  4.192   4.9852
  4.189   4.9852
  4.185   4.9337
  4.182   4.9955
  4.179   5.0676
  4.175   5.0676
  4.172   5.0573
  4.169   5.0264
  4.165   4.9955
  4.162   5.0367
  4.159   5.1088
  4.155   5.1500
  4.152   5.0779
  4.149   5.0573
  4.145   5.0985
  4.142   5.1191
  4.139   5.1088
  4.135   5.0573
  4.132   5.0264
  4.129   5.0470
  4.126   5.0676
  4.122   5.0264
  4.119   4.9749
  4.116   5.0779
  4.112   5.1397
  4.109   5.1397
  4.106   5.1294
  4.103   5.1088
  4.099   5.0985
  4.096   5.1191
  4.093   5.1397
  4.090   5.0882
  4.086   5.0779
  4.083   5.1294
  4.080   5.0985
  4.077   5.0985
  4.074   5.1500
  4.070   5.1500
  4.067   5.0882
  4.064   5.0573
  4.061   5.0161
  4.058   5.0779
  4.055   5.0779
  4.051   5.0573
  4.048   5.0779
  4.045   5.0058
  4.042   5.0058
  4.039   5.0367
  4.036   4.9749
  4.032   5.0161
  4.029   5.0573
  4.026   5.0573
  4.023   5.0676
  4.020   5.0367
  4.017   4.9955
  4.014   4.9440
  4.011   4.8925
  4.008   4.9543
  4.004   4.9749
  4.001   4.9646
  3.998   4.9028
  3.995   4.9337
  3.992   4.9955
  3.989   4.9749
  3.986   4.9337
  3.983   4.9543
  3.980   4.9852
  3.977   4.9852
  3.974   4.9234
  3.971   4.9852
  3.968   4.9749
  3.965   4.9543
  3.962   4.9955
  3.959   5.0882
  3.956   5.0367
  3.953   4.9852
  3.950   4.9749
  3.947   4.9337
  3.944   4.9234
  3.941   5.0058
  3.938   4.9749
  3.935   4.9749
  3.932   4.9852
  3.929   5.0676
  3.926   5.1500
  3.923   5.0985
  3.920   5.0779
  3.917   5.0985
  3.914   5.0367
  3.911   5.0470
  3.908   5.0985
  3.905   5.1397
  3.902   5.0779
  3.899   5.0058
  3.896   4.9955
  3.893   5.0985
  3.890   5.0882
  3.887   5.0573
  3.884   5.0161
  3.882   5.0264
  3.879   4.9646
  3.876   5.0470
  3.873   5.1603
  3.870   5.1603
  3.867   5.1088
  3.864   5.0985
  3.861   5.0779
  3.858   4.9852
  3.856   4.9749
  3.853   5.0882
  3.850   5.0985
  3.847   5.1191
  3.844   5.0779
  3.841   5.1191
  3.838   5.1809
  3.836   5.1294
  3.833   4.9543
  3.830   4.9543
  3.827   5.0985
  3.824   5.1706
  3.822   5.1397
  3.819   5.1809
  3.816   5.1912
  3.813   5.2015
  3.810   5.2118
  3.807   5.2015
  3.805   5.0985
  3.802   5.0367
  3.799   5.1294
  3.796   5.3251
  3.794   5.3560
  3.791   5.3045
  3.788   5.3560
  3.785   5.3766
  3.782   5.2633
  3.780   5.3148
  3.777   5.3457
  3.774   5.3766
  3.771   5.3972
  3.769   5.3457
  3.766   5.2942
  3.763   5.2942
  3.761   5.3354
  3.758   5.4693
  3.755   5.5002
  3.752   5.4693
  3.750   5.3560
  3.747   5.2839
  3.744   5.2942
  3.742   5.4075
  3.739   5.3560
  3.736   5.2839
  3.733   5.3972
  3.731   5.4899
  3.728   5.3972
  3.725   5.3354
  3.723   5.2221
  3.720   5.2530
  3.717   5.3354
  3.715   5.3766
  3.712   5.3457
  3.709   5.3148
  3.707   5.3869
  3.704   5.4178
  3.702   5.3869
  3.699   5.3354
  3.696   5.3766
  3.694   5.4281
  3.691   5.3663
  3.688   5.2736
  3.686   5.2633
  3.683   5.2942
  3.680   5.2633
  3.678   5.3766
  3.675   5.3766
  3.673   5.2839
  3.670   5.2530
  3.667   5.3148
  3.665   5.3869
  3.662   5.4384
  3.660   5.3663
  3.657   5.2221
  3.655   5.2221
  3.652   5.2221
  3.649   5.1809
  3.647   5.2015
  3.644   5.1191
  3.642   5.1603
  3.639   5.2942
  3.637   5.3148
  3.634   5.2221
  3.632   5.2839
  3.629   5.2221
  3.626   5.0882
  3.624   5.1294
  3.621   5.2324
  3.619   5.2118
  3.616   5.1088
  3.614   5.0573
  3.611   5.1603
  3.609   5.1912
  3.606   5.1294
  3.604   5.1603
  3.601   5.2530
  3.599   5.2530
  3.596   5.2427
  3.594   5.1809
  3.591   5.0779
  3.589   5.0058
  3.586   4.9749
  3.584   4.9543
  3.581   5.0882
  3.579   5.0573
