Name: Basalt
Type: Rock
Class: Igneous
Subclass: Mafic
Particle Size: Whole rock chips
Sample No.: Me28b
Owner: Lawrence Rowan, USGS Reston
Wavelength range: 0.40 - 14.05 um
Origin: Q. Ata, Middle East

Description: Basalt, cut surface, basalt bowl base fragment





Measurement: Directional Hemispherical Reflectance
First Column: X
Second Column: Y
X Units: Wavelength (micrometers)
Y Units: Reflectance (percent)
First X Value: 14.05105
Last X Value: 0.40000
Number of X Values: 2231
Additional Information: me28ba.txt

 14.051   2.9664
 14.013   2.9252
 13.975   3.0591
 13.938   3.0797
 13.900   3.1518
 13.863   2.9458
 13.826   3.0385
 13.790   2.9870
 13.753   3.1003
 13.717   3.1209
 13.680   3.0797
 13.644   2.9252
 13.609   3.0694
 13.573   3.1724
 13.538   3.3166
 13.502   3.2548
 13.467   3.3063
 13.432   3.2548
 13.398   3.2342
 13.363   3.1518
 13.329   3.2239
 13.295   3.1106
 13.261   3.2445
 13.227   3.3166
 13.193   3.3166
 13.160   3.1621
 13.126   3.2857
 13.093   3.4299
 13.060   3.4608
 13.027   3.3063
 12.995   3.3166
 12.962   3.3269
 12.930   3.4196
 12.898   3.3681
 12.866   3.3372
 12.834   3.3166
 12.802   3.4093
 12.771   3.3475
 12.739   3.4402
 12.708   3.3784
 12.677   3.3578
 12.646   3.3269
 12.616   3.5226
 12.585   3.5844
 12.554   3.6050
 12.524   3.5844
 12.494   3.6359
 12.464   3.5741
 12.434   3.7183
 12.404   3.7698
 12.375   3.9037
 12.345   3.9243
 12.316   4.0582
 12.287   4.1097
 12.258   4.2539
 12.229   4.2745
 12.200   4.3466
 12.171   4.4290
 12.143   4.6453
 12.115   4.7277
 12.086   4.7895
 12.058   4.8101
 12.030   4.9749
 12.002   5.0058
 11.975   5.0779
 11.947   5.0573
 11.920   5.0985
 11.892   5.0985
 11.865   5.2324
 11.838   5.2530
 11.811   5.4487
 11.784   5.5723
 11.757   5.7165
 11.731   5.7577
 11.704   5.8504
 11.678   5.9225
 11.652   6.0873
 11.626   6.1800
 11.600   6.4375
 11.574   6.6435
 11.548   6.7877
 11.522   6.8495
 11.497   7.0349
 11.471   7.0761
 11.446   7.1482
 11.421   7.2409
 11.396   7.4984
 11.371   7.6735
 11.346   7.7662
 11.321   7.8383
 11.297   8.0546
 11.272   8.1061
 11.248   8.1885
 11.223   8.2194
 11.199   8.3121
 11.175   8.3224
 11.151   8.4151
 11.127   8.4357
 11.103   8.5387
 11.079   8.6417
 11.056   8.7756
 11.032   8.8065
 11.009   8.8889
 10.985   8.8271
 10.962   8.8992
 10.939   8.8992
 10.916   8.9404
 10.893   8.9713
 10.870   9.0125
 10.848   9.0331
 10.825   9.0125
 10.802   8.9610
 10.780   8.9919
 10.758   8.9404
 10.735   8.9095
 10.713   8.7550
 10.691   8.7344
 10.669   8.6108
 10.647   8.5696
 10.625   8.4769
 10.604   8.4872
 10.582   8.4563
 10.560   8.4048
 10.539   8.2606
 10.518   8.2915
 10.496   8.3018
 10.475   8.4254
 10.454   8.4975
 10.433   8.4769
 10.412   8.4048
 10.391   8.4357
 10.370   8.4357
 10.350   8.4460
 10.329   8.3945
 10.309   8.4151
 10.288   8.3327
 10.268   8.3327
 10.247   8.2606
 10.227   8.2091
 10.207   8.0752
 10.187   8.0031
 10.167   7.9104
 10.147   7.9928
 10.127   8.0340
 10.108   8.1164
 10.088   8.1473
 10.068   8.2400
 10.049   8.2400
 10.029   8.2091
 10.010   8.2297
  9.991   8.3945
  9.972   8.4769
  9.952   8.4872
  9.933   8.4151
  9.914   8.4460
  9.895   8.4666
  9.877   8.4975
  9.858   8.4975
  9.839   8.4872
  9.821   8.3842
  9.802   8.4563
  9.783   8.4769
  9.765   8.4151
  9.747   8.2503
  9.728   8.2709
  9.710   8.2709
  9.692   8.2606
  9.674   8.2709
  9.656   8.3018
  9.638   8.1782
  9.620   8.2091
  9.602   8.1473
  9.585   8.1473
  9.567   8.0649
  9.549   7.9516
  9.532   7.9001
  9.514   7.9001
  9.497   7.7353
  9.479   7.7044
  9.462   7.6220
  9.445   7.5190
  9.428   7.4778
  9.411   7.5396
  9.394   7.4675
  9.377   7.4366
  9.360   7.3645
  9.343   7.3748
  9.326   7.3233
  9.309   7.2409
  9.293   7.1379
  9.276   7.2100
  9.259   7.1997
  9.243   7.2100
  9.226   7.1276
  9.210   7.0761
  9.194   7.0349
  9.178   7.0967
  9.161   7.0349
  9.145   7.1070
  9.129   7.1585
  9.113   7.1894
  9.097   7.1585
  9.081   7.1276
  9.065   7.0555
  9.049   7.1379
  9.034   7.1173
  9.018   7.1894
  9.002   7.2409
  8.987   7.2615
  8.971   7.1070
  8.956   7.0246
  8.940   7.0143
  8.925   7.0452
  8.909   6.8804
  8.894   6.7877
  8.879   6.6229
  8.864   6.4890
  8.849   6.3963
  8.834   6.3448
  8.819   6.1697
  8.804   6.0564
  8.789   5.8916
  8.774   5.8813
  8.759   5.9019
  8.744   5.9637
  8.730   5.8813
  8.715   5.8401
  8.700   5.7989
  8.686   5.7371
  8.671   5.6238
  8.657   5.6032
  8.642   5.5414
  8.628   5.5620
  8.614   5.5311
  8.599   5.5517
  8.585   5.5002
  8.571   5.5620
  8.557   5.5311
  8.543   5.4590
  8.529   5.4281
  8.515   5.4899
  8.501   5.4281
  8.487   5.4899
  8.473   5.4796
  8.459   5.3045
  8.445   5.1912
  8.431   5.2633
  8.418   5.1706
  8.404   5.1500
  8.391   5.0676
  8.377   5.0676
  8.363   4.9646
  8.350   4.8410
  8.337   4.6556
  8.323   4.5938
  8.310   4.4290
  8.297   4.2230
  8.283   4.0170
  8.270   3.8728
  8.257   3.6153
  8.244   3.3475
  8.231   3.1106
  8.218   2.9458
  8.205   2.8119
  8.192   2.6265
  8.179   2.3896
  8.166   2.2248
  8.153   2.1218
  8.140   2.2042
  8.128   2.1733
  8.115   2.0394
  8.102   1.8952
  8.090   1.8231
  8.077   1.6789
  8.064   1.6171
  8.052   1.6171
  8.039   1.6686
  8.027   1.5656
  8.015   1.5656
  8.002   1.5450
  7.990   1.5347
  7.978   1.5141
  7.965   1.5759
  7.953   1.5862
  7.941   1.5759
  7.929   1.5244
  7.917   1.5656
  7.905   1.6274
  7.893   1.6377
  7.881   1.5862
  7.869   1.6377
  7.857   1.6377
  7.845   1.6686
  7.833   1.6171
  7.821   1.6171
  7.809   1.5347
  7.798   1.5965
  7.786   1.6892
  7.774   1.7510
  7.763   1.6686
  7.751   1.6686
  7.739   1.7098
  7.728   1.7304
  7.716   1.7510
  7.705   1.8334
  7.694   1.8437
  7.682   1.8540
  7.671   1.7304
  7.659   1.6995
  7.648   1.7613
  7.637   1.8952
  7.626   1.9158
  7.614   1.8746
  7.603   1.8128
  7.592   1.8334
  7.581   1.8437
  7.570   1.9055
  7.559   1.8643
  7.548   1.9055
  7.537   1.9261
  7.526   1.9467
  7.515   1.9776
  7.504   1.9467
  7.493   1.9570
  7.483   2.0394
  7.472   2.0703
  7.461   2.1115
  7.450   2.0703
  7.440   2.0394
  7.429   2.0600
  7.418   2.1527
  7.408   2.1321
  7.397   2.0909
  7.387   2.0703
  7.376   2.1733
  7.366   2.2454
  7.355   2.2969
  7.345   2.2557
  7.334   2.2557
  7.324   2.2557
  7.314   2.3278
  7.303   2.2660
  7.293   2.1939
  7.283   2.1836
  7.273   2.2351
  7.263   2.2866
  7.252   2.3484
  7.242   2.2454
  7.232   2.2557
  7.222   2.3278
  7.212   2.3793
  7.202   2.4514
  7.192   2.4823
  7.182   2.3999
  7.172   2.3999
  7.162   2.3896
  7.152   2.4926
  7.143   2.5647
  7.133   2.5647
  7.123   2.5235
  7.113   2.5235
  7.103   2.4926
  7.094   2.5132
  7.084   2.5235
  7.074   2.6059
  7.065   2.6059
  7.055   2.6162
  7.046   2.6265
  7.036   2.6368
  7.026   2.5441
  7.017   2.5338
  7.007   2.5750
  6.998   2.6162
  6.989   2.6265
  6.979   2.6780
  6.970   2.6986
  6.960   2.7192
  6.951   2.7295
  6.942   2.7810
  6.932   2.7913
  6.923   2.7810
  6.914   2.7604
  6.905   2.7398
  6.896   2.7192
  6.886   2.7192
  6.877   2.7192
  6.868   2.7604
  6.859   2.7810
  6.850   2.8016
  6.841   2.8016
  6.832   2.8016
  6.823   2.7604
  6.814   2.8222
  6.805   2.7913
  6.796   2.7398
  6.787   2.8325
  6.778   2.8943
  6.770   2.8325
  6.761   2.8222
  6.752   2.7707
  6.743   2.8325
  6.734   2.8840
  6.726   2.9458
  6.717   2.9767
  6.708   2.9252
  6.700   2.8325
  6.691   2.8531
  6.682   2.8943
  6.674   2.9870
  6.665   2.9973
  6.657   2.9767
  6.648   2.9149
  6.640   2.9252
  6.631   3.0282
  6.623   3.0488
  6.614   3.0179
  6.606   3.0385
  6.597   2.9664
  6.589   3.0076
  6.581   3.1106
  6.572   3.1106
  6.564   3.0076
  6.556   3.0179
  6.547   3.0694
  6.539   3.0797
  6.531   3.0282
  6.523   3.0282
  6.514   3.0488
  6.506   3.0797
  6.498   3.1003
  6.490   3.2651
  6.482   3.3063
  6.474   3.1724
  6.466   3.0900
  6.458   3.1003
  6.450   3.0385
  6.442   3.0282
  6.434   3.0694
  6.426   3.0900
  6.418   3.1518
  6.410   3.3784
  6.402   3.3063
  6.394   3.0488
  6.386   2.9870
  6.378   3.0900
  6.370   3.1106
  6.363   3.1106
  6.355   3.0385
  6.347   3.0282
  6.339   3.1312
  6.332   3.0797
  6.324   3.0076
  6.316   3.0179
  6.308   3.0282
  6.301   3.0385
  6.293   3.0179
  6.286   3.1003
  6.278   3.1106
  6.270   3.0488
  6.263   2.9664
  6.255   3.0694
  6.248   3.1312
  6.240   3.0797
  6.233   3.0694
  6.225   3.1209
  6.218   3.0694
  6.210   3.0282
  6.203   2.9664
  6.195   2.9561
  6.188   2.9252
  6.181   2.9767
  6.173   3.0179
  6.166   2.9355
  6.159   2.9252
  6.151   2.9870
  6.144   2.9458
  6.137   2.9870
  6.130   2.9664
  6.122   2.9458
  6.115   3.0591
  6.108   3.1209
  6.101   2.9973
  6.094   2.9767
  6.086   2.9046
  6.079   2.9664
  6.072   3.0591
  6.065   3.0591
  6.058   3.0179
  6.051   3.0488
  6.044   3.1621
  6.037   3.1209
  6.030   3.0179
  6.023   3.0694
  6.016   3.1106
  6.009   3.1106
  6.002   3.1209
  5.995   3.1312
  5.988   3.2033
  5.981   3.2239
  5.974   3.1518
  5.967   3.1724
  5.960   3.2342
  5.954   3.2239
  5.947   3.2136
  5.940   3.2136
  5.933   3.3578
  5.926   3.3887
  5.920   3.2754
  5.913   3.2857
  5.906   3.3166
  5.899   3.3784
  5.893   3.4402
  5.886   3.5432
  5.879   3.6565
  5.873   3.6462
  5.866   3.4917
  5.859   3.4917
  5.853   3.5123
  5.846   3.5123
  5.840   3.5020
  5.833   3.6050
  5.827   3.6462
  5.820   3.6874
  5.813   3.7183
  5.807   3.6668
  5.800   3.6668
  5.794   3.6874
  5.788   3.6565
  5.781   3.7389
  5.775   3.7904
  5.768   3.7801
  5.762   3.8007
  5.755   3.7698
  5.749   3.7389
  5.743   3.7595
  5.736   3.7286
  5.730   3.7080
  5.724   3.7389
  5.717   3.8728
  5.711   3.9243
  5.705   3.8728
  5.698   3.8213
  5.692   3.8110
  5.686   3.8728
  5.680   3.9346
  5.674   3.9346
  5.667   3.9346
  5.661   3.9243
  5.655   3.9346
  5.649   3.9243
  5.643   3.9140
  5.637   3.9346
  5.630   3.9655
  5.624   3.9449
  5.618   3.9861
  5.612   4.0170
  5.606   4.0273
  5.600   4.0376
  5.594   4.0479
  5.588   4.0376
  5.582   4.0788
  5.576   4.0788
  5.570   4.0479
  5.564   3.9861
  5.558   3.9552
  5.552   3.9964
  5.546   4.0479
  5.540   4.0685
  5.534   4.0891
  5.528   4.1715
  5.523   4.2642
  5.517   4.2230
  5.511   4.2127
  5.505   4.2230
  5.499   4.1921
  5.493   4.1612
  5.487   4.1715
  5.482   4.2230
  5.476   4.2951
  5.470   4.2848
  5.464   4.2848
  5.459   4.2848
  5.453   4.2642
  5.447   4.2642
  5.441   4.3363
  5.436   4.3157
  5.430   4.3054
  5.424   4.3466
  5.419   4.4496
  5.413   4.4702
  5.407   4.4599
  5.402   4.4187
  5.396   4.3672
  5.390   4.4393
  5.385   4.4805
  5.379   4.4702
  5.374   4.4290
  5.368   4.4290
  5.363   4.4702
  5.357   4.4805
  5.352   4.4908
  5.346   4.5526
  5.341   4.5629
  5.335   4.5217
  5.330   4.5732
  5.324   4.6041
  5.319   4.6144
  5.313   4.6041
  5.308   4.5938
  5.302   4.6144
  5.297   4.6659
  5.291   4.6556
  5.286   4.6762
  5.281   4.6865
  5.275   4.7174
  5.270   4.7689
  5.265   4.7895
  5.259   4.7483
  5.254   4.7689
  5.249   4.7895
  5.243   4.8204
  5.238   4.8101
  5.233   4.7792
  5.227   4.7998
  5.222   4.8513
  5.217   4.8410
  5.212   4.8822
  5.206   4.9234
  5.201   4.9028
  5.196   4.9131
  5.191   4.9234
  5.186   4.9234
  5.180   4.9543
  5.175   4.9749
  5.170   5.0058
  5.165   5.0264
  5.160   5.0264
  5.155   5.0367
  5.150   5.0779
  5.145   5.0779
  5.139   5.0470
  5.134   5.0985
  5.129   5.1500
  5.124   5.1294
  5.119   5.1397
  5.114   5.1294
  5.109   5.1809
  5.104   5.2633
  5.099   5.2015
  5.094   5.1603
  5.089   5.2118
  5.084   5.2118
  5.079   5.2427
  5.074   5.2942
  5.069   5.3972
  5.064   5.4693
  5.059   5.4487
  5.054   5.3972
  5.049   5.3766
  5.044   5.3869
  5.040   5.4178
  5.035   5.4487
  5.030   5.4693
  5.025   5.4693
  5.020   5.4693
  5.015   5.4693
  5.010   5.4590
  5.005   5.5002
  5.001   5.5208
  4.996   5.5414
  4.991   5.6135
  4.986   5.6650
  4.981   5.6753
  4.977   5.6753
  4.972   5.6753
  4.967   5.6444
  4.962   5.6135
  4.958   5.6650
  4.953   5.7680
  4.948   5.7989
  4.943   5.8195
  4.939   5.8298
  4.934   5.8401
  4.929   5.8504
  4.925   5.8504
  4.920   5.8916
  4.915   5.9019
  4.911   5.8916
  4.906   5.8607
  4.901   5.8607
  4.897   5.9019
  4.892   5.9225
  4.888   5.9740
  4.883   6.0255
  4.878   6.0049
  4.874   6.0049
  4.869   6.0461
  4.865   6.0564
  4.860   6.0564
  4.856   6.0873
  4.851   6.0976
  4.846   6.0667
  4.842   6.0770
  4.837   6.1388
  4.833   6.1697
  4.828   6.1491
  4.824   6.1285
  4.819   6.1491
  4.815   6.1594
  4.810   6.1903
  4.806   6.2521
  4.802   6.2006
  4.797   6.1903
  4.793   6.2830
  4.788   6.3036
  4.784   6.3139
  4.779   6.3860
  4.775   6.3860
  4.771   6.3654
  4.766   6.3345
  4.762   6.3448
  4.758   6.3963
  4.753   6.4375
  4.749   6.4787
  4.744   6.5096
  4.740   6.4890
  4.736   6.4993
  4.731   6.5302
  4.727   6.5096
  4.723   6.5096
  4.719   6.5096
  4.714   6.5302
  4.710   6.5508
  4.706   6.5611
  4.701   6.5508
  4.697   6.5817
  4.693   6.6126
  4.689   6.6126
  4.684   6.6744
  4.680   6.7362
  4.676   6.7774
  4.672   6.8083
  4.668   6.8083
  4.663   6.8392
  4.659   6.8804
  4.655   6.8804
  4.651   6.8186
  4.647   6.8392
  4.643   6.8907
  4.638   6.9010
  4.634   6.9525
  4.630   7.0349
  4.626   7.0555
  4.622   7.0452
  4.618   7.0246
  4.614   7.0555
  4.610   7.1173
  4.605   7.2100
  4.601   7.2512
  4.597   7.2203
  4.593   7.2100
  4.589   7.2100
  4.585   7.2512
  4.581   7.3130
  4.577   7.3233
  4.573   7.3336
  4.569   7.3542
  4.565   7.3233
  4.561   7.2924
  4.557   7.4057
  4.553   7.5499
  4.549   7.6220
  4.545   7.6220
  4.541   7.6529
  4.537   7.6117
  4.533   7.5499
  4.529   7.5705
  4.525   7.6117
  4.521   7.6838
  4.517   7.7353
  4.513   7.7250
  4.509   7.7250
  4.505   7.6941
  4.502   7.7662
  4.498   7.7456
  4.494   7.7044
  4.490   7.7353
  4.486   7.7971
  4.482   7.8486
  4.478   7.8898
  4.474   7.9310
  4.470   7.9310
  4.467   8.0031
  4.463   8.0031
  4.459   7.9619
  4.455   7.9516
  4.451   7.9722
  4.447   8.0134
  4.444   7.9825
  4.440   8.0443
  4.436   8.1576
  4.432   8.1473
  4.428   8.1885
  4.425   8.1988
  4.421   8.1885
  4.417   8.1988
  4.413   8.2400
  4.410   8.2503
  4.406   8.3121
  4.402   8.3636
  4.398   8.3842
  4.395   8.3945
  4.391   8.3945
  4.387   8.3636
  4.384   8.4151
  4.380   8.4769
  4.376   8.4666
  4.372   8.4872
  4.369   8.5078
  4.365   8.4769
  4.361   8.4769
  4.358   8.4872
  4.354   8.5387
  4.350   8.5902
  4.347   8.5799
  4.343   8.5799
  4.340   8.6005
  4.336   8.6520
  4.332   8.6726
  4.329   8.7138
  4.325   8.7756
  4.321   8.7859
  4.318   8.7035
  4.314   8.7447
  4.311   8.7756
  4.307   8.8477
  4.304   8.9095
  4.300   8.9095
  4.296   8.8786
  4.293   8.9198
  4.289   8.9816
  4.286   8.8786
  4.282   8.8580
  4.279   8.9713
  4.275   8.9507
  4.272   8.9713
  4.268   8.9816
  4.265   9.0125
  4.261   9.1258
  4.258   9.1052
  4.254   9.0743
  4.251   9.0846
  4.247   9.1361
  4.244   9.1567
  4.240   9.1876
  4.237   9.3421
  4.233   9.3215
  4.230   9.3215
  4.226   9.3215
  4.223   9.3215
  4.219   9.3318
  4.216   9.2494
  4.213   9.2700
  4.209   9.3524
  4.206   9.3936
  4.202   9.3936
  4.199   9.3421
  4.196   9.3421
  4.192   9.3627
  4.189   9.3627
  4.185   9.3833
  4.182   9.4039
  4.179   9.3833
  4.175   9.4142
  4.172   9.4142
  4.169   9.4245
  4.165   9.5069
  4.162   9.5996
  4.159   9.5481
  4.155   9.5893
  4.152   9.5790
  4.149   9.5893
  4.145   9.6202
  4.142   9.7026
  4.139   9.6923
  4.135   9.6717
  4.132   9.5790
  4.129   9.5996
  4.126   9.5893
  4.122   9.6099
  4.119   9.6717
  4.116   9.6717
  4.112   9.6820
  4.109   9.8056
  4.106   9.7953
  4.103   9.7644
  4.099   9.7335
  4.096   9.7644
  4.093   9.7335
  4.090   9.7953
  4.086   9.8365
  4.083   9.8777
  4.080   9.9292
  4.077   9.9189
  4.074   9.8365
  4.070   9.8159
  4.067   9.9086
  4.064  10.0528
  4.061  10.0013
  4.058   9.9498
  4.055   9.9910
  4.051   9.9601
  4.048   9.9807
  4.045  10.1764
  4.042  10.1352
  4.039  10.0425
  4.036  10.0425
  4.032  10.0322
  4.029   9.9910
  4.026   9.8983
  4.023   9.8777
  4.020   9.9292
  4.017   9.9189
  4.014  10.0322
  4.011  10.0940
  4.008  10.0425
  4.004  10.0219
  4.001  10.0116
  3.998  10.0734
  3.995  10.1352
  3.992  10.0940
  3.989  10.0425
  3.986   9.9704
  3.983  10.0013
  3.980  10.0425
  3.977  10.0013
  3.974  10.0837
  3.971  10.2588
  3.968  10.2073
  3.965  10.1043
  3.962  10.0631
  3.959  10.1146
  3.956  10.1867
  3.953  10.2176
  3.950  10.1764
  3.947  10.2279
  3.944  10.2485
  3.941  10.2073
  3.938  10.1867
  3.935  10.2485
  3.932  10.3000
  3.929  10.3515
  3.926  10.3412
  3.923  10.3000
  3.920  10.3000
  3.917  10.3309
  3.914  10.2691
  3.911  10.4339
  3.908  10.4854
  3.905  10.3515
  3.902  10.3309
  3.899  10.4339
  3.896  10.5575
  3.893  10.5884
  3.890  10.5060
  3.887  10.4339
  3.884  10.4133
  3.882  10.4545
  3.879  10.4545
  3.876  10.4854
  3.873  10.4854
  3.870  10.5266
  3.867  10.5369
  3.864  10.5369
  3.861  10.5266
  3.858  10.4545
  3.856  10.4030
  3.853  10.5163
  3.850  10.5781
  3.847  10.5060
  3.844  10.4339
  3.841  10.4442
  3.838  10.4957
  3.836  10.6399
  3.833  10.6914
  3.830  10.6090
  3.827  10.4854
  3.824  10.5369
  3.822  10.5163
  3.819  10.4854
  3.816  10.5266
  3.813  10.6502
  3.810  10.6193
  3.807  10.6502
  3.805  10.5781
  3.802  10.5575
  3.799  10.6399
  3.796  10.7738
  3.794  10.7841
  3.791  10.7223
  3.788  10.5575
  3.785  10.5884
  3.782  10.6502
  3.780  10.4957
  3.777  10.4339
  3.774  10.4648
  3.771  10.5369
  3.769  10.5678
  3.766  10.4957
  3.763  10.4133
  3.761  10.4648
  3.758  10.5266
  3.755  10.4751
  3.752  10.5678
  3.750  10.5266
  3.747  10.4751
  3.744  10.4545
  3.742  10.4545
  3.739  10.4854
  3.736  10.4751
  3.733  10.4442
  3.731  10.4751
  3.728  10.4339
  3.725  10.3824
  3.723  10.3309
  3.720  10.3618
  3.717  10.4545
  3.715  10.4854
  3.712  10.4236
  3.709  10.4236
  3.707  10.3721
  3.704  10.4545
  3.702  10.5060
  3.699  10.5163
  3.696  10.4854
  3.694  10.4236
  3.691  10.3412
  3.688  10.3206
  3.686  10.3412
  3.683  10.4030
  3.680  10.4339
  3.678  10.4442
  3.675  10.3309
  3.673  10.3000
  3.670  10.3721
  3.667  10.4236
  3.665  10.2691
  3.662  10.2794
  3.660  10.3515
  3.657  10.4751
  3.655  10.4030
  3.652  10.2485
  3.649  10.2176
  3.647  10.2279
  3.644  10.1764
  3.642  10.2485
  3.639  10.2279
  3.637  10.1867
  3.634  10.1867
  3.632  10.1249
  3.629  10.0425
  3.626  10.0940
  3.624  10.0734
  3.621  10.1249
  3.619  10.1455
  3.616  10.0631
  3.614  10.0425
  3.611  10.1146
  3.609  10.0940
  3.606  10.0528
  3.604   9.9292
  3.601   9.8777
  3.599   9.9395
  3.596   9.9704
  3.594  10.0219
  3.591  10.0116
  3.589   9.8983
  3.586   9.8468
  3.584   9.8468
  3.581   9.8880
