Name: Rhyolite
Type: Rock
Class: Igneous
Subclass: Felsic
Particle Size: Whole Rock Chips
Sample No.: AP-938-91
Owner: United States Geological Survey, L. C. Rowan
Wavelength range: 0.405 - 14.05 um
Origin: Iberian Pyrite Belt, Spain

Description: Rhyolite, fresh, blue-gray





Measurement: Directional Hemispherical Reflectance
First Column: X
Second Column: Y
X Units: Wavelength (micrometers)
Y Units: Reflectance (percent)
First X Value: 14.05105
Last X Value: 0.40500
Number of X Values: 2530
Additional Information: rhy91a.txt

 14.051   2.9870
 14.013   3.1827
 13.975   3.4196
 13.938   3.4917
 13.900   3.4711
 13.863   3.3681
 13.826   3.5329
 13.790   3.6050
 13.753   3.5844
 13.717   3.5226
 13.680   3.3887
 13.644   3.3269
 13.609   3.5432
 13.573   3.6565
 13.538   3.6256
 13.502   3.6668
 13.467   3.8110
 13.432   3.9140
 13.398   3.9861
 13.363   4.0067
 13.329   3.9964
 13.295   3.9243
 13.261   4.0067
 13.227   4.0994
 13.193   4.2127
 13.160   4.4393
 13.126   4.6350
 13.093   4.5732
 13.060   4.6453
 13.027   4.8307
 12.995   5.0161
 12.962   5.1500
 12.930   5.3354
 12.898   5.6856
 12.866   6.3139
 12.834   6.9422
 12.802   7.3851
 12.771   7.4778
 12.739   7.2924
 12.708   6.8289
 12.677   6.1594
 12.646   5.5105
 12.616   5.0985
 12.585   5.0161
 12.554   5.2942
 12.524   5.6753
 12.494   6.0255
 12.464   6.0564
 12.434   5.8813
 12.404   5.3663
 12.375   4.4496
 12.345   3.2960
 12.316   2.4308
 12.287   1.9055
 12.258   1.6274
 12.229   1.5656
 12.200   1.7098
 12.171   1.8437
 12.143   1.9570
 12.115   2.0497
 12.086   2.2042
 12.058   2.3278
 12.030   2.5544
 12.002   2.6883
 11.975   2.6677
 11.947   2.6471
 11.920   2.7192
 11.892   2.8325
 11.865   2.9252
 11.838   3.0179
 11.811   3.0694
 11.784   3.1312
 11.757   3.2136
 11.731   3.2754
 11.704   3.3887
 11.678   3.4917
 11.652   3.5947
 11.626   3.5947
 11.600   3.6462
 11.574   3.6462
 11.548   3.6256
 11.522   3.6771
 11.497   3.8110
 11.471   3.7904
 11.446   3.8110
 11.421   3.8934
 11.396   3.9964
 11.371   4.0376
 11.346   4.0891
 11.321   4.1097
 11.297   4.0891
 11.272   4.0994
 11.248   4.2230
 11.223   4.2848
 11.199   4.3672
 11.175   4.3775
 11.151   4.4702
 11.127   4.4805
 11.103   4.4290
 11.079   4.4393
 11.056   4.5938
 11.032   4.6453
 11.009   4.7071
 10.985   4.7483
 10.962   4.8616
 10.939   4.9749
 10.916   5.0058
 10.893   4.9543
 10.870   5.0058
 10.848   5.0573
 10.825   5.0676
 10.802   5.0985
 10.780   5.1088
 10.758   5.1191
 10.735   5.2015
 10.713   5.2633
 10.691   5.3663
 10.669   5.4075
 10.647   5.4281
 10.625   5.4590
 10.604   5.5826
 10.582   5.5620
 10.560   5.6238
 10.539   5.7062
 10.518   5.7783
 10.496   5.8298
 10.475   5.9431
 10.454   5.9431
 10.433   5.9946
 10.412   6.0564
 10.391   6.1491
 10.370   6.2315
 10.350   6.2933
 10.329   6.3551
 10.309   6.5302
 10.288   6.6126
 10.268   6.7465
 10.247   6.8495
 10.227   6.9422
 10.207   7.0349
 10.187   7.1688
 10.167   7.3130
 10.147   7.3954
 10.127   7.4778
 10.108   7.6632
 10.088   7.7868
 10.068   7.9825
 10.049   8.0855
 10.029   8.1885
 10.010   8.2915
  9.991   8.3121
  9.972   8.3945
  9.952   8.5490
  9.933   8.7035
  9.914   8.8374
  9.895   9.0537
  9.877   9.3215
  9.858   9.3730
  9.839   9.3421
  9.821   9.3215
  9.802   9.4142
  9.783   9.5172
  9.765   9.6305
  9.747   9.8983
  9.728  10.1970
  9.710  10.4236
  9.692  10.7738
  9.674  11.1652
  9.656  11.5051
  9.638  11.7626
  9.620  11.9274
  9.602  12.0922
  9.585  12.3703
  9.567  12.5042
  9.549  12.6587
  9.532  12.9986
  9.514  13.4106
  9.497  13.8226
  9.479  14.3891
  9.462  15.0380
  9.445  15.8105
  9.428  16.6654
  9.411  17.7160
  9.394  19.0344
  9.377  20.6515
  9.360  22.3716
  9.343  23.9475
  9.326  25.3483
  9.309  26.4813
  9.293  27.2126
  9.276  27.7379
  9.259  28.0469
  9.243  28.2117
  9.226  28.2323
  9.210  28.2941
  9.194  28.3353
  9.178  28.2838
  9.161  28.2941
  9.145  28.2014
  9.129  28.0675
  9.113  28.0469
  9.097  27.9851
  9.081  27.7997
  9.065  27.5319
  9.049  27.3568
  9.034  27.2023
  9.018  27.0169
  9.002  26.8315
  8.987  26.6770
  8.971  26.3474
  8.956  26.0693
  8.940  25.8942
  8.925  25.6676
  8.909  25.4101
  8.894  25.2659
  8.879  24.9981
  8.864  24.6582
  8.849  24.4007
  8.834  24.2359
  8.819  23.9578
  8.804  23.6591
  8.789  23.3707
  8.774  23.1029
  8.759  22.9175
  8.744  22.7733
  8.730  22.6600
  8.715  22.4746
  8.700  22.1656
  8.686  21.7639
  8.671  21.2180
  8.657  20.3322
  8.642  18.9726
  8.628  17.3967
  8.614  16.6757
  8.599  17.4894
  8.585  19.1786
  8.571  20.7854
  8.557  21.9287
  8.543  22.7939
  8.529  23.3707
  8.515  23.8033
  8.501  24.0917
  8.487  24.4625
  8.473  24.7612
  8.459  24.9363
  8.445  25.1423
  8.431  25.3998
  8.418  25.5749
  8.404  25.7809
  8.391  26.0281
  8.377  26.3062
  8.363  26.5843
  8.350  26.8933
  8.337  27.2023
  8.323  27.5216
  8.310  27.8718
  8.297  28.2941
  8.283  28.6649
  8.270  28.9842
  8.257  29.2005
  8.244  29.3550
  8.231  29.4683
  8.218  29.4992
  8.205  29.3859
  8.192  29.0666
  8.179  28.5207
  8.166  27.9130
  8.153  27.1405
  8.140  26.0075
  8.128  24.6067
  8.115  23.1338
  8.102  21.6403
  8.090  20.3013
  8.077  19.0138
  8.064  17.7675
  8.052  16.5624
  8.039  15.4912
  8.027  14.4303
  8.015  13.4312
  8.002  12.6278
  7.990  11.9274
  7.978  11.1343
  7.965  10.3618
  7.953   9.5996
  7.941   8.8477
  7.929   8.0855
  7.917   7.3748
  7.905   6.7053
  7.893   6.2006
  7.881   5.6856
  7.869   5.2015
  7.857   4.7689
  7.845   4.4187
  7.833   4.0994
  7.821   3.8007
  7.809   3.5226
  7.798   3.3063
  7.786   3.1621
  7.774   3.0488
  7.763   2.8531
  7.751   2.7192
  7.739   2.5956
  7.728   2.4514
  7.716   2.3278
  7.705   2.2351
  7.694   2.0806
  7.682   1.9879
  7.671   1.8849
  7.659   1.7407
  7.648   1.6377
  7.637   1.5656
  7.626   1.5244
  7.614   1.4626
  7.603   1.4317
  7.592   1.4420
  7.581   1.3390
  7.570   1.2772
  7.559   1.2669
  7.548   1.2669
  7.537   1.2463
  7.526   1.2360
  7.515   1.1639
  7.504   1.1124
  7.493   1.1124
  7.483   1.1124
  7.472   1.0712
  7.461   1.0197
  7.450   0.9888
  7.440   1.0094
  7.429   0.9476
  7.418   0.8858
  7.408   0.9167
  7.397   1.0094
  7.387   1.0094
  7.376   0.9785
  7.366   0.9476
  7.355   0.9785
  7.345   0.9682
  7.334   0.8961
  7.324   0.8240
  7.314   0.8755
  7.303   0.9373
  7.293   0.9270
  7.283   0.9064
  7.273   0.9373
  7.263   0.9579
  7.252   0.9579
  7.242   0.9167
  7.232   0.9579
  7.222   0.9991
  7.212   1.0094
  7.202   0.9991
  7.192   1.0712
  7.182   1.1227
  7.172   1.1433
  7.162   1.0918
  7.152   1.1021
  7.143   1.0609
  7.133   0.9682
  7.123   0.9579
  7.113   1.0094
  7.103   1.0300
  7.094   1.0609
  7.084   1.0609
  7.074   1.0918
  7.065   1.1639
  7.055   1.1536
  7.046   1.1227
  7.036   1.1433
  7.026   1.1330
  7.017   1.1742
  7.007   1.1845
  6.998   1.1639
  6.989   1.0918
  6.979   1.0712
  6.970   1.1124
  6.960   1.1330
  6.951   1.1021
  6.942   1.1124
  6.932   1.1742
  6.923   1.2669
  6.914   1.2051
  6.905   1.1433
  6.896   1.1536
  6.886   1.2154
  6.877   1.2051
  6.868   1.1536
  6.859   1.1021
  6.850   1.1639
  6.841   1.2154
  6.832   1.1639
  6.823   1.1536
  6.814   1.1948
  6.805   1.2154
  6.796   1.2463
  6.787   1.2463
  6.778   1.2360
  6.770   1.1948
  6.761   1.1948
  6.752   1.2154
  6.743   1.1742
  6.734   1.1433
  6.726   1.1948
  6.717   1.1536
  6.708   1.1536
  6.700   1.2154
  6.691   1.2154
  6.682   1.1433
  6.674   1.1948
  6.665   1.2360
  6.657   1.2463
  6.648   1.2669
  6.640   1.3287
  6.631   1.3493
  6.623   1.2669
  6.614   1.1948
  6.606   1.2978
  6.597   1.3081
  6.589   1.2669
  6.581   1.2875
  6.572   1.3081
  6.564   1.2566
  6.556   1.2257
  6.547   1.2463
  6.539   1.2875
  6.531   1.3699
  6.523   1.3802
  6.514   1.3184
  6.506   1.3081
  6.498   1.3596
  6.490   1.4523
  6.482   1.5038
  6.474   1.5244
  6.466   1.5450
  6.458   1.5862
  6.450   1.5965
  6.442   1.5656
  6.434   1.5656
  6.426   1.6274
  6.418   1.6171
  6.410   1.5656
  6.402   1.5553
  6.394   1.5553
  6.386   1.5656
  6.378   1.5656
  6.370   1.5244
  6.363   1.5244
  6.355   1.5038
  6.347   1.5347
  6.339   1.5553
  6.332   1.5450
  6.324   1.4832
  6.316   1.4626
  6.308   1.4317
  6.301   1.4111
  6.293   1.3905
  6.286   1.4008
  6.278   1.3905
  6.270   1.3699
  6.263   1.3596
  6.255   1.3802
  6.248   1.3699
  6.240   1.3493
  6.233   1.3596
  6.225   1.3493
  6.218   1.2875
  6.210   1.3081
  6.203   1.2978
  6.195   1.3184
  6.188   1.3081
  6.181   1.3287
  6.173   1.3184
  6.166   1.3493
  6.159   1.4008
  6.151   1.4935
  6.144   1.5244
  6.137   1.5141
  6.130   1.5141
  6.122   1.5141
  6.115   1.5244
  6.108   1.5759
  6.101   1.6377
  6.094   1.6789
  6.086   1.6892
  6.079   1.6274
  6.072   1.6068
  6.065   1.6789
  6.058   1.6583
  6.051   1.6274
  6.044   1.6171
  6.037   1.6583
  6.030   1.6995
  6.023   1.6892
  6.016   1.6583
  6.009   1.6995
  6.002   1.7201
  5.995   1.6892
  5.988   1.6892
  5.981   1.7098
  5.974   1.6686
  5.967   1.6583
  5.960   1.6789
  5.954   1.6583
  5.947   1.5965
  5.940   1.6171
  5.933   1.6171
  5.926   1.6480
  5.920   1.6789
  5.913   1.6789
  5.906   1.6686
  5.899   1.7304
  5.893   1.7304
  5.886   1.7098
  5.879   1.7201
  5.873   1.7304
  5.866   1.7304
  5.859   1.7922
  5.853   1.8849
  5.846   1.9467
  5.840   1.9158
  5.833   1.9364
  5.827   1.9467
  5.820   1.9879
  5.813   1.9982
  5.807   1.9879
  5.800   1.9982
  5.794   2.0600
  5.788   2.1218
  5.781   2.1733
  5.775   2.1218
  5.768   2.0703
  5.762   2.0909
  5.755   2.1115
  5.749   2.0909
  5.743   2.1012
  5.736   2.1115
  5.730   2.1733
  5.724   2.1939
  5.717   2.2145
  5.711   2.2145
  5.705   2.2145
  5.698   2.1939
  5.692   2.1836
  5.686   2.2042
  5.680   2.2454
  5.674   2.2042
  5.667   2.1218
  5.661   2.1115
  5.655   2.0909
  5.649   2.1012
  5.643   2.0600
  5.637   2.0394
  5.630   1.9879
  5.624   1.9261
  5.618   1.9158
  5.612   1.9364
  5.606   1.9570
  5.600   1.9055
  5.594   1.9570
  5.588   1.9879
  5.582   1.9261
  5.576   1.8849
  5.570   1.8952
  5.564   1.8952
  5.558   1.9261
  5.552   1.9364
  5.546   1.9467
  5.540   1.9467
  5.534   1.9776
  5.528   2.0188
  5.523   2.0394
  5.517   2.0806
  5.511   2.1527
  5.505   2.1630
  5.499   2.1630
  5.493   2.2145
  5.487   2.2866
  5.482   2.2660
  5.476   2.2557
  5.470   2.2763
  5.464   2.3381
  5.459   2.3587
  5.453   2.3793
  5.447   2.3690
  5.441   2.3896
  5.436   2.3484
  5.430   2.2969
  5.424   2.2866
  5.419   2.3278
  5.413   2.2969
  5.407   2.2557
  5.402   2.2248
  5.396   2.1733
  5.390   2.0806
  5.385   2.0394
  5.379   2.0188
  5.374   1.9776
  5.368   1.9570
  5.363   1.9570
  5.357   1.8849
  5.352   1.9055
  5.346   1.9158
  5.341   1.9158
  5.335   1.9261
  5.330   1.9055
  5.324   1.9364
  5.319   1.9776
  5.313   1.9467
  5.308   1.9158
  5.302   1.9158
  5.297   1.9364
  5.291   1.9673
  5.286   1.9879
  5.281   1.9982
  5.275   2.0394
  5.270   2.0291
  5.265   2.0291
  5.259   2.0291
  5.254   2.0806
  5.249   2.1115
  5.243   2.1836
  5.238   2.2660
  5.233   2.3278
  5.227   2.3587
  5.222   2.4411
  5.217   2.5441
  5.212   2.5956
  5.206   2.5853
  5.201   2.6059
  5.196   2.6162
  5.191   2.6368
  5.186   2.6368
  5.180   2.6574
  5.175   2.6677
  5.170   2.6780
  5.165   2.6162
  5.160   2.5956
  5.155   2.6162
  5.150   2.6780
  5.145   2.6986
  5.139   2.6780
  5.134   2.6883
  5.129   2.6780
  5.124   2.6574
  5.119   2.6677
  5.114   2.6883
  5.109   2.6780
  5.104   2.6677
  5.099   2.6780
  5.094   2.6883
  5.089   2.6780
  5.084   2.5956
  5.079   2.5750
  5.074   2.5853
  5.069   2.5956
  5.064   2.5853
  5.059   2.5853
  5.054   2.5853
  5.049   2.6368
  5.044   2.6574
  5.040   2.6471
  5.035   2.6162
  5.030   2.6059
  5.025   2.5647
  5.020   2.5750
  5.015   2.5956
  5.010   2.6162
  5.005   2.6265
  5.001   2.5853
  4.996   2.6368
  4.991   2.7295
  4.986   2.6883
  4.981   2.6265
  4.977   2.6986
  4.972   2.8222
  4.967   2.8840
  4.962   2.9561
  4.958   2.9767
  4.953   3.0179
  4.948   3.0797
  4.943   3.1312
  4.939   3.1312
  4.934   3.1621
  4.929   3.2239
  4.925   3.2548
  4.920   3.2960
  4.915   3.3578
  4.911   3.3990
  4.906   3.4814
  4.901   3.6359
  4.897   3.8007
  4.892   3.9243
  4.888   4.1097
  4.883   4.2333
  4.878   4.3157
  4.874   4.3672
  4.869   4.4908
  4.865   4.6041
  4.860   4.6762
  4.856   4.7174
  4.851   4.8513
  4.846   4.9543
  4.842   5.0264
  4.837   5.0264
  4.833   5.0264
  4.828   5.1191
  4.824   5.2324
  4.819   5.2530
  4.815   5.2221
  4.810   5.2221
  4.806   5.2839
  4.802   5.3148
  4.797   5.3045
  4.793   5.3354
  4.788   5.3457
  4.784   5.3045
  4.779   5.2942
  4.775   5.3251
  4.771   5.3560
  4.766   5.4075
  4.762   5.5208
  4.758   5.5208
  4.753   5.5105
  4.749   5.5723
  4.744   5.6444
  4.740   5.7165
  4.736   5.7783
  4.731   5.7268
  4.727   5.7165
  4.723   5.7577
  4.719   5.7989
  4.714   5.7783
  4.710   5.7371
  4.706   5.7577
  4.701   5.7474
  4.697   5.7165
  4.693   5.7474
  4.689   5.7783
  4.684   5.7783
  4.680   5.6959
  4.676   5.6547
  4.672   5.7165
  4.668   5.8195
  4.663   5.8916
  4.659   6.0049
  4.655   6.0461
  4.651   6.0770
  4.647   6.1079
  4.643   6.1800
  4.638   6.2521
  4.634   6.2933
  4.630   6.3757
  4.626   6.5405
  4.622   6.6332
  4.618   6.5920
  4.614   6.5817
  4.610   6.7053
  4.605   6.8083
  4.601   6.7980
  4.597   6.7877
  4.593   6.8804
  4.589   6.9834
  4.585   7.0040
  4.581   7.0143
  4.577   7.0761
  4.573   7.0967
  4.569   7.0864
  4.565   7.1276
  4.561   7.2100
  4.557   7.1997
  4.553   7.1791
  4.549   7.1379
  4.545   7.1791
  4.541   7.2512
  4.537   7.2100
  4.533   7.1379
  4.529   7.1276
  4.525   7.0864
  4.521   6.9834
  4.517   6.9319
  4.513   6.9010
  4.509   6.7877
  4.505   6.6847
  4.502   6.6538
  4.498   6.6332
  4.494   6.6126
  4.490   6.6023
  4.486   6.5611
  4.482   6.5817
  4.478   6.6229
  4.474   6.6229
  4.470   6.5817
  4.467   6.5405
  4.463   6.5096
  4.459   6.5302
  4.455   6.5817
  4.451   6.7156
  4.447   6.8083
  4.444   6.8495
  4.440   6.9628
  4.436   6.9834
  4.432   6.9628
  4.428   7.0864
  4.425   7.1585
  4.421   7.2100
  4.417   7.2718
  4.413   7.3130
  4.410   7.3748
  4.406   7.4160
  4.402   7.5087
  4.398   7.6220
  4.395   7.7147
  4.391   7.8280
  4.387   7.8589
  4.384   7.9001
  4.380   7.9516
  4.376   8.1061
  4.372   8.2400
  4.369   8.3018
  4.365   8.3842
  4.361   8.5181
  4.358   8.6417
  4.354   8.6932
  4.350   8.6829
  4.347   8.7035
  4.343   8.7962
  4.340   8.8683
  4.336   8.9095
  4.332   8.9816
  4.329   9.0640
  4.325   9.1567
  4.321   9.1567
  4.318   9.1052
  4.314   9.1258
  4.311   9.1979
  4.307   9.1773
  4.304   9.2185
  4.300   9.2494
  4.296   9.1670
  4.293   9.1258
  4.289   9.2597
  4.286   9.3627
  4.282   9.4245
  4.279   9.4348
  4.275   9.4451
  4.272   9.5069
  4.268   9.4966
  4.265   9.5378
  4.261   9.5790
  4.258   9.5893
  4.254   9.6511
  4.251   9.7232
  4.247   9.7747
  4.244   9.7953
  4.240   9.8262
  4.237   9.8159
  4.233   9.7644
  4.230   9.7438
  4.226   9.8159
  4.223   9.8159
  4.219   9.7644
  4.216   9.7335
  4.213   9.8056
  4.209   9.8777
  4.206   9.8880
  4.202   9.8262
  4.199   9.8159
  4.196   9.7850
  4.192   9.8365
  4.189   9.8983
  4.185   9.9086
  4.182   9.8983
  4.179   9.8983
  4.175   9.9189
  4.172   9.9807
  4.169  10.0116
  4.165  10.0322
  4.162  10.1249
  4.159  10.1764
  4.155  10.1661
  4.152  10.1661
  4.149  10.1867
  4.145  10.2279
  4.142  10.1867
  4.139  10.1455
  4.135  10.2279
  4.132  10.3000
  4.129  10.3309
  4.126  10.3927
  4.122  10.3721
  4.119  10.3721
  4.116  10.4545
  4.112  10.4957
  4.109  10.4957
  4.106  10.5472
  4.103  10.5060
  4.099  10.5472
  4.096  10.6605
  4.093  10.7120
  4.090  10.7017
  4.086  10.6502
  4.083  10.6502
  4.080  10.7326
  4.077  10.7738
  4.074  10.8150
  4.070  10.7635
  4.067  10.7532
  4.064  10.7326
  4.061  10.7017
  4.058  10.7326
  4.055  10.7326
  4.051  10.8047
  4.048  10.8356
  4.045  10.7738
  4.042  10.7841
  4.039  10.8253
  4.036  10.8459
  4.032  10.7944
  4.029  10.7944
  4.026  10.7326
  4.023  10.6399
  4.020  10.7120
  4.017  10.8047
  4.014  10.7326
  4.011  10.7944
  4.008  10.8562
  4.004  10.8665
  4.001  10.7841
  3.998  10.7120
  3.995  10.7326
  3.992  10.8150
  3.989  10.8459
  3.986  10.8047
  3.983  10.8253
  3.980  10.8665
  3.977  10.8871
  3.974  10.9489
  3.971  10.9283
  3.968  10.9489
  3.965  10.9798
  3.962  11.0313
  3.959  10.9695
  3.956  10.9798
  3.953  11.0313
  3.950  11.0210
  3.947  10.9695
  3.944  10.9386
  3.941  11.0416
  3.938  11.1137
  3.935  11.2064
  3.932  11.2682
  3.929  11.1549
  3.926  11.1549
  3.923  11.1549
  3.920  11.1652
  3.917  11.2064
  3.914  11.1549
  3.911  11.1343
  3.908  11.1549
  3.905  11.1137
  3.902  11.1755
  3.899  11.1858
  3.896  11.1240
  3.893  11.1137
  3.890  11.0931
  3.887  10.9901
  3.884  11.0004
  3.882  11.0519
  3.879  11.0828
  3.876  11.1240
  3.873  11.1652
  3.870  11.1549
  3.867  11.1343
  3.864  11.1446
  3.861  11.1137
  3.858  11.0313
  3.856  11.0519
  3.853  11.0416
  3.850  11.0828
  3.847  11.1034
  3.844  11.0622
  3.841  11.0828
  3.838  11.1240
  3.836  11.1755
  3.833  11.2270
  3.830  11.2579
  3.827  11.1549
  3.824  11.0828
  3.822  11.1446
  3.819  11.1034
  3.816  11.1240
  3.813  11.1961
  3.810  11.1858
  3.807  11.1137
  3.805  11.1137
  3.802  11.1446
  3.799  11.1652
  3.796  11.1446
  3.794  11.1240
  3.791  11.1343
  3.788  11.1858
  3.785  11.2167
  3.782  11.1652
  3.780  11.1446
  3.777  11.1755
  3.774  11.1755
  3.771  11.1137
  3.769  11.0416
  3.766  11.0931
  3.763  11.0313
  3.761  10.9798
  3.758  10.9798
  3.755  10.9901
  3.752  11.0416
  3.750  10.9798
  3.747  10.8974
  3.744  10.8768
  3.742  10.8665
  3.739  10.8665
  3.736  10.8562
  3.733  10.8768
  3.731  10.9180
  3.728  10.9283
  3.725  10.8356
  3.723  10.8665
  3.720  10.9077
  3.717  10.8665
  3.715  10.8253
  3.712  10.9180
  3.709  10.9798
  3.707  10.9798
  3.704  10.8974
  3.702  10.9386
  3.699  10.9283
  3.696  10.8665
  3.694  10.9180
  3.691  10.9592
  3.688  10.8768
  3.686  10.8768
  3.683  10.9283
  3.680  10.9180
  3.678  10.8768
  3.675  10.9386
  3.673  11.0416
  3.670  11.1137
  3.667  11.0828
  3.665  11.0210
  3.662  10.9386
  3.660  11.0210
  3.657  11.0931
  3.655  11.0519
  3.652  10.9592
  3.649  10.9592
  3.647  10.9489
  3.644  10.9901
  3.642  11.0313
  3.639  10.9592
  3.637  10.8562
  3.634  10.8253
  3.632  10.8665
  3.629  10.9901
  3.626  11.0107
  3.624  10.9695
  3.621  10.8356
  3.619  10.8562
  3.616  10.8562
  3.614  10.8047
  3.611  10.7326
  3.609  10.6502
  3.606  10.6708
  3.604  10.7429
  3.601  10.7326
  3.599  10.6811
  3.596  10.6399
  3.594  10.6605
  3.591  10.6811
  3.589  10.7120
  3.586  10.7738
  3.584  10.6605
