Name: Rhyolite
Type: Rock
Class: Igneous
Subclass: Felsic
Particle Size: Whole Rock Chips
Sample No.: AP-939-212b
Owner: United States Geological Survey, L. C. Rowan
Wavelength range: 0.405 - 14.05 um
Origin: Iberian Pyrite Belt, Spain

Description: Rhyolite, white, fine, altered





Measurement: Directional Hemispherical Reflectance
First Column: X
Second Column: Y
X Units: Wavelength (micrometers)
Y Units: Reflectance (percent)
First X Value: 14.05105
Last X Value: 0.40500
Number of X Values: 2530
Additional Information: rhy212ba.txt

 14.051   1.6789
 14.013   1.7819
 13.975   1.8437
 13.938   1.6171
 13.900   1.7716
 13.863   1.8643
 13.826   1.9158
 13.790   1.8540
 13.753   2.0085
 13.717   2.0085
 13.680   2.1115
 13.644   1.9879
 13.609   2.0600
 13.573   2.1012
 13.538   2.0806
 13.502   2.1012
 13.467   2.1836
 13.432   2.1012
 13.398   2.2866
 13.363   2.2969
 13.329   2.3175
 13.295   2.1630
 13.261   2.1527
 13.227   2.2042
 13.193   2.2557
 13.160   2.2145
 13.126   2.2866
 13.093   2.3999
 13.060   2.4823
 13.027   2.4411
 12.995   2.5338
 12.962   2.6162
 12.930   2.7295
 12.898   2.7707
 12.866   2.9149
 12.834   2.9458
 12.802   3.0282
 12.771   2.9458
 12.739   2.8634
 12.708   2.8119
 12.677   2.8119
 12.646   2.7810
 12.616   2.7604
 12.585   2.6471
 12.554   2.8119
 12.524   2.8531
 12.494   2.9252
 12.464   2.8531
 12.434   2.8222
 12.404   2.7707
 12.375   2.7707
 12.345   2.6471
 12.316   2.5647
 12.287   2.5544
 12.258   2.5956
 12.229   2.6059
 12.200   2.7501
 12.171   2.7810
 12.143   2.8531
 12.115   2.8840
 12.086   2.9561
 12.058   2.9355
 12.030   3.0076
 12.002   2.9767
 11.975   3.1312
 11.947   3.1724
 11.920   3.1518
 11.892   3.1518
 11.865   3.2445
 11.838   3.2342
 11.811   3.3166
 11.784   3.3269
 11.757   3.3681
 11.731   3.3990
 11.704   3.4608
 11.678   3.4505
 11.652   3.5741
 11.626   3.6256
 11.600   3.7389
 11.574   3.7904
 11.548   3.8625
 11.522   3.8419
 11.497   3.8625
 11.471   3.9037
 11.446   4.0170
 11.421   3.9861
 11.396   3.9552
 11.371   3.9655
 11.346   4.1303
 11.321   4.1612
 11.297   4.2333
 11.272   4.2539
 11.248   4.3157
 11.223   4.2951
 11.199   4.3878
 11.175   4.4805
 11.151   4.6865
 11.127   4.7792
 11.103   4.8719
 11.079   4.9028
 11.056   5.0367
 11.032   5.0470
 11.009   5.0985
 10.985   5.1191
 10.962   5.1397
 10.939   5.0161
 10.916   4.8925
 10.893   4.5938
 10.870   4.3363
 10.848   4.1200
 10.825   3.9655
 10.802   3.7698
 10.780   3.6874
 10.758   3.5844
 10.735   3.5844
 10.713   3.6256
 10.691   3.6668
 10.669   3.6668
 10.647   3.6977
 10.625   3.6771
 10.604   3.7595
 10.582   3.7904
 10.560   3.8934
 10.539   3.9861
 10.518   4.1097
 10.496   4.1509
 10.475   4.2745
 10.454   4.3981
 10.433   4.5629
 10.412   4.7071
 10.391   4.9646
 10.370   5.1294
 10.350   5.2324
 10.329   5.3457
 10.309   5.6238
 10.288   5.8092
 10.268   6.0358
 10.247   6.1491
 10.227   6.2418
 10.207   6.3654
 10.187   6.5714
 10.167   6.7774
 10.147   6.9525
 10.127   7.0555
 10.108   7.2924
 10.088   7.5087
 10.068   7.7765
 10.049   8.0031
 10.029   8.4048
 10.010   8.6726
  9.991   8.9816
  9.972   9.2700
  9.952   9.5378
  9.933   9.8159
  9.914  10.1558
  9.895  10.2691
  9.877  10.2691
  9.858  10.1764
  9.839  10.1867
  9.821  10.0631
  9.802   9.9807
  9.783  10.0013
  9.765  10.1867
  9.747  10.5369
  9.728  11.0004
  9.710  11.4124
  9.692  11.8141
  9.674  12.2570
  9.656  12.7926
  9.638  13.1222
  9.620  13.5445
  9.602  13.9462
  9.585  14.2964
  9.567  14.5848
  9.549  14.9247
  9.532  15.2028
  9.514  15.4088
  9.497  15.6354
  9.479  15.8311
  9.462  15.8620
  9.445  15.9135
  9.428  15.8517
  9.411  15.7487
  9.394  15.5633
  9.377  15.4500
  9.360  15.2337
  9.343  14.9968
  9.326  14.6981
  9.309  14.3376
  9.293  13.9153
  9.276  13.6063
  9.259  13.1943
  9.243  12.9368
  9.226  12.8441
  9.210  12.6690
  9.194  12.2776
  9.178  12.0304
  9.161  11.8038
  9.145  11.5154
  9.129  11.1343
  9.113  10.8253
  9.097  10.4957
  9.081  10.0322
  9.065   9.4348
  9.049   8.9713
  9.034   8.4563
  9.018   7.8898
  9.002   7.3130
  8.987   7.0658
  8.971   7.0967
  8.956   7.2924
  8.940   7.5602
  8.925   7.9619
  8.909   8.3636
  8.894   8.7447
  8.879   9.0537
  8.864   9.2597
  8.849   9.3112
  8.834   9.4348
  8.819   9.4760
  8.804   9.4142
  8.789   9.2391
  8.774   8.9919
  8.759   8.6932
  8.744   8.5284
  8.730   8.2503
  8.715   7.9207
  8.700   7.5911
  8.686   7.2924
  8.671   7.0143
  8.657   6.6847
  8.642   6.2624
  8.628   5.9637
  8.614   5.7268
  8.599   5.7989
  8.585   6.0255
  8.571   6.1903
  8.557   6.1800
  8.543   6.1800
  8.529   6.2830
  8.515   6.4066
  8.501   6.3963
  8.487   6.3654
  8.473   6.3036
  8.459   6.3345
  8.445   6.4272
  8.431   6.5508
  8.418   6.5611
  8.404   6.6023
  8.391   6.6744
  8.377   6.7259
  8.363   6.7568
  8.350   6.8392
  8.337   6.8804
  8.323   6.9937
  8.310   6.9731
  8.297   7.0555
  8.283   7.1276
  8.270   7.2100
  8.257   7.3130
  8.244   7.4160
  8.231   7.4366
  8.218   7.6014
  8.205   7.7868
  8.192   7.9207
  8.179   7.9207
  8.166   7.9104
  8.153   7.8692
  8.140   7.7250
  8.128   7.4469
  8.115   7.0967
  8.102   6.8083
  8.090   6.5714
  8.077   6.2109
  8.064   5.9019
  8.052   5.6444
  8.039   5.4487
  8.027   5.1912
  8.015   5.0058
  8.002   4.7792
  7.990   4.6144
  7.978   4.5011
  7.965   4.3569
  7.953   4.1200
  7.941   3.9655
  7.929   3.7595
  7.917   3.6359
  7.905   3.4608
  7.893   3.2754
  7.881   3.1621
  7.869   3.1106
  7.857   3.0076
  7.845   2.9252
  7.833   2.7707
  7.821   2.7501
  7.809   2.7398
  7.798   2.6883
  7.786   2.6265
  7.774   2.6368
  7.763   2.5338
  7.751   2.5235
  7.739   2.5750
  7.728   2.6059
  7.716   2.5029
  7.705   2.4823
  7.694   2.4411
  7.682   2.3999
  7.671   2.3587
  7.659   2.3278
  7.648   2.3072
  7.637   2.2969
  7.626   2.2351
  7.614   2.2454
  7.603   2.2145
  7.592   2.1836
  7.581   2.1321
  7.570   2.1321
  7.559   2.0806
  7.548   2.1012
  7.537   2.0909
  7.526   2.1218
  7.515   2.1218
  7.504   2.0291
  7.493   1.9467
  7.483   2.0497
  7.472   2.0497
  7.461   2.0497
  7.450   1.9982
  7.440   1.9055
  7.429   1.9261
  7.418   2.0291
  7.408   1.9982
  7.397   1.9158
  7.387   1.8849
  7.376   1.9261
  7.366   1.8746
  7.355   1.9158
  7.345   1.9055
  7.334   1.8540
  7.324   1.8849
  7.314   1.9673
  7.303   1.9158
  7.293   1.8849
  7.283   1.8437
  7.273   1.8540
  7.263   1.9055
  7.252   1.9879
  7.242   1.9570
  7.232   1.8952
  7.222   1.8437
  7.212   1.8849
  7.202   1.9570
  7.192   1.9261
  7.182   1.8952
  7.172   1.8952
  7.162   1.9055
  7.152   1.9570
  7.143   1.9364
  7.133   1.9158
  7.123   1.9364
  7.113   1.9673
  7.103   1.9673
  7.094   1.9982
  7.084   1.9776
  7.074   1.9673
  7.065   1.9158
  7.055   1.9055
  7.046   1.9158
  7.036   1.9570
  7.026   1.9158
  7.017   1.9055
  7.007   1.8849
  6.998   1.9261
  6.989   1.9467
  6.979   1.9570
  6.970   1.9776
  6.960   2.0188
  6.951   2.0188
  6.942   2.0291
  6.932   2.0085
  6.923   2.0291
  6.914   2.0600
  6.905   2.0497
  6.896   2.0188
  6.886   2.0188
  6.877   2.0085
  6.868   2.0497
  6.859   1.9982
  6.850   2.0291
  6.841   2.0600
  6.832   2.1218
  6.823   2.1939
  6.814   2.1939
  6.805   2.1115
  6.796   2.1012
  6.787   2.1218
  6.778   2.1527
  6.770   2.0806
  6.761   2.0806
  6.752   2.1424
  6.743   2.2248
  6.734   2.2351
  6.726   2.2351
  6.717   2.2660
  6.708   2.2866
  6.700   2.2351
  6.691   2.2866
  6.682   2.3484
  6.674   2.3793
  6.665   2.3690
  6.657   2.3793
  6.648   2.3690
  6.640   2.3587
  6.631   2.3999
  6.623   2.4411
  6.614   2.3999
  6.606   2.4205
  6.597   2.4308
  6.589   2.4411
  6.581   2.4617
  6.572   2.4514
  6.564   2.4205
  6.556   2.3999
  6.547   2.3690
  6.539   2.4308
  6.531   2.4308
  6.523   2.4205
  6.514   2.3999
  6.506   2.4411
  6.498   2.5029
  6.490   2.5647
  6.482   2.5441
  6.474   2.5750
  6.466   2.5956
  6.458   2.6059
  6.450   2.6059
  6.442   2.5853
  6.434   2.5750
  6.426   2.6368
  6.418   2.6368
  6.410   2.6368
  6.402   2.5956
  6.394   2.5956
  6.386   2.6162
  6.378   2.6574
  6.370   2.6368
  6.363   2.5853
  6.355   2.5544
  6.347   2.6059
  6.339   2.6059
  6.332   2.5441
  6.324   2.4926
  6.316   2.5441
  6.308   2.5750
  6.301   2.5441
  6.293   2.4823
  6.286   2.4308
  6.278   2.4102
  6.270   2.4308
  6.263   2.4308
  6.255   2.4205
  6.248   2.3896
  6.240   2.3999
  6.233   2.3587
  6.225   2.3278
  6.218   2.2763
  6.210   2.2660
  6.203   2.2454
  6.195   2.1836
  6.188   2.1218
  6.181   2.1424
  6.173   2.1012
  6.166   2.0909
  6.159   2.1012
  6.151   2.1012
  6.144   2.1012
  6.137   2.1012
  6.130   2.1115
  6.122   2.1115
  6.115   2.0806
  6.108   2.0909
  6.101   2.1115
  6.094   2.0806
  6.086   2.0085
  6.079   2.0394
  6.072   2.0497
  6.065   2.0291
  6.058   2.0085
  6.051   2.0394
  6.044   2.0600
  6.037   2.0909
  6.030   2.0806
  6.023   2.0806
  6.016   2.1115
  6.009   2.1630
  6.002   2.1630
  5.995   2.1836
  5.988   2.2145
  5.981   2.2557
  5.974   2.2351
  5.967   2.2248
  5.960   2.2557
  5.954   2.3072
  5.947   2.3484
  5.940   2.3793
  5.933   2.3999
  5.926   2.4205
  5.920   2.4102
  5.913   2.4720
  5.906   2.5029
  5.899   2.5029
  5.893   2.5029
  5.886   2.5132
  5.879   2.5441
  5.873   2.6471
  5.866   2.6883
  5.859   2.6883
  5.853   2.6780
  5.846   2.6986
  5.840   2.7192
  5.833   2.7810
  5.827   2.8222
  5.820   2.8531
  5.813   2.9252
  5.807   2.9458
  5.800   2.9252
  5.794   2.9664
  5.788   2.9561
  5.781   2.9767
  5.775   3.0282
  5.768   3.1003
  5.762   3.1209
  5.755   3.0900
  5.749   3.0900
  5.743   3.1209
  5.736   3.1724
  5.730   3.2136
  5.724   3.2136
  5.717   3.2239
  5.711   3.2857
  5.705   3.3166
  5.698   3.2857
  5.692   3.3166
  5.686   3.3372
  5.680   3.3269
  5.674   3.3475
  5.667   3.3681
  5.661   3.3887
  5.655   3.3887
  5.649   3.3784
  5.643   3.3784
  5.637   3.3269
  5.630   3.3269
  5.624   3.3681
  5.618   3.4402
  5.612   3.4299
  5.606   3.3578
  5.600   3.3578
  5.594   3.3784
  5.588   3.4093
  5.582   3.4299
  5.576   3.4299
  5.570   3.3784
  5.564   3.3681
  5.558   3.4505
  5.552   3.4093
  5.546   3.3681
  5.540   3.3990
  5.534   3.4402
  5.528   3.4608
  5.523   3.4711
  5.517   3.4711
  5.511   3.4608
  5.505   3.4505
  5.499   3.4711
  5.493   3.4711
  5.487   3.5020
  5.482   3.5226
  5.476   3.5226
  5.470   3.5535
  5.464   3.5947
  5.459   3.5535
  5.453   3.5844
  5.447   3.6050
  5.441   3.6359
  5.436   3.6359
  5.430   3.5638
  5.424   3.5844
  5.419   3.6153
  5.413   3.6153
  5.407   3.6359
  5.402   3.6256
  5.396   3.5947
  5.390   3.5741
  5.385   3.5638
  5.379   3.5844
  5.374   3.6153
  5.368   3.5947
  5.363   3.5638
  5.357   3.5432
  5.352   3.5432
  5.346   3.5432
  5.341   3.6050
  5.335   3.6668
  5.330   3.6874
  5.324   3.6462
  5.319   3.6668
  5.313   3.6874
  5.308   3.6977
  5.302   3.7183
  5.297   3.7492
  5.291   3.7389
  5.286   3.7286
  5.281   3.8007
  5.275   3.8213
  5.270   3.8213
  5.265   3.8728
  5.259   3.9243
  5.254   3.9449
  5.249   3.9655
  5.243   4.0067
  5.238   4.0273
  5.233   4.0788
  5.227   4.1200
  5.222   4.1303
  5.217   4.1818
  5.212   4.2642
  5.206   4.2848
  5.201   4.2642
  5.196   4.2848
  5.191   4.2951
  5.186   4.3260
  5.180   4.3054
  5.175   4.2848
  5.170   4.3157
  5.165   4.3363
  5.160   4.3569
  5.155   4.3878
  5.150   4.4290
  5.145   4.4702
  5.139   4.4599
  5.134   4.4187
  5.129   4.4599
  5.124   4.4908
  5.119   4.5011
  5.114   4.5629
  5.109   4.6144
  5.104   4.5629
  5.099   4.5320
  5.094   4.5629
  5.089   4.5938
  5.084   4.6144
  5.079   4.6144
  5.074   4.6350
  5.069   4.6453
  5.064   4.6865
  5.059   4.6865
  5.054   4.6659
  5.049   4.6659
  5.044   4.6968
  5.040   4.7586
  5.035   4.7483
  5.030   4.7277
  5.025   4.7586
  5.020   4.7895
  5.015   4.7895
  5.010   4.8101
  5.005   4.7895
  5.001   4.8410
  4.996   4.8925
  4.991   4.8822
  4.986   4.8719
  4.981   4.9337
  4.977   4.9955
  4.972   5.0367
  4.967   5.1088
  4.962   5.1706
  4.958   5.2324
  4.953   5.3045
  4.948   5.3457
  4.943   5.3766
  4.939   5.4075
  4.934   5.4281
  4.929   5.4590
  4.925   5.4899
  4.920   5.5620
  4.915   5.6238
  4.911   5.7062
  4.906   5.8195
  4.901   5.9225
  4.897   5.9843
  4.892   6.0564
  4.888   6.1285
  4.883   6.2418
  4.878   6.3654
  4.874   6.4272
  4.869   6.4581
  4.865   6.5611
  4.860   6.7156
  4.856   6.7671
  4.851   6.7774
  4.846   6.8598
  4.842   6.9525
  4.837   7.0864
  4.833   7.1379
  4.828   7.1276
  4.824   7.1379
  4.819   7.1688
  4.815   7.1894
  4.810   7.2409
  4.806   7.3027
  4.802   7.3748
  4.797   7.4057
  4.793   7.4263
  4.788   7.4469
  4.784   7.4469
  4.779   7.4778
  4.775   7.5499
  4.771   7.5602
  4.766   7.6117
  4.762   7.6426
  4.758   7.6529
  4.753   7.6735
  4.749   7.7147
  4.744   7.7662
  4.740   7.8280
  4.736   7.8898
  4.731   7.9413
  4.727   7.9722
  4.723   7.9619
  4.719   7.9928
  4.714   8.0340
  4.710   8.0546
  4.706   8.0855
  4.701   8.0649
  4.697   8.0752
  4.693   8.0443
  4.689   7.9722
  4.684   8.0031
  4.680   8.1061
  4.676   8.1267
  4.672   8.1473
  4.668   8.1782
  4.663   8.2091
  4.659   8.2812
  4.655   8.4151
  4.651   8.5284
  4.647   8.5387
  4.643   8.5799
  4.638   8.7241
  4.634   8.8168
  4.630   8.8580
  4.626   8.9610
  4.622   9.0846
  4.618   9.1567
  4.614   9.2185
  4.610   9.3215
  4.605   9.4142
  4.601   9.4245
  4.597   9.4863
  4.593   9.5790
  4.589   9.5996
  4.585   9.5893
  4.581   9.6511
  4.577   9.7335
  4.573   9.7953
  4.569   9.8056
  4.565   9.8365
  4.561   9.8468
  4.557   9.7850
  4.553   9.8777
  4.549   9.9498
  4.545   9.8777
  4.541   9.8674
  4.537   9.8880
  4.533   9.8159
  4.529   9.7953
  4.525   9.7850
  4.521   9.8159
  4.517   9.8056
  4.513   9.6511
  4.509   9.5996
  4.505   9.5584
  4.502   9.4760
  4.498   9.3936
  4.494   9.4039
  4.490   9.4142
  4.486   9.3833
  4.482   9.3833
  4.478   9.4348
  4.474   9.4554
  4.470   9.4142
  4.467   9.3318
  4.463   9.4142
  4.459   9.5378
  4.455   9.5790
  4.451   9.6820
  4.447   9.8056
  4.444   9.7644
  4.440   9.7747
  4.436   9.9189
  4.432  10.0734
  4.428  10.1455
  4.425  10.1764
  4.421  10.1867
  4.417  10.2279
  4.413  10.2279
  4.410  10.3206
  4.406  10.4339
  4.402  10.4751
  4.398  10.5575
  4.395  10.7017
  4.391  10.7944
  4.387  10.8871
  4.384  10.9489
  4.380  11.0622
  4.376  11.2476
  4.372  11.3815
  4.369  11.4433
  4.365  11.5051
  4.361  11.5463
  4.358  11.6081
  4.354  11.7214
  4.350  11.8759
  4.347  11.9686
  4.343  11.9995
  4.340  12.0922
  4.336  12.2364
  4.332  12.2673
  4.329  12.3085
  4.325  12.2467
  4.321  12.2467
  4.318  12.3394
  4.314  12.4218
  4.311  12.3909
  4.307  12.3291
  4.304  12.3497
  4.300  12.4527
  4.296  12.4527
  4.293  12.4527
  4.289  12.5145
  4.286  12.5660
  4.282  12.6793
  4.279  12.6999
  4.275  12.6896
  4.272  12.7205
  4.268  12.8338
  4.265  12.9059
  4.261  12.8647
  4.258  12.8647
  4.254  12.8853
  4.251  12.9574
  4.247  13.0501
  4.244  13.0707
  4.240  13.0810
  4.237  13.1119
  4.233  13.1119
  4.230  13.1428
  4.226  13.1943
  4.223  13.2561
  4.219  13.2664
  4.216  13.2355
  4.213  13.2149
  4.209  13.2664
  4.206  13.3179
  4.202  13.3282
  4.199  13.2973
  4.196  13.3179
  4.192  13.3179
  4.189  13.3900
  4.185  13.4415
  4.182  13.4415
  4.179  13.4312
  4.175  13.4724
  4.172  13.5857
  4.169  13.6578
  4.165  13.6681
  4.162  13.7711
  4.159  13.8020
  4.155  13.7505
  4.152  13.7608
  4.149  13.8123
  4.145  13.8226
  4.142  13.8947
  4.139  14.0080
  4.135  14.1007
  4.132  14.0595
  4.129  14.0801
  4.126  14.1728
  4.122  14.1522
  4.119  14.1419
  4.116  14.2037
  4.112  14.2552
  4.109  14.2655
  4.106  14.3067
  4.103  14.3479
  4.099  14.3273
  4.096  14.4097
  4.093  14.5024
  4.090  14.5024
  4.086  14.4818
  4.083  14.4612
  4.080  14.4818
  4.077  14.5848
  4.074  14.6363
  4.070  14.7290
  4.067  14.7496
  4.064  14.6981
  4.061  14.7290
  4.058  14.8526
  4.055  14.8320
  4.051  14.8011
  4.048  14.8217
  4.045  14.8011
  4.042  14.7393
  4.039  14.7084
  4.036  14.8011
  4.032  14.8217
  4.029  14.8217
  4.026  14.8320
  4.023  14.7496
  4.020  14.7084
  4.017  14.8423
  4.014  14.9247
  4.011  14.8629
  4.008  14.8526
  4.004  14.8732
  4.001  14.8629
  3.998  14.8732
  3.995  15.0071
  3.992  15.0586
  3.989  15.0380
  3.986  14.9762
  3.983  14.9659
  3.980  14.9968
  3.977  15.0895
  3.974  15.1616
  3.971  15.1410
  3.968  15.1307
  3.965  15.1513
  3.962  15.1204
  3.959  15.1101
  3.956  15.2131
  3.953  15.3264
  3.950  15.3676
  3.947  15.3470
  3.944  15.3367
  3.941  15.4191
  3.938  15.5221
  3.935  15.4912
  3.932  15.4294
  3.929  15.5221
  3.926  15.5942
  3.923  15.5427
  3.920  15.5324
  3.917  15.5942
  3.914  15.6148
  3.911  15.6148
  3.908  15.5221
  3.905  15.5839
  3.902  15.6457
  3.899  15.5942
  3.896  15.6251
  3.893  15.5633
  3.890  15.4500
  3.887  15.5118
  3.884  15.5324
  3.882  15.5427
  3.879  15.4706
  3.876  15.5221
  3.873  15.5530
  3.870  15.5530
  3.867  15.5736
  3.864  15.5839
  3.861  15.4912
  3.858  15.4706
  3.856  15.4191
  3.853  15.4191
  3.850  15.4500
  3.847  15.4912
  3.844  15.5118
  3.841  15.5324
  3.838  15.4809
  3.836  15.4294
  3.833  15.3882
  3.830  15.5015
  3.827  15.5633
  3.824  15.5942
  3.822  15.5633
  3.819  15.4912
  3.816  15.4912
  3.813  15.5530
  3.810  15.5633
  3.807  15.5324
  3.805  15.5015
  3.802  15.4500
  3.799  15.3470
  3.796  15.3573
  3.794  15.4088
  3.791  15.4706
  3.788  15.3882
  3.785  15.3676
  3.782  15.3676
  3.780  15.3161
  3.777  15.2852
  3.774  15.2337
  3.771  15.2234
  3.769  15.1513
  3.766  15.0689
  3.763  14.9865
  3.761  14.9556
  3.758  15.0380
  3.755  15.0071
  3.752  14.9762
  3.750  14.9556
  3.747  14.9453
  3.744  14.9556
  3.742  14.9968
  3.739  14.8320
  3.736  14.6878
  3.733  14.6878
  3.731  14.7084
  3.728  14.6466
  3.725  14.6260
  3.723  14.7084
  3.720  14.7290
  3.717  14.6878
  3.715  14.6981
  3.712  14.6363
  3.709  14.6260
  3.707  14.6054
  3.704  14.5024
  3.702  14.4303
  3.699  14.4612
  3.696  14.4818
  3.694  14.4921
  3.691  14.3891
  3.688  14.3479
  3.686  14.3479
  3.683  14.2964
  3.680  14.2552
  3.678  14.2964
  3.675  14.3685
  3.673  14.4200
  3.670  14.3788
  3.667  14.3170
  3.665  14.2449
  3.662  14.2552
  3.660  14.3170
  3.657  14.3479
  3.655  14.2037
  3.652  14.2140
  3.649  14.1728
  3.647  14.0492
  3.644  13.9256
  3.642  13.9256
  3.639  13.9256
  3.637  13.9359
  3.634  13.9256
  3.632  13.8947
  3.629  13.8844
  3.626  13.8432
  3.624  13.6887
  3.621  13.6681
  3.619  13.7711
  3.616  13.7402
  3.614  13.5857
  3.611  13.5239
  3.609  13.4518
  3.606  13.3488
  3.604  13.3076
  3.601  13.2973
  3.599  13.2870
  3.596  13.2973
  3.594  13.2046
  3.591  13.1943
  3.589  13.1222
  3.586  13.0398
  3.584  13.0192
