Name: Basalt
Type: Rock
Class: Igneous
Subclass: Mafic
Particle Size: Whole rock chips
Sample No.: Me41
Owner: Lawrence Rowan, USGS Reston
Wavelength range: 0.40 - 14.05 um
Origin: Middle East

Description: Basalt





Measurement: Directional Hemispherical Reflectance
First Column: X
Second Column: Y
X Units: Wavelength (micrometers)
Y Units: Reflectance (percent)
First X Value: 14.05105
Last X Value: 0.40000
Number of X Values: 2231
Additional Information: me41a.txt

 14.051   2.3999
 14.013   2.2866
 13.975   2.4514
 13.938   2.5544
 13.900   2.6368
 13.863   2.5338
 13.826   2.6368
 13.790   2.5544
 13.753   2.6471
 13.717   2.6677
 13.680   2.7398
 13.644   2.6986
 13.609   2.7707
 13.573   2.6986
 13.538   2.7913
 13.502   2.7398
 13.467   2.7707
 13.432   2.7089
 13.398   2.7707
 13.363   2.8119
 13.329   2.8016
 13.295   2.7501
 13.261   2.8119
 13.227   2.7398
 13.193   2.8222
 13.160   2.7604
 13.126   2.7398
 13.093   2.6986
 13.060   2.8016
 13.027   2.8531
 12.995   2.9046
 12.962   2.8222
 12.930   2.8737
 12.898   2.8016
 12.866   2.8428
 12.834   2.8737
 12.802   2.9149
 12.771   2.8428
 12.739   2.9149
 12.708   2.8840
 12.677   2.8634
 12.646   2.9252
 12.616   3.0488
 12.585   2.9767
 12.554   3.1209
 12.524   3.1518
 12.494   3.1621
 12.464   3.1415
 12.434   3.2033
 12.404   3.2445
 12.375   3.3990
 12.345   3.5123
 12.316   3.5638
 12.287   3.5741
 12.258   3.6874
 12.229   3.6565
 12.200   3.7492
 12.171   3.8110
 12.143   3.8831
 12.115   3.9037
 12.086   4.0685
 12.058   4.1097
 12.030   4.2024
 12.002   4.1921
 11.975   4.2230
 11.947   4.2024
 11.920   4.2024
 11.892   4.1612
 11.865   4.3363
 11.838   4.4290
 11.811   4.4599
 11.784   4.4908
 11.757   4.7071
 11.731   4.7483
 11.704   4.7895
 11.678   4.8410
 11.652   4.9749
 11.626   5.0779
 11.600   5.2221
 11.574   5.2427
 11.548   5.3457
 11.522   5.4487
 11.497   5.5517
 11.471   5.5414
 11.446   5.6856
 11.421   5.8401
 11.396   5.9431
 11.371   5.9740
 11.346   6.1079
 11.321   6.0770
 11.297   6.0564
 11.272   6.0976
 11.248   6.2315
 11.223   6.2830
 11.199   6.4169
 11.175   6.4890
 11.151   6.5199
 11.127   6.4993
 11.103   6.6126
 11.079   6.5817
 11.056   6.6126
 11.032   6.5920
 11.009   6.6126
 10.985   6.5714
 10.962   6.5714
 10.939   6.5714
 10.916   6.6847
 10.893   6.6744
 10.870   6.6538
 10.848   6.6641
 10.825   6.7053
 10.802   6.6332
 10.780   6.6744
 10.758   6.5714
 10.735   6.5096
 10.713   6.5302
 10.691   6.5817
 10.669   6.5302
 10.647   6.5405
 10.625   6.5508
 10.604   6.5611
 10.582   6.4993
 10.560   6.5405
 10.539   6.4375
 10.518   6.3551
 10.496   6.3448
 10.475   6.4169
 10.454   6.3963
 10.433   6.4375
 10.412   6.3860
 10.391   6.3860
 10.370   6.3860
 10.350   6.4375
 10.329   6.3963
 10.309   6.4272
 10.288   6.3654
 10.268   6.3757
 10.247   6.3551
 10.227   6.3242
 10.207   6.2521
 10.187   6.2624
 10.167   6.2109
 10.147   6.2315
 10.127   6.1800
 10.108   6.2830
 10.088   6.3345
 10.068   6.2933
 10.049   6.3345
 10.029   6.4375
 10.010   6.4684
  9.991   6.4890
  9.972   6.4993
  9.952   6.4478
  9.933   6.4169
  9.914   6.4890
  9.895   6.4787
  9.877   6.4993
  9.858   6.4066
  9.839   6.4169
  9.821   6.4169
  9.802   6.4375
  9.783   6.3757
  9.765   6.3139
  9.747   6.3345
  9.728   6.4478
  9.710   6.3860
  9.692   6.3860
  9.674   6.3860
  9.656   6.3654
  9.638   6.2830
  9.620   6.2521
  9.602   6.2109
  9.585   6.1594
  9.567   6.1594
  9.549   6.1079
  9.532   5.9431
  9.514   5.9431
  9.497   5.9534
  9.479   5.9431
  9.462   5.8092
  9.445   5.7577
  9.428   5.8092
  9.411   5.8504
  9.394   5.7371
  9.377   5.7371
  9.360   5.6547
  9.343   5.6650
  9.326   5.6444
  9.309   5.6341
  9.293   5.5208
  9.276   5.4075
  9.259   5.3354
  9.243   5.4281
  9.226   5.4796
  9.210   5.5723
  9.194   5.5929
  9.178   5.5414
  9.161   5.4899
  9.145   5.5105
  9.129   5.5208
  9.113   5.5105
  9.097   5.3251
  9.081   5.4384
  9.065   5.5311
  9.049   5.5105
  9.034   5.4487
  9.018   5.4899
  9.002   5.5105
  8.987   5.5311
  8.971   5.4590
  8.956   5.4899
  8.940   5.4384
  8.925   5.3972
  8.909   5.2221
  8.894   5.1603
  8.879   5.2324
  8.864   5.2324
  8.849   5.1088
  8.834   5.0264
  8.819   4.9646
  8.804   4.9440
  8.789   4.8101
  8.774   4.8307
  8.759   4.8513
  8.744   4.7998
  8.730   4.7380
  8.715   4.6453
  8.700   4.5835
  8.686   4.6144
  8.671   4.5732
  8.657   4.5835
  8.642   4.6247
  8.628   4.6144
  8.614   4.4908
  8.599   4.4393
  8.585   4.3569
  8.571   4.3878
  8.557   4.3672
  8.543   4.4084
  8.529   4.4702
  8.515   4.4908
  8.501   4.3981
  8.487   4.2745
  8.473   4.2024
  8.459   4.2333
  8.445   4.1406
  8.431   4.0891
  8.418   4.0788
  8.404   4.1715
  8.391   4.0582
  8.377   4.0170
  8.363   3.9552
  8.350   3.9037
  8.337   3.7492
  8.323   3.6771
  8.310   3.5226
  8.297   3.4196
  8.283   3.3063
  8.270   3.1621
  8.257   2.9870
  8.244   2.8325
  8.231   2.5750
  8.218   2.4308
  8.205   2.2969
  8.192   2.1527
  8.179   2.0703
  8.166   2.0291
  8.153   1.8849
  8.140   1.7716
  8.128   1.7304
  8.115   1.6789
  8.102   1.5862
  8.090   1.6377
  8.077   1.6274
  8.064   1.6068
  8.052   1.5450
  8.039   1.5347
  8.027   1.4317
  8.015   1.3596
  8.002   1.3287
  7.990   1.4111
  7.978   1.4935
  7.965   1.5038
  7.953   1.4935
  7.941   1.5038
  7.929   1.4832
  7.917   1.4523
  7.905   1.4111
  7.893   1.4832
  7.881   1.5244
  7.869   1.5141
  7.857   1.4935
  7.845   1.5141
  7.833   1.4935
  7.821   1.5244
  7.809   1.5141
  7.798   1.5450
  7.786   1.5450
  7.774   1.6068
  7.763   1.6686
  7.751   1.7201
  7.739   1.7407
  7.728   1.7098
  7.716   1.5965
  7.705   1.6892
  7.694   1.7304
  7.682   1.7716
  7.671   1.7613
  7.659   1.7613
  7.648   1.8025
  7.637   1.9158
  7.626   1.8849
  7.614   1.8334
  7.603   1.8540
  7.592   1.9055
  7.581   1.9158
  7.570   1.9055
  7.559   1.9158
  7.548   2.0085
  7.537   2.0085
  7.526   1.9776
  7.515   1.9467
  7.504   2.0394
  7.493   2.0085
  7.483   1.9982
  7.472   2.0188
  7.461   2.0394
  7.450   2.0806
  7.440   2.1321
  7.429   2.1115
  7.418   2.1218
  7.408   2.1321
  7.397   2.1321
  7.387   2.1012
  7.376   2.1733
  7.366   2.2248
  7.355   2.2866
  7.345   2.2866
  7.334   2.2454
  7.324   2.3175
  7.314   2.3484
  7.303   2.2969
  7.293   2.3484
  7.283   2.3896
  7.273   2.3793
  7.263   2.3484
  7.252   2.3999
  7.242   2.4308
  7.232   2.4720
  7.222   2.4617
  7.212   2.4720
  7.202   2.4926
  7.192   2.5853
  7.182   2.5956
  7.172   2.5544
  7.162   2.5235
  7.152   2.5750
  7.143   2.5750
  7.133   2.6059
  7.123   2.6471
  7.113   2.6780
  7.103   2.6883
  7.094   2.7295
  7.084   2.7295
  7.074   2.8016
  7.065   2.7913
  7.055   2.7604
  7.046   2.7810
  7.036   2.8531
  7.026   2.7707
  7.017   2.7398
  7.007   2.7810
  6.998   2.8222
  6.989   2.8016
  6.979   2.8325
  6.970   2.8119
  6.960   2.8531
  6.951   2.9149
  6.942   2.9252
  6.932   2.8840
  6.923   2.9252
  6.914   2.9046
  6.905   2.9046
  6.896   2.9046
  6.886   2.9458
  6.877   2.9767
  6.868   3.0385
  6.859   2.9973
  6.850   3.0179
  6.841   3.0591
  6.832   3.0591
  6.823   3.0179
  6.814   3.0900
  6.805   3.1415
  6.796   3.0900
  6.787   3.0694
  6.778   3.0900
  6.770   3.1209
  6.761   3.1518
  6.752   3.1312
  6.743   3.2033
  6.734   3.2136
  6.726   3.1930
  6.717   3.1518
  6.708   3.1724
  6.700   3.1724
  6.691   3.2033
  6.682   3.1930
  6.674   3.2342
  6.665   3.2754
  6.657   3.2651
  6.648   3.2445
  6.640   3.2445
  6.631   3.1827
  6.623   3.2239
  6.614   3.2857
  6.606   3.3166
  6.597   3.2960
  6.589   3.3269
  6.581   3.3475
  6.572   3.3372
  6.564   3.2960
  6.556   3.3269
  6.547   3.3372
  6.539   3.3887
  6.531   3.4196
  6.523   3.3784
  6.514   3.3475
  6.506   3.2960
  6.498   3.3166
  6.490   3.3990
  6.482   3.3887
  6.474   3.3887
  6.466   3.3681
  6.458   3.3887
  6.450   3.3990
  6.442   3.4505
  6.434   3.4299
  6.426   3.4299
  6.418   3.4196
  6.410   3.4299
  6.402   3.4093
  6.394   3.4196
  6.386   3.4402
  6.378   3.4505
  6.370   3.4093
  6.363   3.3990
  6.355   3.3887
  6.347   3.3578
  6.339   3.3578
  6.332   3.4711
  6.324   3.4917
  6.316   3.4711
  6.308   3.4402
  6.301   3.4196
  6.293   3.3578
  6.286   3.3990
  6.278   3.4402
  6.270   3.4505
  6.263   3.4505
  6.255   3.3681
  6.248   3.3475
  6.240   3.3990
  6.233   3.3681
  6.225   3.3681
  6.218   3.3681
  6.210   3.3269
  6.203   3.2548
  6.195   3.2136
  6.188   3.2136
  6.181   3.2342
  6.173   3.2342
  6.166   3.2342
  6.159   3.1621
  6.151   3.1106
  6.144   3.0591
  6.137   3.0488
  6.130   3.0694
  6.122   3.0900
  6.115   3.1312
  6.108   3.1518
  6.101   3.1621
  6.094   3.1518
  6.086   3.1106
  6.079   3.1106
  6.072   3.1518
  6.065   3.1827
  6.058   3.1930
  6.051   3.1621
  6.044   3.1415
  6.037   3.1518
  6.030   3.1827
  6.023   3.2239
  6.016   3.2548
  6.009   3.3269
  6.002   3.3166
  5.995   3.2857
  5.988   3.3475
  5.981   3.4299
  5.974   3.4402
  5.967   3.4505
  5.960   3.4917
  5.954   3.5535
  5.947   3.5638
  5.940   3.5741
  5.933   3.5844
  5.926   3.6359
  5.920   3.7080
  5.913   3.7801
  5.906   3.7801
  5.899   3.7801
  5.893   3.7698
  5.886   3.8007
  5.879   3.8728
  5.873   3.9449
  5.866   3.9964
  5.859   3.9964
  5.853   4.0067
  5.846   4.0685
  5.840   4.0788
  5.833   4.0994
  5.827   4.1200
  5.820   4.1818
  5.813   4.2642
  5.807   4.2745
  5.800   4.2745
  5.794   4.2745
  5.788   4.2745
  5.781   4.3054
  5.775   4.3157
  5.768   4.3363
  5.762   4.3569
  5.755   4.3775
  5.749   4.3878
  5.743   4.4187
  5.736   4.4908
  5.730   4.5011
  5.724   4.4908
  5.717   4.4702
  5.711   4.4599
  5.705   4.4702
  5.698   4.4805
  5.692   4.4908
  5.686   4.4908
  5.680   4.5217
  5.674   4.5732
  5.667   4.6350
  5.661   4.6144
  5.655   4.5732
  5.649   4.6144
  5.643   4.6453
  5.637   4.6556
  5.630   4.6865
  5.624   4.6762
  5.618   4.6659
  5.612   4.6865
  5.606   4.7277
  5.600   4.7483
  5.594   4.7277
  5.588   4.7483
  5.582   4.7998
  5.576   4.7792
  5.570   4.7689
  5.564   4.7998
  5.558   4.8616
  5.552   4.8822
  5.546   4.8616
  5.540   4.8616
  5.534   4.9131
  5.528   4.8925
  5.523   4.9131
  5.517   4.9955
  5.511   5.0161
  5.505   4.9852
  5.499   5.0161
  5.493   5.0264
  5.487   5.0779
  5.482   5.0985
  5.476   5.0985
  5.470   5.0779
  5.464   5.0264
  5.459   5.0264
  5.453   5.1191
  5.447   5.1603
  5.441   5.1603
  5.436   5.1912
  5.430   5.2015
  5.424   5.2221
  5.419   5.2324
  5.413   5.2324
  5.407   5.2942
  5.402   5.2839
  5.396   5.2736
  5.390   5.3251
  5.385   5.3148
  5.379   5.2736
  5.374   5.3045
  5.368   5.3560
  5.363   5.4075
  5.357   5.4590
  5.352   5.4487
  5.346   5.4384
  5.341   5.4487
  5.335   5.4487
  5.330   5.4796
  5.324   5.5517
  5.319   5.5620
  5.313   5.5311
  5.308   5.5208
  5.302   5.5517
  5.297   5.6341
  5.291   5.6856
  5.286   5.7371
  5.281   5.7268
  5.275   5.7371
  5.270   5.7783
  5.265   5.7783
  5.259   5.7886
  5.254   5.8195
  5.249   5.8401
  5.243   5.8607
  5.238   5.8916
  5.233   5.9019
  5.227   5.9431
  5.222   5.9637
  5.217   5.9843
  5.212   6.0152
  5.206   6.0564
  5.201   6.0873
  5.196   6.0873
  5.191   6.0873
  5.186   6.1285
  5.180   6.1491
  5.175   6.2006
  5.170   6.2006
  5.165   6.1800
  5.160   6.2109
  5.155   6.2006
  5.150   6.2315
  5.145   6.2830
  5.139   6.3345
  5.134   6.3757
  5.129   6.4169
  5.124   6.4478
  5.119   6.4478
  5.114   6.4375
  5.109   6.4478
  5.104   6.4581
  5.099   6.4890
  5.094   6.4890
  5.089   6.4890
  5.084   6.6023
  5.079   6.6744
  5.074   6.6641
  5.069   6.6538
  5.064   6.7053
  5.059   6.7156
  5.054   6.7259
  5.049   6.7980
  5.044   6.8392
  5.040   6.8392
  5.035   6.8392
  5.030   6.8701
  5.025   6.8907
  5.020   6.8907
  5.015   6.8598
  5.010   6.9216
  5.005   7.0246
  5.001   7.0761
  4.996   7.0761
  4.991   7.0658
  4.986   7.0967
  4.981   7.1276
  4.977   7.0967
  4.972   7.1173
  4.967   7.1997
  4.962   7.3027
  4.958   7.3439
  4.953   7.3336
  4.948   7.3233
  4.943   7.3233
  4.939   7.3542
  4.934   7.3748
  4.929   7.4366
  4.925   7.4984
  4.920   7.5190
  4.915   7.5087
  4.911   7.5087
  4.906   7.5293
  4.901   7.5293
  4.897   7.5602
  4.892   7.6014
  4.888   7.6117
  4.883   7.6323
  4.878   7.6117
  4.874   7.6529
  4.869   7.7353
  4.865   7.7662
  4.860   7.7662
  4.856   7.8280
  4.851   7.8795
  4.846   7.9104
  4.842   7.9104
  4.837   7.8898
  4.833   7.9104
  4.828   7.9310
  4.824   7.9413
  4.819   7.9722
  4.815   7.9928
  4.810   8.0031
  4.806   8.0031
  4.802   8.0340
  4.797   8.0340
  4.793   8.0443
  4.788   8.0649
  4.784   8.0958
  4.779   8.1267
  4.775   8.1473
  4.771   8.2091
  4.766   8.2194
  4.762   8.2091
  4.758   8.1885
  4.753   8.1885
  4.749   8.2503
  4.744   8.3018
  4.740   8.3121
  4.736   8.3430
  4.731   8.4048
  4.727   8.4151
  4.723   8.4254
  4.719   8.5387
  4.714   8.5078
  4.710   8.4769
  4.706   8.5181
  4.701   8.5490
  4.697   8.6005
  4.693   8.6108
  4.689   8.6108
  4.684   8.6829
  4.680   8.7138
  4.676   8.6623
  4.672   8.6623
  4.668   8.7756
  4.663   8.8374
  4.659   8.8168
  4.655   8.8065
  4.651   8.8168
  4.647   8.8889
  4.643   8.9095
  4.638   8.9198
  4.634   8.9713
  4.630   8.9713
  4.626   8.9816
  4.622   9.0022
  4.618   9.0125
  4.614   9.0434
  4.610   9.1464
  4.605   9.2185
  4.601   9.1979
  4.597   9.1876
  4.593   9.2082
  4.589   9.2185
  4.585   9.2906
  4.581   9.3833
  4.577   9.3730
  4.573   9.3009
  4.569   9.3318
  4.565   9.4760
  4.561   9.5790
  4.557   9.5687
  4.553   9.5172
  4.549   9.5172
  4.545   9.5481
  4.541   9.5790
  4.537   9.6614
  4.533   9.6614
  4.529   9.6408
  4.525   9.7232
  4.521   9.7644
  4.517   9.7850
  4.513   9.8159
  4.509   9.8777
  4.505   9.8777
  4.502   9.8983
  4.498   9.9704
  4.494  10.0013
  4.490   9.9601
  4.486   9.9292
  4.482  10.0116
  4.478  10.0425
  4.474  10.0219
  4.470  10.1146
  4.467  10.2382
  4.463  10.2485
  4.459  10.1455
  4.455  10.1661
  4.451  10.2279
  4.447  10.2073
  4.444  10.1867
  4.440  10.2485
  4.436  10.2588
  4.432  10.3103
  4.428  10.3515
  4.425  10.3103
  4.421  10.3412
  4.417  10.4236
  4.413  10.4648
  4.410  10.5369
  4.406  10.5987
  4.402  10.5575
  4.398  10.5060
  4.395  10.5575
  4.391  10.6090
  4.387  10.6296
  4.384  10.5884
  4.380  10.5575
  4.376  10.5884
  4.372  10.6811
  4.369  10.7223
  4.365  10.7223
  4.361  10.7944
  4.358  10.8253
  4.354  10.7944
  4.350  10.8047
  4.347  10.7841
  4.343  10.8665
  4.340  10.9283
  4.336  10.9180
  4.332  10.9901
  4.329  11.0313
  4.325  10.9283
  4.321  10.9180
  4.318  11.0107
  4.314  11.0622
  4.311  11.0931
  4.307  11.1034
  4.304  11.1446
  4.300  11.0931
  4.296  11.0107
  4.293  11.0725
  4.289  11.1549
  4.286  11.2270
  4.282  11.2682
  4.279  11.2476
  4.275  11.1961
  4.272  11.2476
  4.268  11.2476
  4.265  11.2064
  4.261  11.2785
  4.258  11.3918
  4.254  11.4124
  4.251  11.4124
  4.247  11.3918
  4.244  11.3712
  4.240  11.4227
  4.237  11.4845
  4.233  11.4948
  4.230  11.4639
  4.226  11.4021
  4.223  11.5566
  4.219  11.6493
  4.216  11.6390
  4.213  11.5978
  4.209  11.6287
  4.206  11.7214
  4.202  11.7832
  4.199  11.8141
  4.196  11.8244
  4.192  11.8141
  4.189  11.7214
  4.185  11.7729
  4.182  11.8347
  4.179  11.9068
  4.175  11.9171
  4.172  11.8656
  4.169  11.8759
  4.165  11.9480
  4.162  11.9583
  4.159  12.0201
  4.155  12.1025
  4.152  12.0510
  4.149  12.0819
  4.145  12.1128
  4.142  12.0098
  4.139  11.9686
  4.135  12.0922
  4.132  12.0922
  4.129  12.1643
  4.126  12.2261
  4.122  12.2467
  4.119  12.2570
  4.116  12.2776
  4.112  12.2364
  4.109  12.1334
  4.106  12.1849
  4.103  12.3394
  4.099  12.2982
  4.096  12.3085
  4.093  12.3600
  4.090  12.3909
  4.086  12.4115
  4.083  12.3806
  4.080  12.3909
  4.077  12.3497
  4.074  12.3188
  4.070  12.3703
  4.067  12.3703
  4.064  12.4424
  4.061  12.5454
  4.058  12.5660
  4.055  12.5557
  4.051  12.5660
  4.048  12.6587
  4.045  12.7308
  4.042  12.7411
  4.039  12.6175
  4.036  12.5042
  4.032  12.5557
  4.029  12.6587
  4.026  12.7411
  4.023  12.7514
  4.020  12.6690
  4.017  12.5763
  4.014  12.5969
  4.011  12.6484
  4.008  12.7720
  4.004  12.8029
  4.001  12.8132
  3.998  12.7926
  3.995  12.7926
  3.992  12.7926
  3.989  12.7617
  3.986  12.6587
  3.983  12.7205
  3.980  12.8544
  3.977  12.9471
  3.974  12.9059
  3.971  12.8441
  3.968  12.8235
  3.965  12.8338
  3.962  12.8235
  3.959  12.8647
  3.956  12.8544
  3.953  12.8647
  3.950  12.8750
  3.947  12.9780
  3.944  12.9780
  3.941  12.9780
  3.938  12.9677
  3.935  12.9162
  3.932  12.9883
  3.929  13.0089
  3.926  12.9574
  3.923  12.9368
  3.920  12.9780
  3.917  12.9986
  3.914  13.0089
  3.911  12.9986
  3.908  12.9471
  3.905  12.9162
  3.902  12.8647
  3.899  12.9265
  3.896  12.9368
  3.893  12.9162
  3.890  12.9162
  3.887  12.9162
  3.884  12.9162
  3.882  13.0192
  3.879  13.0192
  3.876  12.9162
  3.873  12.9780
  3.870  13.0398
  3.867  12.9162
  3.864  12.8956
  3.861  12.9368
  3.858  12.9780
  3.856  12.9471
  3.853  12.9265
  3.850  12.9265
  3.847  12.8853
  3.844  12.8853
  3.841  12.9677
  3.838  12.9780
  3.836  12.9677
  3.833  12.9574
  3.830  12.9986
  3.827  12.9471
  3.824  12.9059
  3.822  12.9265
  3.819  12.9162
  3.816  12.8235
  3.813  12.8647
  3.810  12.8956
  3.807  12.9265
  3.805  12.8853
  3.802  12.8647
  3.799  12.8441
  3.796  12.8235
  3.794  12.8750
  3.791  12.9265
  3.788  12.8956
  3.785  12.8750
  3.782  12.8441
  3.780  12.8647
  3.777  12.7823
  3.774  12.7411
  3.771  12.7720
  3.769  12.7514
  3.766  12.6793
  3.763  12.6278
  3.761  12.6072
  3.758  12.6793
  3.755  12.6896
  3.752  12.6381
  3.750  12.6278
  3.747  12.6999
  3.744  12.6999
  3.742  12.6175
  3.739  12.6072
  3.736  12.5969
  3.733  12.6278
  3.731  12.6484
  3.728  12.5557
  3.725  12.5969
  3.723  12.5866
  3.720  12.4836
  3.717  12.5042
  3.715  12.5351
  3.712  12.4012
  3.709  12.3291
  3.707  12.4012
  3.704  12.4115
  3.702  12.3909
  3.699  12.2879
  3.696  12.2261
  3.694  12.3188
  3.691  12.2467
  3.688  12.2158
  3.686  12.2055
  3.683  12.1643
  3.680  12.2055
  3.678  12.3291
  3.675  12.3394
  3.673  12.1746
  3.670  12.1025
  3.667  12.2055
  3.665  12.3085
  3.662  12.2055
  3.660  12.1540
  3.657  12.1746
  3.655  12.1334
  3.652  12.1025
  3.649  12.0613
  3.647  11.9995
  3.644  12.0201
  3.642  12.1540
  3.639  12.0819
  3.637  11.8965
  3.634  11.8862
  3.632  11.9686
  3.629  11.9274
  3.626  11.8141
  3.624  11.7626
  3.621  11.7935
  3.619  11.7832
  3.616  11.8244
  3.614  11.8038
  3.611  11.7523
  3.609  11.7214
  3.606  11.7317
  3.604  11.6596
  3.601  11.6596
  3.599  11.6802
  3.596  11.7008
  3.594  11.6905
  3.591  11.7214
  3.589  11.6493
  3.586  11.5566
  3.584  11.5154
  3.581  11.5463
  3.579  11.5566
  3.576  11.5051
  3.574  11.4845
